# Columns:
#   distance along LOS (in CHIMPs)
#   peculiar velocity  (in km/s)
#   temperature (K)
#   HI number density
# pos=(86.6357,15.4505,3.36622), angles=(1.45211,1.30695)
  0.00423     47.0 9.769e+03 3.358e-10
  0.02884     48.9 9.520e+03 2.824e-10
  0.05927     50.8 9.369e+03 2.652e-10
  0.07965     50.4 9.220e+03 2.293e-10
  0.11034     52.5 9.220e+03 2.366e-10
  0.15109     54.6 9.260e+03 2.523e-10
  0.17419     56.7 9.361e+03 2.712e-10
  0.19457     55.5 9.170e+03 2.466e-10
  0.21619     57.5 9.243e+03 2.572e-10
  0.23657     57.3 9.290e+03 2.651e-10
  0.27333     59.2 9.414e+03 2.853e-10
  0.31408     61.0 9.586e+03 3.150e-10
  0.35274     62.4 9.738e+03 3.561e-10
  0.37311     62.6 9.791e+03 3.752e-10
  0.39558     63.6 9.857e+03 4.201e-10
  0.42605     64.2 9.810e+03 4.374e-10
  0.44119     64.9 9.891e+03 4.774e-10
  0.45138     65.0 9.974e+03 5.074e-10
  0.46670     66.1 1.017e+04 6.016e-10
  0.48707     67.2 1.038e+04 6.807e-10
  0.50194     68.1 1.059e+04 7.460e-10
  0.51213     67.4 1.013e+04 5.502e-10
  0.51965     68.2 1.028e+04 5.939e-10
  0.52984     68.5 1.048e+04 6.655e-10
  0.54820     69.2 1.063e+04 7.068e-10
  0.56857     69.8 1.074e+04 7.461e-10
  0.58793     70.2 1.083e+04 7.822e-10
  0.59811     70.4 1.095e+04 8.302e-10
  0.60932     70.8 1.101e+04 8.581e-10
  0.62970     71.1 1.114e+04 9.106e-10
  0.65007     71.4 1.133e+04 9.996e-10
  0.66591     71.6 1.161e+04 1.135e-09
  0.67204     71.4 1.160e+04 1.132e-09
  0.67657     71.4 1.184e+04 1.268e-09
  0.69082     71.2 1.243e+04 1.634e-09
  0.71119     70.9 1.338e+04 2.299e-09
  0.73157     70.7 1.440e+04 3.228e-09
  0.74480     70.2 1.505e+04 3.913e-09
  0.74984     69.7 1.586e+04 4.807e-09
  0.75289     68.4 1.727e+04 6.684e-09
  0.75799     69.3 1.661e+04 5.808e-09
  0.76713     67.0 1.867e+04 8.890e-09
  0.77731     64.3 2.063e+04 1.491e-08
  0.78398     62.1 2.192e+04 2.607e-08
  0.78907     61.8 2.266e+04 4.010e-08
  0.79769     60.8 2.311e+04 8.391e-08
  0.80788     59.7 2.335e+04 1.724e-07
  0.81806     57.0 2.363e+04 2.802e-07
  0.82321     52.6 2.400e+04 2.938e-07
  0.82830     50.4 2.348e+04 4.039e-07
  0.83488     46.2 2.411e+04 2.621e-07
  0.83997     46.6 2.413e+04 2.694e-07
  0.84863     42.6 2.512e+04 1.371e-07
  0.85735     38.6 2.496e+04 6.524e-08
  0.86244     35.9 2.419e+04 4.350e-08
  0.86900     33.3 2.163e+04 2.489e-08
  0.87919     32.3 1.986e+04 1.751e-08
  0.89153     31.9 1.913e+04 1.336e-08
  0.90177     28.8 1.797e+04 7.022e-09
  0.91494     28.1 1.651e+04 3.817e-09
  0.93532     27.5 1.510e+04 2.318e-09
  0.95569     27.2 1.368e+04 1.596e-09
  0.97004     27.5 1.264e+04 1.287e-09
  0.98023     26.3 1.209e+04 1.276e-09
  0.99385     27.8 1.213e+04 1.258e-09
  1.00404     28.3 1.251e+04 1.317e-09
  1.01682     29.2 1.244e+04 1.276e-09
  1.03719     30.1 1.234e+04 1.236e-09
  1.04850     31.0 1.221e+04 1.208e-09
  1.05869     30.0 1.208e+04 1.400e-09
  1.07794     31.0 1.204e+04 1.347e-09
  1.09831     32.0 1.199e+04 1.286e-09
  1.11677     33.0 1.193e+04 1.217e-09
  1.12696     31.9 1.231e+04 1.493e-09
  1.13906     32.8 1.222e+04 1.399e-09
  1.15782     33.7 1.214e+04 1.314e-09
  1.16801     33.8 1.249e+04 1.636e-09
  1.17981     34.6 1.249e+04 1.583e-09
  1.19523     35.5 1.246e+04 1.517e-09
  1.20542     34.3 1.264e+04 1.684e-09
  1.22056     34.9 1.278e+04 1.685e-09
  1.24094     35.3 1.291e+04 1.700e-09
  1.26131     36.0 1.313e+04 1.750e-09
  1.27369     36.6 1.355e+04 1.878e-09
  1.28388     34.3 1.436e+04 2.484e-09
  1.30206     34.5 1.480e+04 2.957e-09
  1.32180     34.7 1.546e+04 3.775e-09
  1.33198     33.5 1.688e+04 5.847e-09
  1.34197     33.4 1.773e+04 7.998e-09
  1.35216     32.9 1.665e+04 6.448e-09
  1.36319     32.3 1.761e+04 7.754e-09
  1.38356     30.9 1.858e+04 9.039e-09
  1.40393     29.3 1.935e+04 1.061e-08
  1.42043     28.5 1.996e+04 1.197e-08
  1.43062     25.8 1.754e+04 5.490e-09
  1.44468     24.5 1.699e+04 4.883e-09
  1.46506     24.0 1.613e+04 3.974e-09
  1.48543     23.7 1.511e+04 2.842e-09
  1.49595     22.8 1.391e+04 1.735e-09
  1.49922     21.5 1.292e+04 1.241e-09
  1.50908     20.3 1.182e+04 7.822e-10
  1.52618     19.7 1.120e+04 5.663e-10
  1.54656     19.2 1.077e+04 4.458e-10
  1.56693     19.2 1.051e+04 3.797e-10
  1.57735     19.3 1.037e+04 3.449e-10
  1.58754     19.6 1.022e+04 3.269e-10
  1.61797     20.7 1.008e+04 3.083e-10
  1.65881     22.2 1.006e+04 3.097e-10
  1.69956     23.1 1.015e+04 3.327e-10
  1.72428     23.9 1.061e+04 4.341e-10
  1.73437     23.7 1.091e+04 4.062e-10
  1.75030     23.5 1.103e+04 4.648e-10
  1.77068     23.2 1.113e+04 5.374e-10
  1.79105     23.0 1.130e+04 6.248e-10
  1.80254     22.8 1.153e+04 7.273e-10
  1.81273     22.5 1.155e+04 6.898e-10
  1.82390     22.3 1.178e+04 7.866e-10
  1.83408     22.0 1.187e+04 8.026e-10
  1.85218     21.7 1.208e+04 8.708e-10
  1.87082     21.3 1.215e+04 8.790e-10
  1.88100     20.9 1.220e+04 9.043e-10
  1.89293     20.4 1.215e+04 8.931e-10
  1.91330     20.1 1.195e+04 8.319e-10
  1.93368     19.7 1.168e+04 7.464e-10
  1.94928     17.2 1.244e+04 7.998e-10
  1.95946     13.8 1.448e+04 9.909e-10
  1.97443      5.4 1.792e+04 2.320e-09
  1.98787      0.6 1.816e+04 5.422e-09
  1.99806      0.2 1.816e+04 7.466e-09
  2.01518      0.0 1.756e+04 8.795e-09
  2.02774      0.4 1.709e+04 7.821e-09
  2.03793     -0.7 1.668e+04 6.490e-09
  2.05593     -1.7 1.604e+04 3.297e-09
  2.07630     -5.8 1.509e+04 1.255e-09
  2.09601    -12.7 1.240e+04 4.678e-10
  2.10620    -17.6 1.055e+04 3.368e-10
  2.11705    -19.4 9.692e+03 2.747e-10
  2.13742    -19.3 9.529e+03 2.625e-10
  2.15184    -18.9 9.644e+03 2.750e-10
  2.16203    -20.0 9.828e+03 3.153e-10
  2.17447    -19.7 9.908e+03 3.371e-10
  2.18466    -22.7 1.035e+04 3.630e-10
  2.19855    -24.3 1.159e+04 4.197e-10
  2.21892    -27.3 1.415e+04 6.437e-10
  2.23930    -30.4 1.690e+04 1.367e-09
  2.25293    -32.4 1.865e+04 2.907e-09
  2.26312    -39.6 2.161e+04 1.041e-08
  2.28005    -40.5 2.239e+04 1.340e-08
  2.30042    -41.4 2.334e+04 1.517e-08
  2.31581    -43.1 2.357e+04 1.598e-08
  2.32600    -43.5 2.355e+04 1.497e-08
  2.33139    -45.7 2.452e+04 1.351e-08
  2.33644    -52.7 2.439e+04 6.969e-09
  2.34617    -53.0 2.438e+04 6.609e-09
  2.36150    -56.9 2.005e+04 2.418e-09
  2.38192    -60.4 1.588e+04 1.433e-09
  2.39967    -62.6 1.301e+04 1.014e-09
  2.40985    -68.1 1.050e+04 4.320e-10
  2.42267    -68.3 1.005e+04 2.859e-10
  2.44304    -68.8 9.704e+03 2.319e-10
  2.46342    -68.4 9.393e+03 2.109e-10
  2.47813    -68.4 9.229e+03 2.027e-10
  2.48440    -69.9 9.075e+03 1.791e-10
  2.49016    -70.1 9.146e+03 1.923e-10
  2.51455    -68.6 9.443e+03 2.422e-10
  2.54502    -66.5 9.608e+03 2.723e-10
  2.55659    -66.6 9.925e+03 3.304e-10
  2.56677    -68.2 1.015e+04 3.302e-10
  2.58567    -67.5 9.931e+03 3.648e-10
  2.60604    -68.0 1.016e+04 4.444e-10
  2.62486    -68.7 1.067e+04 5.576e-10
  2.63505    -71.2 1.162e+04 7.541e-10
  2.64375    -72.0 1.243e+04 1.111e-09
  2.65394    -72.0 1.253e+04 1.177e-09
  2.66717    -72.3 1.305e+04 1.665e-09
  2.68754    -72.0 1.321e+04 2.065e-09
  2.70332    -71.5 1.320e+04 2.239e-09
  2.71351    -72.7 1.321e+04 2.415e-09
  2.72829    -71.8 1.302e+04 2.259e-09
  2.74867    -71.0 1.285e+04 2.046e-09
  2.76904    -70.6 1.269e+04 1.815e-09
  2.78178    -70.5 1.265e+04 1.567e-09
  2.79197    -72.1 1.230e+04 9.801e-10
  2.80772    -72.2 1.185e+04 7.823e-10
  2.81791    -71.8 1.202e+04 8.841e-10
  2.83016    -71.4 1.171e+04 7.015e-10
  2.85005    -71.1 1.152e+04 6.340e-10
  2.86024    -72.7 1.046e+04 3.532e-10
  2.87091    -70.8 1.031e+04 3.167e-10
  2.89129    -70.6 1.029e+04 3.087e-10
  2.91166    -68.9 1.022e+04 2.956e-10
  2.92851    -68.9 1.021e+04 2.925e-10
  2.93880    -69.4 9.867e+03 2.367e-10
  2.96280    -67.1 9.821e+03 2.383e-10
  3.00354    -64.9 9.792e+03 2.264e-10
  3.04429    -62.9 9.783e+03 2.205e-10
  3.07544    -60.7 9.824e+03 2.206e-10
  3.09582    -62.3 9.595e+03 1.934e-10
  3.12568    -60.1 9.595e+03 1.905e-10
  3.16642    -56.8 9.572e+03 1.779e-10
  3.20729    -54.7 9.621e+03 1.675e-10
  3.23236    -52.7 9.703e+03 1.706e-10
  3.25274    -54.6 9.661e+03 1.654e-10
  3.28879    -53.1 9.908e+03 1.920e-10
  3.32954    -51.6 1.048e+04 2.514e-10
  3.36891    -50.2 1.145e+04 3.453e-10
  3.38929    -52.2 1.140e+04 3.935e-10
  3.40075    -51.1 1.175e+04 4.724e-10
  3.42103    -51.2 1.169e+04 5.507e-10
  3.44141    -50.8 1.168e+04 5.500e-10
  3.45736    -50.6 1.170e+04 5.470e-10
  3.46755    -51.6 1.145e+04 4.456e-10
  3.47389    -50.4 1.142e+04 3.897e-10
  3.48408    -49.9 1.146e+04 4.065e-10
  3.50253    -49.9 1.138e+04 3.745e-10
  3.52290    -49.1 1.112e+04 2.992e-10
  3.53582    -49.1 1.107e+04 2.906e-10
  3.54611    -49.3 1.087e+04 2.577e-10
  3.57404    -48.3 1.048e+04 2.051e-10
  3.61479    -47.2 1.026e+04 1.763e-10
  3.65554    -46.0 1.014e+04 1.557e-10
  3.68275    -44.9 9.954e+03 1.530e-10
  3.70313    -45.3 9.533e+03 1.229e-10
  3.73703    -43.9 9.811e+03 1.487e-10
  3.77778    -42.6 1.051e+04 2.241e-10
  3.80193    -41.6 1.094e+04 3.290e-10
  3.82231    -40.4 1.084e+04 2.988e-10
  3.83958    -40.2 1.094e+04 3.992e-10
  3.84967    -40.1 1.093e+04 3.929e-10
  3.86927    -40.3 1.107e+04 5.356e-10
  3.88965    -39.9 1.133e+04 6.789e-10
  3.90775    -39.1 1.172e+04 7.525e-10
  3.91794    -39.1 1.162e+04 7.070e-10
  3.93040    -38.9 1.194e+04 7.101e-10
  3.95077    -39.0 1.214e+04 7.125e-10
  3.96571    -39.4 1.227e+04 7.249e-10
  3.97590    -38.5 1.226e+04 7.479e-10
  3.98621    -38.9 1.228e+04 7.675e-10
  3.99640    -38.9 1.219e+04 6.987e-10
  4.01190    -39.1 1.218e+04 7.446e-10
  4.03227    -39.0 1.215e+04 8.020e-10
  4.05265    -38.7 1.212e+04 8.418e-10
  4.06467    -38.1 1.212e+04 8.418e-10
  4.07486    -38.2 1.222e+04 8.605e-10
  4.09340    -37.6 1.221e+04 8.518e-10
  4.11377    -36.9 1.210e+04 8.107e-10
  4.12968    -36.3 1.191e+04 7.246e-10
  4.13867    -35.7 1.181e+04 7.257e-10
  4.14313    -35.8 1.202e+04 7.809e-10
  4.15452    -35.3 1.180e+04 6.752e-10
  4.17490    -34.8 1.160e+04 5.663e-10
  4.19527    -34.7 1.144e+04 4.694e-10
  4.21141    -34.8 1.130e+04 3.964e-10
  4.22159    -35.0 1.153e+04 4.746e-10
  4.23602    -35.2 1.145e+04 4.557e-10
  4.25639    -35.4 1.146e+04 4.622e-10
  4.27677    -35.7 1.148e+04 4.923e-10
  4.28987    -35.9 1.155e+04 5.517e-10
  4.29656    -35.8 1.198e+04 7.280e-10
  4.30384    -35.4 1.168e+04 6.128e-10
  4.31752    -35.6 1.171e+04 6.538e-10
  4.33789    -35.9 1.175e+04 6.861e-10
  4.35814    -36.7 1.184e+04 7.198e-10
  4.36833    -36.4 1.207e+04 7.961e-10
  4.37864    -37.8 1.212e+04 8.204e-10
  4.39902    -39.6 1.231e+04 9.271e-10
  4.41939    -44.4 1.436e+04 1.416e-09
  4.43660    -52.7 1.838e+04 3.353e-09
  4.44679    -52.6 1.881e+04 3.400e-09
  4.45762    -58.8 1.818e+04 6.534e-09
  4.46781    -55.0 1.756e+04 4.328e-09
  4.48052    -59.5 1.701e+04 5.522e-09
  4.50089    -60.7 1.584e+04 4.810e-09
  4.51506    -62.8 1.499e+04 2.901e-09
  4.52525    -62.5 1.487e+04 2.648e-09
  4.54164    -65.5 1.544e+04 7.835e-10
  4.56201    -69.0 1.469e+04 3.736e-10
  4.58239    -76.4 1.087e+04 2.289e-10
  4.59352    -76.9 1.051e+04 2.197e-10
  4.60381    -75.0 1.121e+04 2.248e-10
  4.63352    -77.6 9.769e+03 2.303e-10
  4.66189    -76.3 9.293e+03 2.161e-10
  4.67198    -75.8 9.260e+03 2.137e-10
  4.68426    -77.2 9.818e+03 2.535e-10
  4.70464    -81.5 1.159e+04 4.030e-10
  4.72501    -86.5 1.269e+04 8.908e-10
  4.74026    -89.3 1.271e+04 1.689e-09
  4.75044    -88.4 1.267e+04 1.640e-09
  4.76576    -88.6 1.345e+04 2.799e-09
  4.78557    -88.6 1.401e+04 3.290e-09
  4.79575    -89.5 1.404e+04 3.479e-09
  4.80651    -91.0 1.440e+04 3.518e-09
  4.81872    -93.0 1.396e+04 2.396e-09
  4.82890    -92.6 1.395e+04 2.437e-09
  4.84726    -95.9 1.275e+04 1.201e-09
  4.87690    -99.5 1.142e+04 6.127e-10
  4.89737    -99.1 1.140e+04 6.757e-10
  4.91877   -102.6 9.649e+03 3.654e-10
  4.95952   -103.1 8.857e+03 2.059e-10
  5.00027   -103.4 8.711e+03 1.588e-10
  5.03392   -103.5 8.784e+03 1.792e-10
  5.05429   -102.6 8.843e+03 1.846e-10
  5.08176   -102.1 9.009e+03 2.192e-10
  5.11370   -102.0 9.221e+03 2.514e-10
  5.13408   -102.1 9.470e+03 2.700e-10
  5.15298   -100.7 9.611e+03 2.987e-10
  5.17326   -100.8 9.685e+03 3.011e-10
  5.19064   -102.7 1.035e+04 3.248e-10
  5.20083   -100.2 9.746e+03 2.942e-10
  5.21401   -104.4 1.164e+04 3.820e-10
  5.23438   -111.2 1.467e+04 9.890e-10
  5.25475   -114.9 1.547e+04 2.844e-09
  5.26910   -116.0 1.570e+04 5.050e-09
  5.27929   -114.5 1.521e+04 3.488e-09
  5.28767   -114.6 1.561e+04 5.245e-09
  5.29786   -114.9 1.598e+04 5.557e-09
  5.31588   -114.8 1.669e+04 5.729e-09
  5.33625   -115.6 1.695e+04 4.493e-09
  5.34756   -118.1 1.647e+04 2.802e-09
  5.35775   -114.2 1.629e+04 3.442e-09
  5.37700   -117.3 1.577e+04 2.118e-09
  5.39738   -121.5 1.526e+04 1.849e-09
  5.41584   -126.2 1.638e+04 2.309e-09
  5.42602   -121.0 1.496e+04 1.677e-09
  5.43813   -125.3 1.663e+04 2.733e-09
  5.45164   -128.3 1.865e+04 5.968e-09
  5.46183   -128.8 1.869e+04 6.281e-09
  5.47888   -129.7 1.957e+04 1.101e-08
  5.49411   -128.9 1.974e+04 1.363e-08
  5.49929   -129.0 1.984e+04 1.460e-08
  5.50444   -127.6 1.936e+04 1.121e-08
  5.51963   -127.8 1.944e+04 1.407e-08
  5.54000   -127.7 1.935e+04 1.493e-08
  5.56038   -127.9 1.853e+04 1.162e-08
  5.57276   -128.3 1.739e+04 7.668e-09
  5.58295   -126.3 1.793e+04 8.841e-09
  5.60112   -126.9 1.668e+04 6.051e-09
  5.61561   -127.7 1.543e+04 3.683e-09
  5.62580   -127.9 1.510e+04 3.168e-09
  5.64103   -129.0 1.414e+04 1.968e-09
  5.65122   -126.6 1.458e+04 2.887e-09
  5.66225   -127.4 1.387e+04 1.966e-09
  5.68262   -128.1 1.335e+04 1.436e-09
  5.70300   -128.8 1.283e+04 1.151e-09
  5.71949   -129.3 1.227e+04 1.024e-09
  5.72968   -127.1 1.273e+04 1.122e-09
  5.74375   -127.7 1.221e+04 9.962e-10
  5.76412   -127.9 1.185e+04 9.719e-10
  5.77958   -127.7 1.171e+04 9.725e-10
  5.78977   -127.9 1.195e+04 1.108e-09
  5.79795   -127.5 1.193e+04 1.120e-09
  5.80814   -126.4 1.187e+04 1.048e-09
  5.82525   -126.1 1.185e+04 1.061e-09
  5.84562   -125.8 1.189e+04 1.057e-09
  5.86600   -125.7 1.194e+04 1.036e-09
  5.87641   -125.8 1.200e+04 1.037e-09
  5.88660   -124.8 1.198e+04 1.051e-09
  5.90675   -125.0 1.207e+04 1.104e-09
  5.92712   -125.2 1.219e+04 1.173e-09
  5.94355   -125.4 1.234e+04 1.266e-09
  5.95093   -125.8 1.260e+04 1.499e-09
  5.95487   -124.8 1.270e+04 1.572e-09
  5.96787   -125.6 1.317e+04 1.872e-09
  5.98824   -126.6 1.372e+04 2.255e-09
  6.00862   -127.7 1.428e+04 2.690e-09
  6.02315   -128.9 1.471e+04 3.069e-09
  6.03333   -129.1 1.510e+04 3.429e-09
  6.04937   -130.6 1.531e+04 3.640e-09
  6.06974   -132.1 1.540e+04 3.698e-09
  6.09012   -133.5 1.545e+04 3.675e-09
  6.10161   -135.1 1.550e+04 3.558e-09
  6.10883   -136.2 1.511e+04 3.031e-09
  6.11771   -139.2 1.544e+04 3.476e-09
  6.13087   -141.7 1.500e+04 2.945e-09
  6.15124   -144.3 1.466e+04 2.725e-09
  6.16988   -146.5 1.420e+04 2.555e-09
  6.18007   -147.3 1.355e+04 2.068e-09
  6.19199   -149.2 1.333e+04 1.998e-09
  6.21237   -151.1 1.328e+04 1.988e-09
  6.23274   -153.3 1.358e+04 2.094e-09
  6.24834   -155.7 1.436e+04 2.411e-09
  6.25853   -155.8 1.408e+04 2.322e-09
  6.27150   -157.7 1.485e+04 2.875e-09
  6.28168   -157.2 1.350e+04 1.673e-09
  6.29386   -158.5 1.387e+04 1.852e-09
  6.31424   -159.5 1.391e+04 2.010e-09
  6.32680   -160.2 1.380e+04 2.178e-09
  6.33699   -159.2 1.376e+04 2.179e-09
  6.35499   -159.6 1.361e+04 2.366e-09
  6.37536   -159.5 1.352e+04 2.533e-09
  6.39507   -159.2 1.355e+04 2.564e-09
  6.40526   -158.4 1.354e+04 2.524e-09
  6.41611   -158.1 1.343e+04 2.227e-09
  6.43547   -157.8 1.324e+04 2.025e-09
  6.44565   -156.7 1.320e+04 2.052e-09
  6.45686   -156.3 1.311e+04 1.934e-09
  6.47354   -156.1 1.313e+04 1.804e-09
  6.48372   -155.5 1.300e+04 1.771e-09
  6.49761   -155.5 1.297e+04 1.577e-09
  6.51799   -155.5 1.281e+04 1.383e-09
  6.54191   -154.8 1.260e+04 1.267e-09
  6.56228   -154.2 1.199e+04 9.953e-10
  6.58940   -153.1 1.182e+04 9.466e-10
  6.63024   -152.0 1.152e+04 8.786e-10
  6.67099   -150.7 1.141e+04 8.723e-10
  6.69892   -149.2 1.132e+04 8.516e-10
  6.71930   -148.6 1.148e+04 9.145e-10
  6.75249   -147.0 1.137e+04 8.971e-10
  6.77379   -145.5 1.107e+04 7.519e-10
  6.79417   -144.1 1.130e+04 8.312e-10
  6.83399   -142.7 1.115e+04 7.410e-10
  6.85585   -141.7 1.116e+04 7.149e-10
  6.87622   -141.1 1.122e+04 7.783e-10
  6.91549   -140.4 1.156e+04 8.711e-10
  6.95624   -140.2 1.196e+04 1.018e-09
  6.99239   -140.5 1.214e+04 1.118e-09
  7.01277   -140.1 1.258e+04 1.475e-09
  7.03774   -140.4 1.267e+04 1.537e-09
  7.07849   -140.5 1.236e+04 1.304e-09
  7.10173   -140.1 1.167e+04 9.125e-10
  7.12211   -141.2 1.204e+04 1.021e-09
  7.14931   -140.6 1.103e+04 6.015e-10
  7.16969   -140.6 1.169e+04 8.849e-10
  7.20073   -139.3 1.060e+04 4.818e-10
  7.24148   -137.5 1.005e+04 3.186e-10
  7.28223   -135.8 9.893e+03 2.775e-10
  7.30623   -134.0 9.862e+03 2.730e-10
  7.32661   -133.3 9.933e+03 2.830e-10
  7.36373   -131.5 9.882e+03 2.734e-10
  7.40448   -129.6 9.870e+03 2.718e-10
  7.42968   -127.7 9.849e+03 2.711e-10
  7.44760   -127.7 9.880e+03 2.734e-10
  7.46315   -126.7 9.809e+03 2.576e-10
  7.48598   -124.6 9.740e+03 2.485e-10
  7.52673   -122.4 9.680e+03 2.307e-10
  7.56748   -120.1 9.600e+03 2.020e-10
  7.59970   -117.7 9.540e+03 1.778e-10
  7.62008   -116.7 9.514e+03 1.789e-10
  7.64898   -114.2 9.501e+03 1.624e-10
  7.68973   -111.8 9.510e+03 1.544e-10
  7.73048   -109.3 9.519e+03 1.529e-10
  7.75662   -106.9 9.627e+03 1.538e-10
  7.76339   -105.9 9.602e+03 1.537e-10
  7.77799   -105.5 9.602e+03 1.493e-10
  7.81198   -103.2 9.755e+03 1.618e-10
  7.85273   -100.8 9.868e+03 1.815e-10
  7.89317    -98.4 9.987e+03 2.047e-10
  7.91354    -97.1 9.837e+03 1.878e-10
  7.93422    -94.6 9.978e+03 2.047e-10
  7.97497    -92.2 1.014e+04 2.204e-10
  8.01572    -89.9 1.033e+04 2.422e-10
  8.05009    -87.8 1.055e+04 2.774e-10
  8.07046    -86.0 1.036e+04 2.195e-10
  8.08556    -83.9 1.063e+04 2.559e-10
  8.10594    -83.0 1.054e+04 2.327e-10
  8.13797    -80.8 1.077e+04 2.909e-10
  8.17872    -78.5 1.099e+04 3.694e-10
  8.20701    -76.1 1.116e+04 4.245e-10
  8.22739    -74.6 1.138e+04 4.927e-10
  8.26022    -71.9 1.166e+04 6.059e-10
  8.30097    -69.4 1.197e+04 6.552e-10
  8.34172    -67.6 1.237e+04 6.321e-10
  8.36393    -67.4 1.296e+04 6.115e-10
  8.37402    -64.3 1.350e+04 1.139e-09
  8.39246    -64.7 1.408e+04 1.303e-09
  8.41283    -65.0 1.472e+04 1.625e-09
  8.42350    -66.1 1.440e+04 2.067e-09
  8.43248    -65.5 1.484e+04 2.419e-09
  8.44220    -64.3 1.755e+04 5.107e-09
  8.45358    -64.7 1.735e+04 6.642e-09
  8.47396    -65.0 1.740e+04 6.888e-09
  8.49433    -65.4 1.739e+04 4.666e-09
  8.51047    -68.1 1.446e+04 1.825e-09
  8.52066    -63.9 2.100e+04 4.545e-09
  8.53508    -69.8 1.534e+04 1.114e-09
  8.55546    -72.3 1.145e+04 6.402e-10
  8.57583    -71.2 1.102e+04 5.519e-10
  8.58747    -72.4 1.032e+04 3.765e-10
  8.59038    -72.6 1.031e+04 3.346e-10
  8.59912    -71.9 1.183e+04 4.194e-10
  8.62687    -73.0 1.089e+04 2.774e-10
  8.65740    -73.8 9.989e+03 1.694e-10
  8.67777    -72.5 1.331e+04 3.206e-10
  8.70846    -74.2 1.067e+04 2.743e-10
  8.74145    -74.1 1.001e+04 2.599e-10
  8.76182    -74.1 1.004e+04 2.253e-10
  8.78996    -72.5 9.836e+03 2.378e-10
  8.81432    -70.4 9.864e+03 2.433e-10
  8.83469    -71.1 1.010e+04 2.707e-10
  8.87146    -68.9 1.006e+04 2.569e-10
  8.91221    -66.7 9.915e+03 2.482e-10
  8.95087    -64.6 9.865e+03 2.492e-10
  8.97124    -64.9 1.017e+04 2.656e-10
  8.99371    -62.6 9.910e+03 2.517e-10
  9.03446    -60.3 9.788e+03 2.511e-10
  9.06939    -57.8 9.836e+03 2.567e-10
  9.08976    -58.0 9.714e+03 2.330e-10
  9.10779    -55.5 9.756e+03 2.290e-10
  9.12816    -55.4 9.731e+03 2.241e-10
  9.15671    -53.2 9.750e+03 2.201e-10
  9.19746    -51.5 9.943e+03 2.378e-10
  9.23821    -50.1 1.030e+04 3.198e-10
  9.26461    -48.6 1.039e+04 3.716e-10
  9.28499    -48.0 1.028e+04 3.237e-10
  9.31970    -46.5 1.042e+04 3.876e-10
  9.34307    -45.4 1.047e+04 4.803e-10
  9.35316    -45.3 1.038e+04 4.024e-10
  9.37045    -44.9 1.041e+04 3.994e-10
