# Columns:
#   distance along LOS (in CHIMPs)
#   peculiar velocity  (in km/s)
#   temperature (K)
#   HI number density
# pos=(12.8838,0.218686,174.775), angles=(0.477451,4.4049)
  0.02000   -219.2 1.009e+04 1.930e-10
  0.05920   -218.8 1.008e+04 1.868e-10
  0.08119   -218.6 1.004e+04 1.847e-10
  0.10596   -218.8 1.026e+04 1.917e-10
  0.13935   -219.2 1.091e+04 2.891e-10
  0.15917   -218.7 1.080e+04 2.643e-10
  0.16977   -219.3 1.128e+04 3.802e-10
  0.19393   -219.5 1.175e+04 6.040e-10
  0.23635   -219.6 1.214e+04 8.614e-10
  0.25835   -220.6 1.229e+04 1.010e-09
  0.28189   -220.6 1.237e+04 1.111e-09
  0.32493   -220.3 1.233e+04 1.119e-09
  0.34692   -221.1 1.207e+04 9.561e-10
  0.36985   -220.3 1.202e+04 9.035e-10
  0.41172   -219.3 1.201e+04 8.846e-10
  0.43339   -218.4 1.226e+04 9.615e-10
  0.43550   -219.3 1.219e+04 9.223e-10
  0.45781   -218.5 1.254e+04 1.029e-09
  0.50179   -217.9 1.306e+04 1.216e-09
  0.52407   -218.2 1.371e+04 1.459e-09
  0.54607   -219.2 1.302e+04 9.784e-10
  0.58975   -220.1 1.312e+04 9.620e-10
  0.61265   -221.1 1.307e+04 9.024e-10
  0.63464   -222.1 1.196e+04 5.436e-10
  0.67772   -223.0 1.212e+04 6.562e-10
  0.70123   -223.4 1.244e+04 8.624e-10
  0.70760   -223.6 1.151e+04 5.831e-10
  0.72807   -223.4 1.219e+04 8.523e-10
  0.76568   -223.1 1.244e+04 9.928e-10
  0.78980   -223.0 1.273e+04 1.094e-09
  0.81179   -223.0 1.194e+04 7.466e-10
  0.85364   -223.2 1.230e+04 8.444e-10
  0.87838   -223.6 1.271e+04 9.772e-10
  0.90037   -223.5 1.215e+04 7.215e-10
  0.94160   -224.4 1.268e+04 9.192e-10
  0.96686   -224.5 1.299e+04 1.051e-09
  0.98172   -225.0 1.247e+04 8.373e-10
  1.00035   -225.2 1.331e+04 1.164e-09
  1.01105   -225.2 1.322e+04 1.145e-09
  1.02205   -225.4 1.250e+04 8.324e-10
  1.04036   -225.8 1.270e+04 8.970e-10
  1.05534   -226.5 1.303e+04 1.028e-09
  1.07743   -227.0 1.258e+04 8.237e-10
  1.09972   -227.0 1.289e+04 9.680e-10
  1.11062   -226.9 1.241e+04 7.823e-10
  1.12544   -227.0 1.261e+04 8.489e-10
  1.13644   -227.0 1.294e+04 9.639e-10
  1.14392   -227.3 1.329e+04 1.143e-09
  1.16600   -227.4 1.250e+04 7.987e-10
  1.20549   -227.9 1.288e+04 9.702e-10
  1.23259   -228.2 1.312e+04 1.122e-09
  1.25458   -227.6 1.261e+04 8.565e-10
  1.27272   -228.3 1.346e+04 1.419e-09
  1.27814   -227.7 1.367e+04 1.613e-09
  1.28778   -227.4 1.337e+04 1.346e-09
  1.30425   -227.7 1.406e+04 1.988e-09
  1.32107   -227.7 1.470e+04 2.766e-09
  1.33206   -227.5 1.452e+04 2.430e-09
  1.34823   -227.7 1.507e+04 3.123e-09
  1.36536   -228.1 1.532e+04 3.441e-09
  1.37635   -228.0 1.511e+04 3.059e-09
  1.39221   -228.7 1.516e+04 3.139e-09
  1.40881   -229.2 1.499e+04 2.922e-09
  1.41525   -229.0 1.537e+04 3.504e-09
  1.42064   -228.9 1.522e+04 3.295e-09
  1.43619   -229.4 1.477e+04 2.645e-09
  1.45393   -230.0 1.439e+04 2.164e-09
  1.46493   -230.0 1.421e+04 2.013e-09
  1.48017   -230.7 1.399e+04 1.787e-09
  1.49822   -231.4 1.387e+04 1.670e-09
  1.50922   -232.0 1.384e+04 1.633e-09
  1.52415   -232.9 1.377e+04 1.612e-09
  1.54251   -233.9 1.370e+04 1.628e-09
  1.55236   -234.5 1.358e+04 1.520e-09
  1.55599   -234.8 1.434e+04 2.187e-09
  1.56814   -235.7 1.436e+04 2.263e-09
  1.58680   -236.4 1.427e+04 2.223e-09
  1.59779   -236.8 1.418e+04 2.044e-09
  1.61212   -237.6 1.388e+04 1.694e-09
  1.63109   -238.4 1.347e+04 1.328e-09
  1.64208   -238.7 1.329e+04 1.207e-09
  1.65610   -239.2 1.316e+04 1.083e-09
  1.67547   -240.5 1.297e+04 8.723e-10
  1.69756   -239.9 1.264e+04 7.453e-10
  1.73326   -240.1 1.216e+04 5.271e-10
  1.76415   -239.6 1.184e+04 4.142e-10
  1.78614   -238.1 1.160e+04 3.464e-10
  1.81756   -237.0 1.146e+04 2.987e-10
  1.83955   -237.8 1.146e+04 2.981e-10
  1.85272   -236.5 1.141e+04 2.810e-10
  1.87471   -235.2 1.132e+04 2.299e-10
  1.90918   -233.9 1.129e+04 2.247e-10
  1.94130   -232.5 1.126e+04 2.223e-10
  1.96329   -231.3 1.117e+04 1.885e-10
  1.99714   -229.9 1.112e+04 1.863e-10
  2.02988   -228.6 1.110e+04 1.847e-10
  2.05187   -227.4 1.101e+04 1.591e-10
  2.08511   -226.1 1.102e+04 1.595e-10
  2.11193   -224.9 1.106e+04 1.680e-10
  2.12328   -224.9 1.115e+04 1.701e-10
  2.14044   -223.6 1.103e+04 1.493e-10
  2.17307   -222.5 1.108e+04 1.682e-10
  2.20703   -221.5 1.120e+04 1.950e-10
  2.22902   -220.2 1.110e+04 1.715e-10
  2.26103   -219.5 1.123e+04 2.066e-10
  2.29561   -219.2 1.138e+04 2.591e-10
  2.31760   -218.0 1.137e+04 2.536e-10
  2.34899   -217.9 1.153e+04 3.261e-10
  2.38418   -218.0 1.170e+04 4.028e-10
  2.40617   -217.1 1.181e+04 3.935e-10
  2.43695   -217.6 1.201e+04 4.665e-10
  2.47276   -218.5 1.208e+04 5.010e-10
  2.49475   -218.2 1.214e+04 5.285e-10
  2.52492   -219.0 1.207e+04 5.312e-10
  2.56134   -219.5 1.187e+04 5.016e-10
  2.58333   -219.2 1.183e+04 5.047e-10
  2.61288   -219.3 1.164e+04 4.585e-10
  2.64991   -219.3 1.149e+04 4.002e-10
  2.67172   -218.6 1.137e+04 3.759e-10
  2.70065   -217.6 1.130e+04 3.174e-10
  2.73849   -217.0 1.111e+04 2.549e-10
  2.76048   -216.0 1.108e+04 2.404e-10
  2.78880   -215.2 1.095e+04 1.992e-10
  2.82706   -214.5 1.085e+04 1.702e-10
  2.84906   -213.5 1.090e+04 1.676e-10
  2.87676   -212.9 1.082e+04 1.506e-10
  2.91564   -212.3 1.074e+04 1.410e-10
  2.93763   -211.4 1.075e+04 1.404e-10
  2.95104   -210.8 1.068e+04 1.360e-10
  2.97303   -210.2 1.073e+04 1.368e-10
  3.00422   -209.6 1.070e+04 1.325e-10
  3.02621   -208.6 1.071e+04 1.330e-10
  3.05269   -208.1 1.069e+04 1.331e-10
  3.09279   -207.8 1.068e+04 1.494e-10
  3.11478   -206.7 1.083e+04 1.787e-10
  3.14065   -206.4 1.090e+04 2.114e-10
  3.18137   -206.2 1.096e+04 2.326e-10
  3.20336   -205.0 1.125e+04 3.223e-10
  3.22341   -205.2 1.128e+04 3.188e-10
  3.24540   -204.5 1.146e+04 3.740e-10
  3.26995   -205.2 1.141e+04 3.471e-10
  3.29194   -204.1 1.191e+04 5.165e-10
  3.31657   -204.9 1.189e+04 4.666e-10
  3.35852   -205.8 1.183e+04 4.250e-10
  3.38051   -205.3 1.284e+04 9.282e-10
  3.40453   -205.8 1.268e+04 8.938e-10
  3.44710   -205.9 1.228e+04 6.861e-10
  3.46909   -205.7 1.302e+04 1.230e-09
  3.49250   -205.8 1.251e+04 7.854e-10
  3.51777   -205.8 1.204e+04 4.683e-10
  3.53896   -205.4 1.254e+04 6.724e-10
  3.55767   -206.2 1.335e+04 1.298e-09
  3.58046   -205.7 1.305e+04 9.824e-10
  3.62425   -205.1 1.279e+04 7.477e-10
  3.66823   -204.8 1.321e+04 1.249e-09
  3.71240   -203.4 1.274e+04 8.428e-10
  3.73482   -201.9 1.226e+04 5.269e-10
  3.75681   -202.3 1.280e+04 9.349e-10
  3.79015   -200.3 1.264e+04 6.870e-10
  3.81214   -200.6 1.310e+04 1.071e-09
  3.82340   -199.0 1.322e+04 9.580e-10
  3.84539   -199.6 1.354e+04 1.401e-09
  3.88832   -199.5 1.434e+04 2.070e-09
  3.91188   -199.6 1.507e+04 3.467e-09
  3.92277   -199.7 1.539e+04 4.285e-09
  3.93713   -199.1 1.612e+04 5.874e-09
  3.94813   -199.5 1.615e+04 6.033e-09
  3.95607   -199.5 1.656e+04 7.078e-09
  3.96706   -200.2 1.675e+04 7.756e-09
  3.98709   -200.8 1.683e+04 8.075e-09
  4.00035   -200.7 1.649e+04 7.729e-09
  4.01135   -201.2 1.655e+04 7.986e-09
  4.03107   -201.2 1.621e+04 7.060e-09
  4.04464   -201.4 1.598e+04 6.067e-09
  4.05564   -202.2 1.627e+04 7.051e-09
  4.07332   -202.8 1.631e+04 6.945e-09
  4.08431   -202.7 1.591e+04 5.983e-09
  4.08893   -203.4 1.589e+04 5.750e-09
  4.09993   -204.0 1.630e+04 7.176e-09
  4.11903   -204.8 1.629e+04 7.188e-09
  4.13322   -205.4 1.613e+04 6.949e-09
  4.14422   -206.1 1.639e+04 7.875e-09
  4.16301   -206.5 1.604e+04 7.052e-09
  4.17751   -206.8 1.565e+04 6.006e-09
  4.18850   -207.6 1.564e+04 6.038e-09
  4.20699   -207.8 1.521e+04 5.019e-09
  4.22050   -208.1 1.484e+04 4.213e-09
  4.22431   -208.0 1.441e+04 3.411e-09
  4.23279   -209.0 1.434e+04 3.311e-09
  4.25097   -209.5 1.428e+04 3.197e-09
  4.26608   -209.9 1.430e+04 3.250e-09
  4.27708   -210.9 1.423e+04 3.175e-09
  4.29495   -211.1 1.440e+04 3.578e-09
  4.31037   -211.2 1.452e+04 3.902e-09
  4.32137   -212.0 1.443e+04 3.867e-09
  4.33893   -212.0 1.446e+04 3.990e-09
  4.35466   -212.0 1.425e+04 3.832e-09
  4.36142   -212.4 1.406e+04 3.475e-09
  4.36768   -212.3 1.383e+04 3.064e-09
  4.38291   -212.3 1.346e+04 2.387e-09
  4.39895   -212.6 1.303e+04 1.739e-09
  4.40994   -213.3 1.296e+04 1.687e-09
  4.42690   -213.7 1.261e+04 1.252e-09
  4.44324   -214.1 1.227e+04 9.327e-10
  4.45423   -214.6 1.230e+04 1.001e-09
  4.47088   -214.8 1.202e+04 7.873e-10
  4.48753   -214.7 1.175e+04 6.292e-10
  4.49852   -214.9 1.189e+04 7.152e-10
  4.51486   -213.1 1.165e+04 5.426e-10
  4.53191   -212.4 1.170e+04 4.895e-10
  4.55400   -212.7 1.173e+04 5.283e-10
  4.59202   -212.4 1.170e+04 4.719e-10
  4.62059   -211.7 1.157e+04 4.191e-10
  4.63583   -211.9 1.151e+04 3.942e-10
  4.65125   -210.9 1.148e+04 3.703e-10
  4.67998   -209.7 1.127e+04 3.100e-10
  4.70916   -208.4 1.113e+04 2.680e-10
  4.73115   -208.2 1.102e+04 2.266e-10
  4.76794   -206.7 1.096e+04 1.980e-10
  4.79774   -205.2 1.092e+04 1.761e-10
  4.81973   -204.7 1.090e+04 1.547e-10
  4.85591   -203.1 1.083e+04 1.384e-10
  4.88632   -201.5 1.075e+04 1.233e-10
  4.90831   -200.9 1.069e+04 1.161e-10
  4.92362   -199.3 1.060e+04 1.026e-10
  4.94561   -198.3 1.064e+04 9.736e-11
  4.97489   -196.7 1.056e+04 8.659e-11
  4.99688   -196.1 1.048e+04 7.902e-11
  5.03183   -194.5 1.038e+04 7.090e-11
  5.06347   -192.8 1.027e+04 6.663e-11
  5.08546   -192.2 1.016e+04 6.004e-11
  5.11979   -190.6 1.008e+04 5.905e-11
  5.15205   -188.8 1.006e+04 5.873e-11
  5.17404   -188.3 9.987e+03 5.376e-11
  5.19599   -186.6 9.933e+03 5.527e-11
  5.21798   -185.7 9.973e+03 4.955e-11
  5.24062   -183.9 9.917e+03 5.149e-11
  5.26261   -183.3 9.882e+03 4.929e-11
  5.29571   -181.6 9.857e+03 5.173e-11
  5.32920   -179.9 9.842e+03 5.362e-11
  5.35119   -179.4 9.843e+03 5.351e-11
  5.38368   -177.7 9.829e+03 5.651e-11
  5.41777   -176.1 9.807e+03 6.084e-11
  5.43977   -175.8 9.800e+03 7.367e-11
  5.46836   -174.2 9.791e+03 8.027e-11
  5.49036   -173.2 9.870e+03 7.434e-11
  5.50635   -171.6 9.894e+03 8.363e-11
  5.52834   -171.5 9.981e+03 1.104e-10
  5.55960   -170.2 1.004e+04 1.224e-10
  5.59493   -169.0 1.014e+04 1.335e-10
  5.61692   -169.1 1.028e+04 1.794e-10
  5.64756   -168.3 1.038e+04 1.919e-10
  5.68350   -167.6 1.044e+04 1.975e-10
  5.70549   -167.9 1.052e+04 2.551e-10
  5.73552   -167.5 1.051e+04 2.539e-10
  5.76273   -167.1 1.045e+04 2.490e-10
  5.77730   -166.3 1.061e+04 2.771e-10
  5.79407   -166.5 1.062e+04 3.036e-10
  5.82349   -166.1 1.056e+04 2.903e-10
  5.86066   -165.7 1.050e+04 2.867e-10
  5.88265   -165.7 1.056e+04 3.144e-10
  5.91145   -165.2 1.044e+04 3.078e-10
  5.94923   -164.5 1.022e+04 2.781e-10
  5.97122   -164.4 1.025e+04 3.147e-10
  5.99941   -163.5 1.002e+04 2.459e-10
  6.03510   -162.6 9.850e+03 1.916e-10
  6.05151   -161.4 9.906e+03 1.890e-10
  6.05980   -161.1 9.916e+03 2.104e-10
  6.08737   -160.2 9.775e+03 1.639e-10
  6.12639   -159.2 9.601e+03 1.411e-10
  6.14838   -158.9 9.598e+03 1.360e-10
  6.17533   -157.9 9.397e+03 1.239e-10
  6.21496   -156.8 9.339e+03 1.228e-10
  6.23695   -156.4 9.337e+03 1.162e-10
  6.26329   -155.1 9.260e+03 1.269e-10
  6.30354   -153.8 9.291e+03 1.380e-10
  6.32553   -153.4 9.316e+03 1.373e-10
  6.32946   -152.0 9.343e+03 1.407e-10
  6.35145   -151.2 9.646e+03 1.485e-10
  6.39212   -150.0 9.620e+03 1.461e-10
  6.41411   -149.6 9.607e+03 1.448e-10
  6.43922   -148.3 9.455e+03 1.332e-10
  6.48069   -147.2 9.453e+03 1.287e-10
  6.50268   -146.6 9.443e+03 1.232e-10
  6.52718   -145.7 9.506e+03 1.227e-10
  6.56927   -145.2 9.841e+03 1.657e-10
  6.59126   -144.4 9.804e+03 1.541e-10
  6.60184   -143.8 1.010e+04 2.852e-10
  6.62383   -143.0 9.992e+03 2.191e-10
  6.65785   -142.2 1.032e+04 3.886e-10
  6.67984   -141.2 1.025e+04 3.602e-10
  6.70310   -140.2 1.071e+04 5.514e-10
  6.74642   -139.5 1.111e+04 6.586e-10
  6.76841   -138.4 1.113e+04 6.661e-10
  6.79107   -138.0 1.132e+04 6.883e-10
  6.83500   -137.7 1.147e+04 6.386e-10
  6.87416   -136.7 1.174e+04 6.856e-10
  6.89620   -135.5 1.187e+04 7.221e-10
  6.92301   -135.7 1.189e+04 6.518e-10
  6.94557   -135.8 1.172e+04 5.173e-10
  6.96756   -135.0 1.209e+04 7.015e-10
  7.01097   -135.1 1.175e+04 4.403e-10
  7.03414   -135.2 1.129e+04 2.678e-10
  7.05613   -134.6 1.157e+04 3.387e-10
  7.09893   -134.7 1.123e+04 2.921e-10
  7.12272   -134.0 1.120e+04 2.862e-10
  7.14471   -133.6 1.136e+04 3.312e-10
  7.16857   -132.3 1.132e+04 3.381e-10
  7.19056   -131.9 1.137e+04 3.181e-10
  7.21130   -130.4 1.132e+04 3.228e-10
  7.23329   -130.0 1.131e+04 3.253e-10
  7.27486   -128.4 1.132e+04 3.393e-10
  7.29987   -126.6 1.134e+04 3.413e-10
  7.32186   -125.9 1.115e+04 3.102e-10
  7.36282   -123.9 1.115e+04 3.012e-10
  7.38845   -121.8 1.114e+04 2.771e-10
  7.41044   -121.0 1.099e+04 2.069e-10
  7.44095   -119.3 1.114e+04 1.935e-10
  7.46294   -118.6 1.129e+04 2.436e-10
  7.47703   -118.6 1.183e+04 2.982e-10
  7.49902   -119.7 1.219e+04 4.028e-10
  7.53874   -119.5 1.270e+04 8.659e-10
  7.56560   -119.2 1.309e+04 1.447e-09
  7.58759   -119.7 1.327e+04 1.624e-09
  7.62670   -119.8 1.329e+04 1.579e-09
  7.65408   -120.5 1.340e+04 1.495e-09
  7.67607   -121.9 1.329e+04 1.378e-09
  7.69837   -122.6 1.354e+04 1.605e-09
  7.70927   -123.4 1.363e+04 1.721e-09
  7.72412   -124.0 1.371e+04 1.910e-09
  7.73511   -123.8 1.397e+04 2.263e-09
  7.74256   -124.3 1.424e+04 2.866e-09
  7.75356   -124.8 1.431e+04 2.996e-09
  7.76945   -125.3 1.454e+04 3.410e-09
  7.78685   -125.7 1.467e+04 3.583e-09
  7.79784   -126.2 1.452e+04 3.449e-09
  7.81343   -126.8 1.428e+04 3.024e-09
  7.83114   -127.5 1.384e+04 2.287e-09
  7.84213   -128.2 1.353e+04 1.866e-09
  7.85741   -128.8 1.318e+04 1.385e-09
  7.89049   -129.6 1.288e+04 1.029e-09
  7.91991   -130.2 1.207e+04 5.924e-10
  7.94190   -130.2 1.180e+04 4.380e-10
  7.97855   -130.2 1.140e+04 3.347e-10
  8.00768   -129.5 1.120e+04 2.978e-10
  8.01563   -129.1 1.131e+04 3.056e-10
  8.03048   -128.2 1.128e+04 2.731e-10
  8.06651   -127.3 1.122e+04 2.578e-10
  8.09706   -126.1 1.115e+04 2.458e-10
  8.11905   -124.7 1.122e+04 2.488e-10
  8.15447   -123.3 1.119e+04 2.320e-10
  8.18564   -121.8 1.118e+04 1.797e-10
  8.20763   -120.3 1.124e+04 1.822e-10
  8.24244   -119.2 1.122e+04 1.192e-10
  8.27421   -118.3 1.110e+04 8.365e-11
  8.28984   -116.8 1.116e+04 8.461e-11
  8.30205   -116.3 1.129e+04 1.506e-10
  8.33040   -115.2 1.120e+04 1.002e-10
  8.36279   -114.1 1.096e+04 8.010e-11
  8.38478   -112.5 1.111e+04 8.780e-11
  8.41836   -111.2 1.082e+04 8.135e-11
  8.45137   -109.7 1.073e+04 8.349e-11
  8.47336   -108.2 1.091e+04 8.625e-11
  8.50632   -106.7 1.089e+04 8.985e-11
  8.53994   -105.4 1.094e+04 1.012e-10
  8.56193   -103.8 1.096e+04 1.091e-10
  8.57442   -102.4 1.100e+04 1.196e-10
  8.59641   -102.6 1.102e+04 1.590e-10
  8.62852   -101.0 1.109e+04 1.746e-10
  8.65051    -99.3 1.107e+04 1.700e-10
  8.68225    -97.9 1.109e+04 1.688e-10
  8.71710    -96.6 1.111e+04 1.501e-10
  8.73909    -94.9 1.107e+04 1.503e-10
  8.77021    -93.6 1.106e+04 1.358e-10
  8.80567    -92.3 1.098e+04 1.272e-10
  8.82766    -90.4 1.095e+04 1.297e-10
  8.84679    -88.8 1.087e+04 1.189e-10
  8.86878    -88.5 1.086e+04 1.303e-10
  8.89425    -86.8 1.083e+04 1.104e-10
  8.91624    -85.0 1.082e+04 1.081e-10
  8.94613    -83.4 1.082e+04 9.090e-11
  8.98283    -82.0 1.082e+04 8.009e-11
  9.00482    -80.1 1.078e+04 8.005e-11
  9.03409    -78.6 1.077e+04 7.545e-11
  9.07140    -76.8 1.076e+04 7.749e-11
  9.09339    -74.9 1.077e+04 7.627e-11
  9.11917    -73.3 1.076e+04 7.685e-11
  9.14116    -72.9 1.076e+04 9.096e-11
  9.15998    -71.1 1.076e+04 8.856e-11
  9.18197    -69.3 1.077e+04 8.849e-11
  9.21002    -67.7 1.077e+04 8.740e-11
  9.24856    -66.0 1.073e+04 8.672e-11
  9.27055    -64.2 1.073e+04 9.287e-11
  9.29798    -62.4 1.074e+04 9.046e-11
  9.33713    -60.8 1.079e+04 9.226e-11
  9.35912    -59.1 1.075e+04 1.000e-10
  9.38594    -57.6 1.082e+04 1.099e-10
  9.41353    -56.2 1.084e+04 1.373e-10
  9.43131    -55.6 1.082e+04 1.456e-10
  9.44770    -53.8 1.080e+04 1.382e-10
  9.47390    -52.1 1.084e+04 1.803e-10
  9.51429    -50.5 1.098e+04 2.427e-10
  9.53628    -48.7 1.091e+04 2.227e-10
  9.56186    -47.1 1.110e+04 3.005e-10
  9.60286    -45.9 1.143e+04 3.930e-10
  9.62485    -44.2 1.146e+04 4.064e-10
  9.64983    -43.8 1.181e+04 5.299e-10
  9.68590    -44.2 1.244e+04 7.060e-10
  9.70552    -43.7 1.281e+04 1.053e-09
  9.71343    -42.1 1.295e+04 1.207e-09
  9.72670    -44.1 1.331e+04 1.376e-09
  9.74653    -45.5 1.352e+04 1.726e-09
  9.75752    -44.5 1.358e+04 1.822e-09
  9.77058    -45.6 1.359e+04 2.283e-09
  9.79082    -47.1 1.420e+04 2.909e-09
  9.80181    -46.0 1.422e+04 2.933e-09
  9.81456    -47.7 1.523e+04 3.538e-09
  9.83289    -49.4 1.539e+04 3.968e-09
  9.84244    -50.2 1.598e+04 5.499e-09
  9.84610    -49.9 1.630e+04 6.011e-09
  9.85854    -51.0 1.563e+04 5.097e-09
  9.87939    -52.1 1.509e+04 3.717e-09
  9.89039    -51.6 1.557e+04 4.449e-09
  9.90252    -53.2 1.488e+04 3.163e-09
  9.92368    -54.9 1.436e+04 2.376e-09
  9.93468    -54.6 1.470e+04 2.756e-09
  9.94650    -56.0 1.394e+04 2.163e-09
  9.96797    -56.6 1.364e+04 1.834e-09
  9.97896    -56.0 1.372e+04 2.044e-09
  9.98017    -56.1 1.376e+04 1.719e-09
 10.00226    -58.2 1.311e+04 1.602e-09
 10.04565    -58.4 1.286e+04 1.392e-09
 10.08964    -57.3 1.225e+04 1.238e-09
 10.13362    -56.4 1.188e+04 1.130e-09
 10.15631    -55.2 1.168e+04 8.934e-10
 10.17830    -54.2 1.141e+04 7.753e-10
 10.22158    -53.1 1.135e+04 6.455e-10
 10.24489    -52.1 1.120e+04 5.403e-10
 10.25396    -50.7 1.120e+04 5.604e-10
 10.27463    -50.9 1.081e+04 3.892e-10
 10.30954    -49.7 1.078e+04 3.820e-10
 10.33347    -48.3 1.071e+04 3.337e-10
 10.35546    -46.7 1.077e+04 3.561e-10
 10.39750    -45.7 1.059e+04 2.950e-10
 10.42204    -44.5 1.046e+04 2.096e-10
 10.44403    -43.2 1.055e+04 2.524e-10
 10.48546    -42.5 1.055e+04 1.721e-10
 10.51062    -42.0 1.042e+04 1.465e-10
 10.52817    -41.1 1.062e+04 1.852e-10
 10.54700    -41.3 1.060e+04 2.170e-10
 10.57343    -41.5 1.074e+04 2.440e-10
 10.59920    -42.6 1.114e+04 3.920e-10
 10.62119    -42.9 1.150e+04 5.352e-10
 10.64339    -43.6 1.211e+04 1.020e-09
 10.65428    -43.6 1.202e+04 1.015e-09
 10.67200    -43.8 1.236e+04 1.114e-09
 10.68299    -43.8 1.212e+04 1.055e-09
 10.68758    -44.1 1.214e+04 1.528e-09
 10.69857    -43.4 1.197e+04 1.279e-09
 10.71617    -42.8 1.175e+04 1.180e-09
 10.73186    -42.3 1.158e+04 8.967e-10
 10.74286    -42.1 1.135e+04 6.200e-10
 10.76015    -43.1 1.140e+04 4.646e-10
 10.77615    -44.7 1.114e+04 3.524e-10
 10.79824    -44.6 1.103e+04 3.353e-10
 10.81937    -45.2 1.057e+04 3.294e-10
 10.84136    -44.5 1.032e+04 2.543e-10
 10.86492    -43.3 9.933e+03 1.941e-10
 10.88692    -42.1 9.979e+03 1.971e-10
 10.92527    -41.2 9.925e+03 1.525e-10
 10.95350    -41.1 1.005e+04 1.103e-10
 10.97549    -39.5 1.003e+04 1.450e-10
 11.01324    -38.8 9.947e+03 1.472e-10
 11.04208    -38.4 9.941e+03 1.922e-10
 11.06407    -36.9 1.027e+04 2.324e-10
 11.09175    -36.9 1.060e+04 3.464e-10
 11.11374    -35.6 1.014e+04 2.312e-10
 11.13065    -35.7 1.056e+04 4.147e-10
 11.15264    -35.2 1.111e+04 5.515e-10
 11.18916    -35.3 1.177e+04 1.268e-09
 11.21923    -34.7 1.198e+04 1.492e-09
 11.24122    -33.9 1.252e+04 2.148e-09
 11.27712    -34.3 1.251e+04 1.478e-09
 11.30781    -36.7 1.208e+04 8.979e-10
 11.32980    -37.0 1.171e+04 8.376e-10
 11.36412    -37.8 1.090e+04 6.620e-10
 11.38611    -36.7 1.156e+04 1.058e-09
 11.39638    -36.8 1.116e+04 9.057e-10
 11.41837    -36.4 1.006e+04 3.355e-10
 11.45304    -36.5 1.014e+04 3.697e-10
 11.48496    -36.3 1.021e+04 4.901e-10
 11.50695    -35.9 9.637e+03 2.549e-10
 11.54101    -34.8 9.876e+03 4.255e-10
 11.57354    -33.7 1.028e+04 5.921e-10
 11.59553    -32.8 9.635e+03 3.250e-10
 11.62897    -32.2 1.010e+04 4.738e-10
 11.65848    -31.6 1.039e+04 6.415e-10
 11.66964    -31.1 1.038e+04 6.384e-10
 11.68410    -30.6 1.010e+04 4.952e-10
 11.71693    -29.6 1.038e+04 6.843e-10
 11.75069    -28.9 1.029e+04 6.590e-10
 11.77268    -28.1 1.030e+04 6.840e-10
 11.80489    -27.3 1.013e+04 5.874e-10
 11.83927    -27.1 9.941e+03 4.668e-10
 11.86126    -26.3 9.863e+03 4.624e-10
 11.89285    -26.0 9.556e+03 3.840e-10
 11.92784    -25.7 9.401e+03 3.189e-10
 11.94386    -25.3 9.155e+03 2.423e-10
