# Columns:
#   distance along LOS (in CHIMPs)
#   peculiar velocity  (in km/s)
#   temperature (K)
#   HI number density
# pos=(169.874,198.648,212.391), angles=(1.62935,4.67563)
  0.01179     47.8 8.927e+03 2.438e-10
  0.04317     48.3 8.584e+03 1.777e-10
  0.08232     49.0 8.506e+03 1.594e-10
  0.12148     49.7 8.513e+03 1.627e-10
  0.16064     50.6 8.567e+03 1.773e-10
  0.19979     51.5 8.732e+03 2.022e-10
  0.23895     52.3 9.074e+03 2.462e-10
  0.26822     52.4 9.262e+03 2.713e-10
  0.28770     52.1 9.607e+03 3.208e-10
  0.30728     51.5 9.974e+03 4.177e-10
  0.32685     50.8 1.043e+04 5.935e-10
  0.34643     49.1 1.141e+04 9.581e-10
  0.36601     47.1 1.283e+04 1.722e-09
  0.37601     46.1 1.379e+04 2.773e-09
  0.38580     47.1 1.289e+04 1.852e-09
  0.40517     46.4 1.324e+04 2.269e-09
  0.42474     46.0 1.315e+04 2.213e-09
  0.44432     45.9 1.275e+04 1.847e-09
  0.46390     45.5 1.220e+04 1.290e-09
  0.48348     44.4 1.150e+04 8.207e-10
  0.50306     43.3 1.077e+04 5.374e-10
  0.52130     42.5 1.025e+04 3.910e-10
  0.53109     42.1 1.018e+04 3.711e-10
  0.55210     42.6 1.006e+04 3.214e-10
  0.59135     43.6 9.832e+03 2.956e-10
  0.63051     45.5 9.898e+03 3.051e-10
  0.66966     47.4 1.012e+04 3.441e-10
  0.69893     48.4 1.019e+04 3.864e-10
  0.70929     48.8 1.024e+04 4.082e-10
  0.71908     49.2 1.027e+04 4.274e-10
  0.73799     50.2 1.049e+04 5.162e-10
  0.75757     51.3 1.074e+04 6.286e-10
  0.77715     52.3 1.092e+04 7.380e-10
  0.79673     53.4 1.109e+04 8.398e-10
  0.81630     54.5 1.126e+04 9.187e-10
  0.83588     55.5 1.138e+04 9.488e-10
  0.85546     56.5 1.138e+04 9.412e-10
  0.87504     57.5 1.132e+04 9.009e-10
  0.89462     58.6 1.118e+04 8.157e-10
  0.91419     59.7 1.105e+04 7.165e-10
  0.93377     60.6 1.095e+04 6.300e-10
  0.95335     61.7 1.089e+04 5.667e-10
  0.97293     62.6 1.085e+04 5.233e-10
  0.99251     63.6 1.080e+04 4.874e-10
  1.01208     64.8 1.079e+04 4.700e-10
  1.03166     66.1 1.082e+04 4.720e-10
  1.04257     67.2 1.094e+04 4.857e-10
  1.05236     67.5 1.111e+04 5.652e-10
  1.06161     68.6 1.128e+04 5.979e-10
  1.07140     68.7 1.145e+04 6.796e-10
  1.09040     69.8 1.166e+04 7.405e-10
  1.10997     71.1 1.196e+04 8.635e-10
  1.12955     71.6 1.251e+04 1.117e-09
  1.14913     71.6 1.326e+04 1.580e-09
  1.16871     71.4 1.413e+04 2.516e-09
  1.18829     71.5 1.552e+04 4.794e-09
  1.20292     72.0 1.582e+04 5.841e-09
  1.20912     72.2 1.593e+04 6.204e-09
  1.21401     72.2 1.630e+04 6.943e-09
  1.22245     72.3 1.674e+04 8.352e-09
  1.23224     72.4 1.719e+04 9.982e-09
  1.24203     72.6 1.757e+04 1.129e-08
  1.25182     72.6 1.780e+04 1.179e-08
  1.26655     72.5 1.765e+04 1.079e-08
  1.28618     73.0 1.728e+04 9.477e-09
  1.30575     73.4 1.666e+04 6.657e-09
  1.32533     73.3 1.569e+04 4.179e-09
  1.34491     72.7 1.453e+04 2.730e-09
  1.36449     72.7 1.339e+04 1.819e-09
  1.37585     72.7 1.284e+04 1.495e-09
  1.38564     73.0 1.321e+04 1.837e-09
  1.40364     73.4 1.250e+04 1.297e-09
  1.42322     74.0 1.220e+04 1.085e-09
  1.44280     75.0 1.186e+04 8.903e-10
  1.46238     75.7 1.161e+04 7.703e-10
  1.48196     76.7 1.136e+04 6.576e-10
  1.50153     77.5 1.122e+04 5.895e-10
  1.52111     78.5 1.107e+04 5.319e-10
  1.54069     79.2 1.097e+04 4.932e-10
  1.56027     80.2 1.087e+04 4.638e-10
  1.57985     81.0 1.084e+04 4.524e-10
  1.59213     81.7 1.079e+04 4.421e-10
  1.60192     81.4 1.105e+04 5.509e-10
  1.61900     82.0 1.103e+04 5.517e-10
  1.63858     82.5 1.104e+04 5.678e-10
  1.65816     82.8 1.109e+04 6.031e-10
  1.67774     83.1 1.122e+04 6.668e-10
  1.69731     83.3 1.141e+04 7.451e-10
  1.70923     83.2 1.212e+04 1.070e-09
  1.71902     83.5 1.160e+04 8.242e-10
  1.73647     83.7 1.172e+04 9.039e-10
  1.76593     84.7 1.187e+04 1.015e-09
  1.80519     85.7 1.201e+04 1.079e-09
  1.84434     86.5 1.196e+04 1.010e-09
  1.88350     87.4 1.164e+04 7.856e-10
  1.92266     88.5 1.124e+04 5.660e-10
  1.96181     89.8 1.091e+04 3.994e-10
  2.00097     91.2 1.062e+04 3.248e-10
  2.04012     93.0 1.048e+04 3.171e-10
  2.07928     95.0 1.047e+04 3.176e-10
  2.11844     97.0 1.047e+04 3.214e-10
  2.15759     98.9 1.046e+04 3.252e-10
  2.19675    100.8 1.042e+04 3.230e-10
  2.23590    102.7 1.038e+04 3.121e-10
  2.27506    104.6 1.035e+04 2.972e-10
  2.31422    106.4 1.037e+04 2.848e-10
  2.35337    108.3 1.039e+04 2.825e-10
  2.37590    110.1 1.041e+04 2.857e-10
  2.39547    109.7 1.034e+04 2.592e-10
  2.43168    111.6 1.035e+04 2.567e-10
  2.47084    113.5 1.032e+04 2.570e-10
  2.51000    115.4 1.032e+04 2.602e-10
  2.54915    117.4 1.035e+04 2.692e-10
  2.58831    119.1 1.043e+04 2.966e-10
  2.62746    120.5 1.081e+04 3.740e-10
  2.65326    120.8 1.111e+04 4.643e-10
  2.66295    120.2 1.106e+04 4.685e-10
  2.67621    120.7 1.135e+04 5.978e-10
  2.69579    120.7 1.167e+04 8.037e-10
  2.70898    120.5 1.225e+04 1.193e-09
  2.71877    120.4 1.203e+04 8.888e-10
  2.73495    119.6 1.298e+04 1.470e-09
  2.75453    117.9 1.438e+04 2.739e-09
  2.77410    116.0 1.599e+04 5.529e-09
  2.79368    115.0 1.728e+04 1.022e-08
  2.81326    114.5 1.777e+04 1.296e-08
  2.83284    113.5 1.773e+04 1.275e-08
  2.85242    113.0 1.721e+04 1.077e-08
  2.87199    113.0 1.624e+04 6.867e-09
  2.89157    112.3 1.492e+04 3.439e-09
  2.91115    109.8 1.327e+04 1.601e-09
  2.93073    106.6 1.153e+04 8.829e-10
  2.95031    105.2 1.074e+04 6.880e-10
  2.96988    105.3 1.052e+04 6.325e-10
  2.98946    105.5 1.041e+04 6.022e-10
  3.00904    105.9 1.030e+04 5.659e-10
  3.02862    106.2 1.021e+04 5.291e-10
  3.04226    106.2 1.010e+04 4.816e-10
  3.05205    106.3 1.018e+04 5.348e-10
  3.06777    106.5 1.011e+04 5.110e-10
  3.08735    106.4 1.003e+04 4.660e-10
  3.10693    106.3 9.949e+03 4.228e-10
  3.12651    106.2 9.830e+03 3.712e-10
  3.14609    106.1 9.754e+03 3.457e-10
  3.17555    106.0 9.617e+03 2.900e-10
  3.21480    105.7 9.337e+03 2.238e-10
  3.25396    105.8 8.980e+03 1.719e-10
  3.29312    105.7 8.822e+03 1.452e-10
  3.33227    105.7 8.775e+03 1.405e-10
  3.37143    105.5 8.800e+03 1.436e-10
  3.41058    105.1 8.895e+03 1.565e-10
  3.44974    104.4 9.179e+03 1.951e-10
  3.48890    103.4 9.656e+03 2.699e-10
  3.51817    102.3 9.947e+03 3.328e-10
  3.53765    101.3 1.021e+04 4.250e-10
  3.55722    100.4 1.043e+04 5.489e-10
  3.57680     99.7 1.070e+04 6.827e-10
  3.60627     98.5 1.113e+04 7.743e-10
  3.64552     96.9 1.112e+04 7.590e-10
  3.68468     95.6 1.093e+04 6.437e-10
  3.70902     95.0 1.050e+04 4.496e-10
  3.71917     96.0 1.037e+04 3.768e-10
  3.73397     94.7 1.013e+04 3.225e-10
  3.76299     94.6 9.711e+03 2.335e-10
  3.80214     94.7 9.409e+03 1.877e-10
  3.84130     95.4 9.223e+03 1.715e-10
  3.88046     96.6 9.193e+03 1.712e-10
  3.91961     97.9 9.218e+03 1.751e-10
  3.95877     99.0 9.329e+03 1.930e-10
  3.99792    100.0 9.518e+03 2.330e-10
  4.03708    101.0 9.762e+03 2.996e-10
  4.07624    101.8 1.005e+04 3.927e-10
  4.11539    102.7 1.036e+04 4.908e-10
  4.15455    103.3 1.063e+04 5.406e-10
  4.19370    103.3 1.070e+04 5.175e-10
  4.23286    103.1 1.072e+04 4.501e-10
  4.27202    102.6 1.074e+04 4.223e-10
  4.31117    101.8 1.079e+04 4.443e-10
  4.35033    101.4 1.105e+04 5.699e-10
  4.37559    101.5 1.147e+04 7.918e-10
  4.39517    101.4 1.136e+04 7.199e-10
  4.42864    101.8 1.176e+04 8.852e-10
  4.46780    102.2 1.188e+04 8.972e-10
  4.50695    102.7 1.187e+04 8.590e-10
  4.54611    103.4 1.184e+04 7.978e-10
  4.58526    104.5 1.188e+04 7.989e-10
  4.61453    104.9 1.198e+04 8.241e-10
  4.63401    105.2 1.210e+04 8.748e-10
  4.65359    105.4 1.225e+04 9.773e-10
  4.67317    105.7 1.241e+04 1.125e-09
  4.69275    106.2 1.253e+04 1.297e-09
  4.70867    106.6 1.266e+04 1.457e-09
  4.71846    106.3 1.297e+04 1.679e-09
  4.73190    106.7 1.319e+04 1.943e-09
  4.75148    106.9 1.338e+04 2.104e-09
  4.77106    107.0 1.341e+04 2.107e-09
  4.78503    107.1 1.338e+04 2.057e-09
  4.79482    106.8 1.331e+04 1.976e-09
  4.82010    107.1 1.287e+04 1.631e-09
  4.85936    107.6 1.247e+04 1.380e-09
  4.89851    108.3 1.202e+04 1.113e-09
  4.93767    109.1 1.160e+04 8.677e-10
  4.97682    110.1 1.121e+04 6.629e-10
  5.01598    111.2 1.082e+04 5.189e-10
  5.04215    112.4 1.049e+04 4.329e-10
  5.06173    111.9 1.054e+04 3.857e-10
  5.09429    113.4 1.013e+04 3.624e-10
  5.13345    115.0 1.010e+04 3.644e-10
  5.17260    116.7 1.009e+04 3.770e-10
  5.21176    118.2 1.015e+04 4.112e-10
  5.25092    119.6 1.026e+04 4.601e-10
  5.28019    120.0 1.020e+04 4.678e-10
  5.29967    120.3 1.018e+04 4.808e-10
  5.31554    120.6 1.018e+04 5.005e-10
  5.32533    120.5 1.049e+04 5.982e-10
  5.33882    120.6 1.049e+04 6.175e-10
  5.35840    120.5 1.045e+04 6.277e-10
  5.37524    120.5 1.042e+04 6.262e-10
  5.38503    120.8 1.024e+04 5.426e-10
  5.39756    120.7 1.022e+04 5.498e-10
  5.41713    120.6 1.021e+04 5.577e-10
  5.43671    120.5 1.022e+04 5.703e-10
  5.45629    120.4 1.028e+04 5.976e-10
  5.47587    120.0 1.044e+04 6.585e-10
  5.49545    119.4 1.076e+04 7.780e-10
  5.51502    118.9 1.122e+04 9.906e-10
  5.53460    118.5 1.170e+04 1.302e-09
  5.55418    118.0 1.195e+04 1.472e-09
  5.57376    117.3 1.193e+04 1.445e-09
  5.59334    116.5 1.194e+04 1.388e-09
  5.61291    114.7 1.222e+04 1.452e-09
  5.63249    108.4 1.408e+04 2.033e-09
  5.65207     99.7 1.699e+04 4.891e-09
  5.67165     93.1 1.797e+04 8.587e-09
  5.69123     88.2 1.792e+04 8.561e-09
  5.70852     83.8 1.754e+04 6.099e-09
  5.71831     84.1 1.748e+04 6.082e-09
  5.73038     77.8 1.644e+04 2.526e-09
  5.74996     68.2 1.310e+04 1.039e-09
  5.76954     61.8 1.068e+04 8.963e-10
  5.78912     60.5 1.069e+04 9.387e-10
  5.80869     60.0 1.094e+04 1.078e-09
  5.82827     59.5 1.107e+04 1.142e-09
  5.84606     58.9 1.102e+04 1.120e-09
  5.85595     58.8 1.038e+04 8.475e-10
  5.87741     58.7 9.872e+03 6.485e-10
  5.91657     58.8 9.137e+03 4.019e-10
  5.95572     59.1 8.351e+03 2.138e-10
  5.99488     59.4 7.626e+03 1.008e-10
  6.03404     59.5 7.098e+03 5.588e-11
  6.07319     60.4 7.022e+03 5.221e-11
  6.11235     61.9 7.032e+03 5.411e-11
  6.15150     63.4 7.120e+03 6.405e-11
  6.19066     64.9 7.369e+03 8.860e-11
  6.22982     66.5 7.710e+03 1.274e-10
  6.26897     67.8 8.071e+03 1.774e-10
  6.30813     68.9 8.388e+03 2.327e-10
  6.34728     69.8 8.636e+03 2.895e-10
  6.37528     70.6 8.842e+03 3.415e-10
  6.39486     69.9 8.887e+03 3.438e-10
  6.42560     70.6 8.958e+03 3.547e-10
  6.46475     71.2 8.901e+03 3.405e-10
  6.50391     72.0 8.730e+03 2.878e-10
  6.54306     72.7 8.499e+03 2.160e-10
  6.58222     73.3 8.305e+03 1.660e-10
  6.62138     73.9 8.219e+03 1.539e-10
  6.66053     74.6 8.211e+03 1.542e-10
  6.69969     75.6 8.201e+03 1.571e-10
  6.73885     76.7 8.212e+03 1.605e-10
  6.77800     77.7 8.234e+03 1.610e-10
  6.81716     78.8 8.256e+03 1.610e-10
  6.85631     79.8 8.300e+03 1.636e-10
  6.89547     80.7 8.432e+03 1.810e-10
  6.91708     81.7 8.699e+03 2.320e-10
  6.93666     81.9 8.608e+03 2.133e-10
  6.97378     83.1 8.930e+03 2.920e-10
  7.01294     84.6 9.418e+03 4.173e-10
  7.04174     85.1 9.628e+03 4.900e-10
  7.06132     85.4 9.672e+03 4.834e-10
  7.09125     86.2 1.014e+04 6.292e-10
  7.12052     86.1 1.049e+04 7.776e-10
  7.14000     86.3 1.076e+04 9.034e-10
  7.15958     86.6 1.104e+04 1.010e-09
  7.17915     86.7 1.125e+04 1.060e-09
  7.19873     86.8 1.127e+04 1.056e-09
  7.21831     86.9 1.127e+04 1.026e-09
  7.23789     87.0 1.119e+04 9.499e-10
  7.25747     87.1 1.107e+04 8.531e-10
  7.27704     87.1 1.097e+04 7.689e-10
  7.29662     86.9 1.091e+04 7.265e-10
  7.31620     86.7 1.089e+04 7.271e-10
  7.33578     86.7 1.093e+04 7.518e-10
  7.35536     86.8 1.113e+04 8.488e-10
  7.37493     87.0 1.128e+04 9.229e-10
  7.40439     87.0 1.163e+04 1.071e-09
  7.44365     87.0 1.181e+04 1.117e-09
  7.48281     87.5 1.173e+04 1.054e-09
  7.52197     88.1 1.166e+04 9.642e-10
  7.56112     88.9 1.168e+04 9.084e-10
  7.60028     90.0 1.174e+04 9.224e-10
  7.63943     91.5 1.196e+04 1.007e-09
  7.67859     93.3 1.244e+04 1.171e-09
  7.70786     94.1 1.267e+04 1.300e-09
  7.71800     94.8 1.292e+04 1.432e-09
  7.72789     93.3 1.261e+04 1.187e-09
  7.75690     94.9 1.309e+04 1.495e-09
  7.78617     95.8 1.347e+04 1.792e-09
  7.80565     96.5 1.373e+04 2.097e-09
  7.82523     97.3 1.398e+04 2.486e-09
  7.84481     97.9 1.424e+04 2.954e-09
  7.86439     98.7 1.453e+04 3.490e-09
  7.88396     99.4 1.484e+04 3.989e-09
  7.90354     99.9 1.504e+04 4.179e-09
  7.92312    100.3 1.503e+04 4.114e-09
  7.94270    100.7 1.486e+04 3.796e-09
  7.96228    101.2 1.453e+04 3.220e-09
  7.97792    101.8 1.413e+04 2.588e-09
  7.98771    102.1 1.383e+04 2.046e-09
  8.00143    102.4 1.354e+04 1.645e-09
  8.02101    102.8 1.324e+04 1.320e-09
  8.04059    103.0 1.310e+04 1.190e-09
  8.05128    103.5 1.282e+04 1.081e-09
  8.06107    102.7 1.246e+04 1.013e-09
  8.07974    103.4 1.226e+04 9.668e-10
  8.09932    104.3 1.211e+04 9.417e-10
  8.11890    105.0 1.206e+04 9.352e-10
  8.13848    105.9 1.204e+04 9.181e-10
  8.15806    106.8 1.200e+04 9.008e-10
  8.17763    107.6 1.194e+04 8.776e-10
  8.19721    108.4 1.189e+04 8.570e-10
  8.21679    109.2 1.181e+04 8.349e-10
  8.23637    110.0 1.170e+04 8.019e-10
  8.25595    110.9 1.159e+04 7.573e-10
  8.27552    111.8 1.149e+04 7.043e-10
  8.29510    112.7 1.140e+04 6.521e-10
  8.31468    113.6 1.134e+04 6.080e-10
  8.33426    114.5 1.129e+04 5.712e-10
  8.35384    115.4 1.121e+04 5.415e-10
  8.37341    116.4 1.113e+04 5.204e-10
  8.38456    117.4 1.104e+04 5.102e-10
  8.39435    117.0 1.104e+04 5.039e-10
  8.41257    118.0 1.096e+04 4.936e-10
  8.43215    119.2 1.092e+04 4.947e-10
  8.45173    120.3 1.091e+04 4.985e-10
  8.47130    121.5 1.091e+04 5.080e-10
  8.49088    122.7 1.095e+04 5.241e-10
  8.50844    123.9 1.103e+04 5.470e-10
  8.51823    124.0 1.103e+04 5.616e-10
  8.53004    125.1 1.113e+04 5.868e-10
  8.54962    126.3 1.123e+04 6.124e-10
  8.56919    127.5 1.134e+04 6.372e-10
  8.58877    128.6 1.145e+04 6.609e-10
  8.60835    129.7 1.154e+04 6.872e-10
  8.62793    130.8 1.166e+04 7.245e-10
  8.64751    131.8 1.180e+04 7.789e-10
  8.66708    132.7 1.199e+04 8.552e-10
  8.68666    133.5 1.226e+04 9.637e-10
  8.70624    134.4 1.256e+04 1.112e-09
  8.71785    135.3 1.287e+04 1.291e-09
  8.72763    135.2 1.195e+04 1.008e-09
  8.74540    136.2 1.218e+04 1.113e-09
  8.76497    137.3 1.239e+04 1.216e-09
  8.78455    138.5 1.255e+04 1.312e-09
  8.80413    139.8 1.267e+04 1.405e-09
  8.82371    141.0 1.280e+04 1.499e-09
  8.84329    142.2 1.293e+04 1.599e-09
  8.86286    143.4 1.312e+04 1.714e-09
  8.88244    144.7 1.337e+04 1.837e-09
  8.90202    145.9 1.360e+04 1.916e-09
  8.92160    146.9 1.365e+04 1.909e-09
  8.94118    147.6 1.361e+04 1.847e-09
  8.96075    148.3 1.341e+04 1.720e-09
  8.98033    148.8 1.303e+04 1.551e-09
  8.99991    149.3 1.255e+04 1.378e-09
  9.01949    150.0 1.214e+04 1.230e-09
  9.03896    150.9 1.187e+04 1.107e-09
  9.04875    150.7 1.150e+04 8.772e-10
  9.05113    152.0 1.151e+04 8.797e-10
  9.06092    151.8 1.188e+04 1.131e-09
  9.07822    153.1 1.213e+04 1.236e-09
  9.09780    154.2 1.254e+04 1.427e-09
  9.11738    155.3 1.326e+04 1.777e-09
  9.13696    156.3 1.441e+04 2.384e-09
  9.15653    157.1 1.576e+04 3.165e-09
  9.17117    157.6 1.650e+04 3.525e-09
  9.18091    158.0 1.705e+04 3.716e-09
  9.19070    158.0 1.793e+04 4.188e-09
  9.20049    158.0 1.911e+04 5.172e-09
  9.21028    158.0 2.043e+04 6.769e-09
  9.21767    158.2 2.160e+04 8.917e-09
  9.22256    158.4 2.075e+04 1.377e-08
  9.22985    159.0 2.113e+04 1.718e-08
  9.23964    159.6 2.142e+04 2.118e-08
  9.24943    160.2 2.174e+04 2.579e-08
  9.25922    160.7 2.216e+04 3.129e-08
  9.26901    161.1 2.258e+04 3.835e-08
  9.27880    161.3 2.299e+04 4.650e-08
  9.28859    161.3 2.332e+04 5.687e-08
  9.29838    161.2 2.352e+04 7.360e-08
  9.30817    161.1 2.331e+04 1.037e-07
  9.31391    161.2 2.288e+04 1.484e-07
  9.31633    161.7 2.236e+04 2.293e-07
  9.32035    161.5 2.234e+04 2.404e-07
  9.32525    161.4 2.229e+04 2.677e-07
  9.33014    161.4 2.217e+04 2.995e-07
  9.33504    161.6 2.196e+04 3.486e-07
  9.33993    162.1 2.158e+04 4.312e-07
  9.34483    163.0 2.121e+04 5.702e-07
  9.34972    164.2 2.088e+04 8.011e-07
  9.35461    164.9 2.060e+04 1.134e-06
  9.35951    164.9 2.044e+04 1.508e-06
  9.36440    164.3 2.059e+04 1.772e-06
  9.36930    161.7 2.077e+04 1.765e-06
  9.37419    158.9 2.098e+04 1.575e-06
  9.37909    157.2 2.134e+04 1.251e-06
  9.38429    156.3 2.206e+04 6.657e-07
  9.38918    155.9 2.054e+04 1.886e-06
  9.39377    155.5 2.126e+04 1.252e-06
  9.39866    155.2 2.172e+04 9.581e-07
  9.40603    154.5 2.225e+04 7.493e-07
  9.41584    153.7 2.407e+04 3.185e-07
  9.42563    152.8 2.609e+04 1.197e-07
  9.43542    151.2 2.699e+04 4.661e-08
  9.44521    149.4 2.498e+04 2.362e-08
  9.45500    148.0 2.121e+04 1.700e-08
  9.46479    147.5 1.891e+04 1.494e-08
  9.47458    147.5 1.840e+04 1.342e-08
  9.48437    147.7 1.845e+04 1.206e-08
  9.49416    148.0 1.845e+04 1.100e-08
  9.50395    148.2 1.848e+04 1.014e-08
  9.51373    148.1 1.886e+04 9.454e-09
  9.52352    148.0 1.900e+04 9.368e-09
  9.53331    147.7 1.931e+04 9.333e-09
  9.54310    147.5 1.966e+04 9.401e-09
  9.55095    147.4 2.000e+04 9.583e-09
  9.55585    147.9 1.956e+04 1.388e-08
  9.56268    147.9 1.993e+04 1.473e-08
  9.57247    148.0 2.026e+04 1.564e-08
  9.57917    148.1 2.051e+04 1.645e-08
  9.58406    147.7 2.057e+04 1.935e-08
  9.59205    148.2 2.049e+04 1.931e-08
  9.60184    148.8 2.043e+04 1.917e-08
  9.61162    149.5 2.044e+04 1.896e-08
  9.62141    150.1 2.049e+04 1.864e-08
  9.63120    151.0 2.053e+04 1.813e-08
  9.64593    151.6 1.998e+04 1.408e-08
  9.66556    152.8 1.996e+04 1.291e-08
  9.68514    153.7 1.988e+04 1.097e-08
  9.70472    154.5 1.963e+04 8.069e-09
  9.71769    154.8 1.901e+04 4.952e-09
  9.72748    154.7 2.178e+04 1.358e-08
  9.74387    155.4 2.094e+04 8.114e-09
  9.76345    155.5 1.923e+04 4.182e-09
  9.78303    155.1 1.635e+04 2.021e-09
  9.80261    154.3 1.276e+04 1.102e-09
  9.82219    154.7 1.132e+04 7.716e-10
  9.84176    155.5 1.120e+04 6.679e-10
  9.86134    157.6 1.123e+04 6.325e-10
  9.88092    159.2 1.061e+04 5.413e-10
  9.91038    162.1 1.100e+04 6.019e-10
  9.94964    165.6 1.029e+04 5.040e-10
  9.98879    169.1 9.915e+03 4.349e-10
 10.02795    172.6 9.695e+03 3.780e-10
 10.06711    175.9 9.508e+03 3.239e-10
 10.10019    179.1 9.469e+03 2.919e-10
 10.11977    178.2 9.412e+03 2.814e-10
 10.14542    181.3 9.444e+03 2.874e-10
 10.18457    184.5 9.568e+03 3.067e-10
 10.22373    186.6 9.745e+03 3.414e-10
 10.25300    187.7 9.732e+03 3.542e-10
 10.27248    188.8 9.841e+03 3.910e-10
 10.29206    189.8 1.009e+04 4.651e-10
 10.31164    190.7 1.037e+04 5.686e-10
 10.33121    191.6 1.068e+04 6.938e-10
 10.35079    192.4 1.100e+04 8.335e-10
 10.37037    193.0 1.133e+04 9.805e-10
 10.38425    193.5 1.161e+04 1.122e-09
 10.39404    193.6 1.095e+04 8.328e-10
 10.40953    194.0 1.124e+04 9.721e-10
 10.42910    194.4 1.150e+04 1.118e-09
 10.44868    194.7 1.173e+04 1.248e-09
 10.46826    195.1 1.189e+04 1.363e-09
 10.48784    195.6 1.200e+04 1.445e-09
 10.50742    196.0 1.208e+04 1.486e-09
 10.52699    196.4 1.216e+04 1.510e-09
 10.54657    196.5 1.226e+04 1.545e-09
 10.56615    196.4 1.241e+04 1.604e-09
 10.58573    196.2 1.264e+04 1.722e-09
 10.60531    195.8 1.294e+04 1.947e-09
 10.62488    195.4 1.328e+04 2.327e-09
 10.64030    195.4 1.373e+04 2.955e-09
 10.65009    195.7 1.350e+04 2.400e-09
 10.66404    195.7 1.396e+04 3.158e-09
 10.68362    195.9 1.450e+04 4.221e-09
 10.70320    196.5 1.513e+04 5.573e-09
 10.71754    196.8 1.587e+04 6.843e-09
 10.72733    195.4 1.613e+04 6.866e-09
 10.74235    195.2 1.663e+04 7.172e-09
 10.76193    194.7 1.694e+04 7.148e-09
 10.78151    194.2 1.712e+04 7.190e-09
 10.80109    193.3 1.735e+04 7.364e-09
 10.82066    191.9 1.757e+04 7.887e-09
 10.84024    190.0 1.803e+04 9.998e-09
 10.85488    188.9 1.831e+04 1.187e-08
 10.86462    188.2 1.859e+04 1.399e-08
 10.87441    187.7 1.886e+04 1.708e-08
 10.88408    187.5 1.927e+04 2.196e-08
 10.88897    187.3 1.931e+04 2.128e-08
