# Columns:
#   distance along LOS (in CHIMPs)
#   peculiar velocity  (in km/s)
#   temperature (K)
#   HI number density
# pos=(247.524,65.183,20.6155), angles=(0.63483,1.5506)
  0.00903    -62.6 1.061e+04 2.932e-10
  0.02227    -61.7 1.055e+04 2.675e-10
  0.05075    -60.0 1.052e+04 2.483e-10
  0.07947    -58.4 1.051e+04 2.331e-10
  0.10373    -57.4 1.042e+04 1.919e-10
  0.13667    -55.8 1.042e+04 1.856e-10
  0.16093    -54.8 1.034e+04 1.556e-10
  0.19387    -53.2 1.035e+04 1.630e-10
  0.21812    -52.1 1.030e+04 1.514e-10
  0.24481    -50.5 1.032e+04 1.692e-10
  0.27532    -48.8 1.033e+04 1.835e-10
  0.29958    -47.6 1.034e+04 1.872e-10
  0.33252    -45.9 1.035e+04 1.986e-10
  0.35678    -44.6 1.038e+04 2.051e-10
  0.38972    -43.0 1.038e+04 2.099e-10
  0.41397    -41.8 1.041e+04 2.157e-10
  0.43887    -40.3 1.041e+04 2.161e-10
  0.47117    -38.8 1.037e+04 2.117e-10
  0.49543    -37.7 1.042e+04 2.160e-10
  0.52837    -36.2 1.040e+04 2.125e-10
  0.55263    -35.3 1.046e+04 2.191e-10
  0.58441    -34.1 1.050e+04 2.233e-10
  0.60983    -33.1 1.067e+04 2.622e-10
  0.63408    -32.7 1.089e+04 3.190e-10
  0.66702    -31.6 1.114e+04 4.094e-10
  0.69128    -31.2 1.137e+04 4.821e-10
  0.72422    -30.4 1.156e+04 5.358e-10
  0.74848    -30.3 1.175e+04 5.298e-10
  0.77847    -29.7 1.175e+04 5.318e-10
  0.80568    -29.2 1.178e+04 5.106e-10
  0.82993    -29.5 1.190e+04 4.957e-10
  0.86288    -29.1 1.188e+04 5.039e-10
  0.88713    -29.5 1.203e+04 5.778e-10
  0.90351    -29.1 1.192e+04 5.920e-10
  0.91554    -29.1 1.198e+04 6.514e-10
  0.93201    -28.9 1.195e+04 7.058e-10
  0.94423    -29.0 1.195e+04 7.096e-10
  0.97252    -28.3 1.195e+04 7.718e-10
  1.00153    -27.9 1.195e+04 7.891e-10
  1.02579    -27.9 1.190e+04 7.579e-10
  1.05873    -27.5 1.178e+04 7.370e-10
  1.08298    -27.1 1.149e+04 5.859e-10
  1.11592    -26.3 1.125e+04 5.034e-10
  1.14018    -25.6 1.092e+04 3.331e-10
  1.16658    -24.8 1.070e+04 2.739e-10
  1.19738    -23.8 1.050e+04 2.172e-10
  1.22164    -22.8 1.035e+04 1.578e-10
  1.25458    -21.6 1.023e+04 1.301e-10
  1.27883    -20.4 1.020e+04 1.094e-10
  1.31178    -19.2 1.010e+04 9.564e-11
  1.33603    -17.8 1.006e+04 9.234e-11
  1.36064    -16.4 9.981e+03 8.748e-11
  1.39323    -15.0 9.921e+03 8.544e-11
  1.41749    -13.4 9.953e+03 8.646e-11
  1.45043    -12.0 9.926e+03 8.660e-11
  1.47469    -10.4 9.948e+03 9.145e-11
  1.50618     -9.1 9.903e+03 1.022e-10
  1.53188     -7.7 9.881e+03 1.162e-10
  1.55614     -6.0 9.927e+03 1.268e-10
  1.58908     -4.6 9.919e+03 1.390e-10
  1.61334     -2.9 9.976e+03 1.474e-10
  1.64628     -1.6 9.971e+03 1.497e-10
  1.67054      0.1 1.004e+04 1.529e-10
  1.70024      1.4 9.956e+03 1.487e-10
  1.72774      2.5 9.833e+03 1.388e-10
  1.75199      4.2 9.882e+03 1.431e-10
  1.78493      5.3 9.772e+03 1.409e-10
  1.80919      7.0 9.832e+03 1.546e-10
  1.84213      8.1 9.742e+03 1.667e-10
  1.86639      9.9 9.868e+03 1.951e-10
  1.89430     11.1 9.860e+03 2.076e-10
  1.92359     12.3 9.851e+03 2.083e-10
  1.94784     14.1 1.012e+04 2.510e-10
  1.98078     15.1 9.907e+03 2.152e-10
  2.00504     16.6 1.015e+04 2.439e-10
  2.03798     17.3 9.869e+03 1.908e-10
  2.06224     18.5 1.016e+04 2.208e-10
  2.08836     19.3 9.863e+03 1.753e-10
  2.11944     20.3 9.654e+03 1.529e-10
  2.14370     21.3 9.962e+03 1.874e-10
  2.17664     22.4 9.815e+03 1.773e-10
  2.20089     23.3 1.010e+04 2.256e-10
  2.23383     24.5 1.001e+04 2.208e-10
  2.28235     26.8 1.017e+04 2.972e-10
  2.31529     28.1 1.024e+04 3.395e-10
  2.33955     29.3 1.038e+04 3.665e-10
  2.37249     30.5 1.036e+04 3.832e-10
  2.39665     31.5 1.039e+04 4.087e-10
  2.42786     32.9 1.035e+04 3.862e-10
  2.45394     33.8 1.028e+04 3.509e-10
  2.47820     35.5 1.030e+04 3.370e-10
  2.51114     36.5 1.016e+04 2.851e-10
  2.53540     38.1 1.023e+04 2.836e-10
  2.56834     39.4 1.008e+04 2.542e-10
  2.59260     40.7 1.017e+04 2.683e-10
  2.62202     42.2 1.011e+04 2.728e-10
  2.64979     43.7 1.005e+04 2.859e-10
  2.66182     44.0 1.008e+04 3.090e-10
  2.67820     44.3 1.007e+04 3.125e-10
  2.69033     44.9 1.006e+04 3.384e-10
  2.70689     46.1 1.012e+04 3.375e-10
  2.73115     46.9 1.013e+04 3.982e-10
  2.74752     47.9 1.018e+04 3.879e-10
  2.75965     48.3 1.032e+04 4.571e-10
  2.77612     49.0 1.031e+04 4.236e-10
  2.78825     49.5 1.051e+04 4.954e-10
  2.80375     50.2 1.052e+04 4.452e-10
  2.81685     50.9 1.050e+04 4.036e-10
  2.82898     51.0 1.069e+04 4.505e-10
  2.84545     51.7 1.069e+04 4.225e-10
  2.85758     51.7 1.091e+04 4.713e-10
  2.87405     52.5 1.089e+04 4.630e-10
  2.88618     52.3 1.139e+04 5.708e-10
  2.90078     53.3 1.126e+04 5.610e-10
  2.91478     54.3 1.122e+04 5.783e-10
  2.92691     53.9 1.206e+04 9.049e-10
  2.94275     55.2 1.192e+04 9.162e-10
  2.94896     53.7 1.375e+04 1.588e-09
  2.95550     52.3 1.624e+04 3.633e-09
  2.97197     53.9 1.586e+04 3.251e-09
  2.98410     52.7 1.757e+04 6.354e-09
  2.99781     54.3 1.735e+04 5.824e-09
  3.01270     55.8 1.709e+04 5.453e-09
  3.02483     54.9 1.825e+04 8.163e-09
  3.04130     56.4 1.825e+04 8.157e-09
  3.05343     55.4 1.866e+04 8.939e-09
  3.06990     57.0 1.894e+04 9.814e-09
  3.08203     56.2 1.887e+04 8.904e-09
  3.09484     57.8 1.936e+04 1.063e-08
  3.11063     59.2 1.986e+04 1.271e-08
  3.12276     58.6 1.963e+04 1.042e-08
  3.13923     60.2 2.041e+04 1.367e-08
  3.15136     59.7 1.980e+04 8.711e-09
  3.16761     61.0 2.111e+04 1.365e-08
  3.17991     61.7 2.196e+04 1.986e-08
  3.19203     61.6 2.168e+04 1.108e-08
  3.20850     62.2 2.272e+04 1.645e-08
  3.22063     62.1 2.166e+04 5.948e-09
  3.22887     63.0 2.392e+04 1.802e-08
  3.23488     62.4 2.309e+04 8.888e-09
  3.24312     62.8 2.410e+04 1.304e-08
  3.24923     61.7 2.092e+04 2.625e-09
  3.25747     62.6 2.458e+04 9.143e-09
  3.26348     61.8 2.328e+04 4.691e-09
  3.27060     62.0 2.444e+04 7.110e-09
  3.27778     62.8 2.581e+04 1.081e-08
  3.28996     60.9 2.249e+04 5.333e-09
  3.30643     60.9 2.464e+04 7.753e-09
  3.31245     59.4 2.100e+04 7.264e-09
  3.31912     59.3 2.201e+04 9.605e-09
  3.32675     60.5 2.570e+04 1.241e-08
  3.33281     58.8 2.092e+04 1.103e-08
  3.34104     59.3 2.442e+04 1.450e-08
  3.34711     57.5 2.072e+04 1.409e-08
  3.35534     57.7 2.321e+04 1.847e-08
  3.36141     56.0 2.102e+04 1.804e-08
  3.36763     55.7 2.249e+04 2.588e-08
  3.37571     55.6 2.604e+04 3.639e-08
  3.38177     54.7 2.222e+04 3.892e-08
  3.39001     54.7 2.470e+04 5.206e-08
  3.39607     54.6 2.194e+04 5.622e-08
  3.40402     55.6 2.432e+04 7.501e-08
  3.41037     55.8 2.800e+04 9.192e-08
  3.41644     56.0 2.459e+04 8.839e-08
  3.42467     55.5 2.753e+04 8.894e-08
  3.43074     55.0 2.427e+04 8.088e-08
  3.43897     54.6 2.669e+04 6.447e-08
  3.44503     53.7 2.330e+04 5.455e-08
  3.45253     53.1 2.515e+04 4.203e-08
  3.45933     52.7 2.732e+04 3.829e-08
  3.46540     52.0 2.258e+04 2.615e-08
  3.47363     51.5 2.492e+04 2.424e-08
  3.47970     50.3 2.054e+04 1.680e-08
  3.48793     49.9 2.277e+04 1.574e-08
  3.49400     49.1 1.872e+04 1.100e-08
  3.50105     48.7 2.066e+04 1.065e-08
  3.50830     48.5 2.321e+04 1.072e-08
  3.51441     49.0 1.622e+04 5.453e-09
  3.52265     47.8 2.128e+04 6.886e-09
  3.52866     47.5 1.929e+04 4.698e-09
  3.53690     47.3 2.189e+04 5.025e-09
  3.54301     48.7 1.414e+04 2.516e-09
  3.55572     46.2 2.243e+04 2.225e-09
  3.57161     43.0 4.286e+04 1.732e-09
  3.58374     42.6 3.309e+04 2.255e-09
  3.59813     42.5 4.132e+04 6.327e-09
  3.60622     42.8 4.025e+04 1.337e-08
  3.61234     42.8 3.764e+04 1.983e-09
  3.62057     40.2 5.335e+04 3.430e-09
  3.62659     39.2 4.893e+04 1.656e-09
  3.63446     36.4 4.967e+04 1.915e-09
  3.64089     31.0 4.627e+04 2.761e-09
  3.65306     33.6 2.411e+04 3.227e-09
  3.66953     28.0 2.809e+04 5.275e-09
  3.68166     34.7 1.942e+04 4.538e-09
  3.68990     29.2 2.757e+04 9.037e-09
  3.69591     31.7 2.445e+04 6.241e-09
  3.70415     30.9 2.644e+04 7.501e-09
  3.71026     37.7 1.699e+04 4.694e-09
  3.72552     35.1 2.329e+04 4.351e-09
  3.73886     33.7 2.653e+04 5.474e-09
  3.75099     37.2 1.960e+04 2.498e-09
  3.76751     34.9 2.464e+04 2.845e-09
  3.77964     37.9 1.478e+04 1.706e-09
  3.79611     36.0 1.958e+04 1.650e-09
  3.80824     38.2 1.246e+04 1.515e-09
  3.82255     37.1 1.435e+04 1.409e-09
  3.83683     36.2 1.935e+04 2.031e-09
  3.84896     37.9 1.257e+04 1.373e-09
  3.86543     36.9 1.528e+04 1.619e-09
  3.87756     38.5 1.230e+04 1.338e-09
  3.89403     37.5 1.371e+04 1.637e-09
  3.90616     39.2 1.230e+04 1.261e-09
  3.91958     38.7 1.326e+04 1.795e-09
  3.93476     39.4 1.544e+04 3.166e-09
  3.94689     40.3 1.319e+04 1.895e-09
  3.96336     41.1 1.457e+04 2.949e-09
  3.97549     42.1 1.313e+04 1.912e-09
  3.99196     43.1 1.406e+04 2.757e-09
  4.00409     44.0 1.307e+04 1.854e-09
  4.01661     45.1 1.372e+04 2.525e-09
  4.03269     46.3 1.411e+04 3.040e-09
  4.04481     47.2 1.335e+04 1.996e-09
  4.06129     48.5 1.359e+04 2.310e-09
  4.07341     49.3 1.308e+04 1.670e-09
  4.08938     50.3 1.315e+04 1.805e-09
  4.10211     51.5 1.313e+04 1.773e-09
  4.12647     53.5 1.245e+04 1.077e-09
  4.15941     55.8 1.236e+04 1.155e-09
  4.18366     57.8 1.173e+04 6.599e-10
  4.21660     60.2 1.181e+04 7.858e-10
  4.24086     62.0 1.126e+04 4.215e-10
  4.27151     64.5 1.148e+04 6.080e-10
  4.29806     67.2 1.151e+04 7.818e-10
  4.32232     69.0 1.130e+04 5.484e-10
  4.35526     71.9 1.150e+04 8.148e-10
  4.37951     73.8 1.124e+04 5.472e-10
  4.41246     76.8 1.160e+04 8.928e-10
  4.43671     78.7 1.126e+04 5.755e-10
  4.46557     81.7 1.179e+04 1.013e-09
  4.49391     84.8 1.222e+04 1.385e-09
  4.51817     86.7 1.212e+04 1.204e-09
  4.55111     89.7 1.267e+04 1.763e-09
  4.57537     91.6 1.258e+04 1.538e-09
  4.59174     92.8 1.319e+04 2.223e-09
  4.60377     93.9 1.301e+04 2.037e-09
  4.62024     95.2 1.342e+04 2.503e-09
  4.63237     96.6 1.322e+04 2.274e-09
  4.64730     98.1 1.402e+04 2.865e-09
  4.66097     98.6 1.489e+04 3.576e-09
  4.67310    100.2 1.481e+04 3.318e-09
  4.68957     99.9 1.601e+04 4.567e-09
  4.70170    101.7 1.603e+04 4.113e-09
  4.71817    101.0 1.726e+04 6.503e-09
  4.73029    102.6 1.746e+04 5.757e-09
  4.74433    102.0 1.839e+04 9.901e-09
  4.75889    102.5 1.827e+04 1.570e-08
  4.77102    103.4 1.927e+04 1.606e-08
  4.78673    104.8 1.936e+04 2.470e-08
  4.79346    104.9 1.929e+04 2.657e-08
  4.79952    105.1 1.971e+04 3.161e-08
  4.80776    106.2 1.967e+04 3.590e-08
  4.81382    106.5 2.000e+04 4.310e-08
  4.82206    107.4 1.995e+04 4.358e-08
  4.82812    107.6 2.035e+04 5.397e-08
  4.83520    107.9 2.014e+04 4.992e-08
  4.84242    108.4 2.011e+04 3.918e-08
  4.84849    108.4 2.012e+04 5.183e-08
  4.85672    108.9 2.031e+04 4.106e-08
  4.86279    109.0 2.037e+04 6.385e-08
  4.87102    109.3 2.055e+04 5.349e-08
  4.87709    109.7 2.076e+04 1.142e-07
  4.88371    110.0 2.131e+04 8.262e-08
  4.89138    110.1 2.333e+04 3.496e-08
  4.89745    109.9 2.321e+04 6.234e-08
  4.90568    109.7 2.560e+04 1.893e-08
  4.91175    108.8 2.465e+04 2.774e-08
  4.91998    106.6 2.420e+04 9.651e-09
  4.92605    106.8 2.451e+04 1.413e-08
  4.93834    103.1 1.950e+04 6.562e-09
  4.95474    101.3 1.490e+04 1.845e-09
  4.96687    102.4 1.685e+04 3.184e-09
  4.98334    100.5 1.317e+04 1.294e-09
  4.99547    101.6 1.509e+04 2.009e-09
  5.01116    100.1 1.246e+04 1.102e-09
  5.02407     99.9 1.171e+04 8.689e-10
  5.03620    100.0 1.222e+04 1.007e-09
  5.05267     99.9 1.158e+04 8.466e-10
  5.06480    100.0 1.197e+04 9.446e-10
  5.08127     99.8 1.140e+04 8.326e-10
  5.09340     99.7 1.161e+04 8.810e-10
  5.10819     99.8 1.124e+04 8.090e-10
  5.12200    100.3 1.112e+04 7.833e-10
  5.13413    100.0 1.115e+04 7.763e-10
  5.15060    100.7 1.110e+04 7.332e-10
  5.16272    100.3 1.113e+04 7.188e-10
  5.17919    100.9 1.105e+04 6.463e-10
  5.19132    100.4 1.107e+04 6.348e-10
  5.20522    101.0 1.098e+04 5.702e-10
  5.21992    101.6 1.081e+04 5.158e-10
  5.23205    101.2 1.083e+04 5.155e-10
  5.24852    102.0 1.069e+04 4.797e-10
  5.26065    101.6 1.078e+04 4.891e-10
  5.27712    102.6 1.068e+04 4.699e-10
  5.28925    102.3 1.083e+04 4.955e-10
  5.30224    103.6 1.073e+04 4.809e-10
  5.31785    104.8 1.056e+04 4.508e-10
  5.32998    104.6 1.079e+04 5.039e-10
  5.34645    106.0 1.066e+04 4.745e-10
  5.35858    106.0 1.086e+04 5.358e-10
  5.37502    107.4 1.081e+04 5.098e-10
  5.39927    109.0 1.092e+04 5.458e-10
  5.41577    110.4 1.092e+04 4.843e-10
  5.42790    110.5 1.107e+04 5.751e-10
  5.44437    112.1 1.104e+04 5.211e-10
  5.45650    112.3 1.139e+04 6.369e-10
  5.47205    113.7 1.115e+04 5.696e-10
  5.48510    115.2 1.092e+04 5.191e-10
  5.49723    115.6 1.140e+04 6.601e-10
  5.51370    117.0 1.110e+04 5.653e-10
  5.52583    117.3 1.201e+04 8.787e-10
  5.54230    119.0 1.164e+04 6.420e-10
  5.55443    118.9 1.348e+04 1.436e-09
  5.56907    120.7 1.259e+04 9.308e-10
  5.58303    122.6 1.150e+04 7.603e-10
  5.59515    122.3 1.482e+04 2.033e-09
  5.61162    125.0 1.457e+04 1.510e-09
  5.62370    125.2 1.592e+04 2.315e-09
  5.64018    127.6 1.517e+04 1.637e-09
  5.65230    126.9 1.802e+04 3.565e-09
  5.65994    128.3 1.698e+04 2.131e-09
  5.66655    128.7 1.610e+04 1.732e-09
  5.67262    127.6 1.938e+04 4.558e-09
  5.68085    129.0 1.824e+04 2.686e-09
  5.68692    127.2 2.094e+04 1.063e-08
  5.69515    128.0 2.032e+04 6.777e-09
  5.70122    126.9 2.147e+04 2.388e-08
  5.70846    128.1 2.124e+04 1.523e-08
  5.71552    128.7 2.102e+04 9.860e-09
  5.72158    128.2 2.170e+04 2.990e-08
  5.72982    128.9 2.163e+04 2.022e-08
  5.73588    128.1 2.179e+04 4.666e-08
  5.74412    128.4 2.177e+04 3.741e-08
  5.75018    127.9 2.190e+04 6.187e-08
  5.75697    128.1 2.188e+04 5.799e-08
  5.76448    127.6 2.201e+04 5.197e-08
  5.77054    127.0 2.225e+04 6.608e-08
  5.77878    126.3 2.209e+04 5.835e-08
  5.78484    125.7 2.220e+04 5.816e-08
  5.79308    125.0 2.207e+04 5.206e-08
  5.79914    124.2 2.226e+04 4.857e-08
  5.80548    123.3 2.207e+04 4.765e-08
  5.81344    122.5 2.196e+04 4.982e-08
  5.81951    121.8 2.235e+04 4.002e-08
  5.82774    121.1 2.217e+04 4.717e-08
  5.83381    120.5 2.271e+04 2.991e-08
  5.84187    120.3 2.222e+04 3.790e-08
  5.84811    120.2 2.167e+04 5.120e-08
  5.85417    120.1 2.217e+04 2.724e-08
  5.86241    120.5 2.166e+04 3.358e-08
  5.86847    120.3 2.209e+04 1.485e-08
  5.87671    120.8 2.139e+04 1.709e-08
  5.88888    120.6 2.137e+04 3.778e-09
  5.90540    120.3 1.966e+04 5.113e-09
  5.91753    118.4 1.600e+04 9.878e-10
  5.93293    119.1 1.630e+04 1.475e-09
  5.94613    119.8 1.544e+04 1.963e-09
  5.95826    119.1 1.193e+04 6.402e-10
  5.97473    119.4 1.216e+04 8.494e-10
  5.98686    119.5 1.064e+04 4.863e-10
  6.00333    119.8 1.071e+04 5.737e-10
  6.01546    120.6 1.047e+04 4.659e-10
  6.02996    121.0 1.063e+04 5.270e-10
  6.04406    121.8 1.107e+04 7.479e-10
  6.05618    122.2 1.100e+04 5.844e-10
  6.07265    122.9 1.135e+04 7.971e-10
  6.08478    123.0 1.140e+04 7.721e-10
  6.10125    123.6 1.170e+04 1.026e-09
  6.11338    123.6 1.174e+04 1.039e-09
  6.12699    124.3 1.202e+04 1.281e-09
  6.14198    125.2 1.214e+04 1.347e-09
  6.15411    124.9 1.221e+04 1.422e-09
  6.17058    125.8 1.212e+04 1.361e-09
  6.18271    125.5 1.218e+04 1.452e-09
  6.19860    126.3 1.196e+04 1.201e-09
  6.21014    126.4 1.167e+04 9.583e-10
  6.21131    126.1 1.177e+04 1.033e-09
  6.22402    126.5 1.156e+04 8.228e-10
  6.23991    126.6 1.134e+04 6.629e-10
  6.25204    126.1 1.146e+04 7.241e-10
  6.26851    126.2 1.123e+04 6.153e-10
  6.28063    125.7 1.142e+04 7.123e-10
  6.29679    125.7 1.121e+04 6.546e-10
  6.30923    126.1 1.116e+04 6.553e-10
  6.32136    125.4 1.141e+04 7.668e-10
  6.33783    125.7 1.150e+04 8.018e-10
  6.34996    124.8 1.191e+04 9.897e-10
  6.36643    124.9 1.215e+04 1.104e-09
  6.37856    123.7 1.261e+04 1.393e-09
  6.39382    124.1 1.281e+04 1.542e-09
  6.40716    124.5 1.304e+04 1.711e-09
  6.41929    123.5 1.317e+04 1.859e-09
  6.43576    123.8 1.324e+04 1.857e-09
  6.44789    123.0 1.310e+04 1.764e-09
  6.46436    123.5 1.302e+04 1.613e-09
  6.47649    122.9 1.265e+04 1.308e-09
  6.49085    123.0 1.251e+04 1.151e-09
  6.50508    123.0 1.234e+04 1.023e-09
  6.51721    122.4 1.204e+04 8.801e-10
  6.53368    122.5 1.194e+04 8.475e-10
  6.54581    122.2 1.180e+04 7.971e-10
  6.56228    122.6 1.179e+04 8.265e-10
  6.57441    122.7 1.169e+04 7.975e-10
  6.58788    123.3 1.168e+04 8.179e-10
  6.60301    123.8 1.166e+04 8.096e-10
  6.61514    124.1 1.158e+04 7.884e-10
  6.63161    124.3 1.158e+04 7.764e-10
  6.64374    124.3 1.157e+04 7.761e-10
  6.66021    123.8 1.171e+04 8.179e-10
  6.67234    123.5 1.177e+04 8.798e-10
  6.68491    122.3 1.215e+04 1.114e-09
  6.70094    121.3 1.259e+04 1.519e-09
  6.71306    121.3 1.265e+04 1.727e-09
  6.72953    120.9 1.305e+04 2.200e-09
  6.74166    121.2 1.304e+04 2.177e-09
  6.75768    120.9 1.322e+04 2.246e-09
  6.77026    120.7 1.318e+04 2.036e-09
  6.78239    120.6 1.301e+04 1.644e-09
  6.79886    119.3 1.319e+04 1.221e-09
  6.81099    118.0 1.325e+04 1.018e-09
  6.82746    115.2 1.355e+04 9.446e-10
  6.83959    113.8 1.373e+04 1.015e-09
  6.85471    111.5 1.437e+04 1.332e-09
  6.86819    110.6 1.476e+04 1.823e-09
  6.88032    110.2 1.502e+04 2.143e-09
  6.89679    109.9 1.553e+04 3.333e-09
  6.90892    109.8 1.551e+04 3.660e-09
  6.92539    110.3 1.579e+04 4.944e-09
  6.93751    110.4 1.563e+04 4.889e-09
  6.95174    111.2 1.573e+04 5.223e-09
  6.96611    111.8 1.572e+04 4.968e-09
  6.97824    111.8 1.535e+04 4.123e-09
  6.99471    111.9 1.522e+04 3.447e-09
  7.00684    111.2 1.474e+04 2.720e-09
  7.02331    111.1 1.432e+04 2.134e-09
  7.03544    110.1 1.361e+04 1.668e-09
  7.04877    110.0 1.335e+04 1.494e-09
  7.06404    110.3 1.297e+04 1.325e-09
  7.07617    110.1 1.249e+04 1.148e-09
  7.09264    110.5 1.248e+04 1.136e-09
  7.10477    110.4 1.221e+04 1.049e-09
  7.12124    111.4 1.213e+04 1.021e-09
  7.14559    111.9 1.225e+04 1.072e-09
  7.17863    113.9 1.222e+04 1.072e-09
  7.20289    114.9 1.178e+04 8.670e-10
  7.23089    117.2 1.184e+04 9.079e-10
  7.26009    119.6 1.187e+04 9.228e-10
  7.28434    120.5 1.163e+04 8.016e-10
  7.31728    122.7 1.177e+04 8.936e-10
  7.34154    123.4 1.158e+04 7.984e-10
  7.37448    125.6 1.179e+04 9.425e-10
  7.39874    126.1 1.161e+04 8.426e-10
  7.42495    128.4 1.188e+04 9.882e-10
  7.45594    130.6 1.190e+04 9.703e-10
  7.48019    130.8 1.187e+04 9.247e-10
  7.51314    132.9 1.185e+04 8.822e-10
  7.53739    132.8 1.172e+04 7.814e-10
  7.57033    134.9 1.165e+04 7.356e-10
  7.61885    137.0 1.133e+04 6.042e-10
  7.65179    139.4 1.113e+04 5.688e-10
  7.66382    139.1 1.105e+04 5.330e-10
  7.67945    139.4 1.106e+04 5.391e-10
  7.69232    141.3 1.098e+04 5.358e-10
  7.70445    141.0 1.090e+04 5.131e-10
  7.72092    142.1 1.091e+04 5.245e-10
  7.73305    142.1 1.078e+04 4.829e-10
  7.74952    143.6 1.078e+04 5.040e-10
  7.76165    143.5 1.065e+04 4.656e-10
  7.77648    144.9 1.066e+04 4.854e-10
  7.79025    146.6 1.073e+04 5.203e-10
  7.80237    146.6 1.059e+04 4.743e-10
  7.81885    147.9 1.070e+04 5.165e-10
  7.83097    148.0 1.054e+04 4.750e-10
  7.83865    149.2 1.061e+04 5.171e-10
  7.84897    149.7 1.069e+04 5.265e-10
  7.85957    150.0 1.053e+04 4.928e-10
  7.87351    151.0 1.061e+04 5.353e-10
  7.88817    152.1 1.073e+04 5.985e-10
  7.90030    152.3 1.056e+04 5.604e-10
  7.91677    153.4 1.073e+04 6.413e-10
  7.92890    153.6 1.054e+04 5.968e-10
  7.94537    154.7 1.075e+04 6.870e-10
  7.95750    154.7 1.059e+04 6.465e-10
  7.97054    155.6 1.079e+04 7.393e-10
  7.98610    156.6 1.099e+04 8.387e-10
  7.99823    156.4 1.089e+04 8.046e-10
  8.01470    157.2 1.106e+04 8.882e-10
  8.02683    156.8 1.094e+04 8.452e-10
  8.04330    157.6 1.105e+04 9.126e-10
  8.06765    157.6 1.081e+04 8.273e-10
  8.10069    159.2 1.090e+04 8.843e-10
  8.12495    158.5 1.030e+04 6.263e-10
  8.15266    160.0 1.018e+04 5.693e-10
  8.18214    161.5 9.992e+03 4.923e-10
  8.20640    160.3 8.987e+03 2.503e-10
  8.23934    161.7 8.662e+03 2.047e-10
  8.26360    160.2 8.029e+03 1.325e-10
  8.29654    162.0 8.009e+03 1.290e-10
