# Columns:
#   distance along LOS (in CHIMPs)
#   peculiar velocity  (in km/s)
#   temperature (K)
#   HI number density
# pos=(84.5101,167.282,24.0186), angles=(3.01812,3.52401)
  0.00156    209.0 1.376e+04 2.765e-09
  0.00859    208.3 1.382e+04 2.758e-09
  0.01843    208.7 1.384e+04 2.742e-09
  0.03264    208.1 1.385e+04 2.730e-09
  0.05232    207.5 1.374e+04 2.505e-09
  0.07200    207.0 1.347e+04 2.027e-09
  0.09561    207.0 1.294e+04 1.511e-09
  0.11529    207.1 1.307e+04 1.612e-09
  0.14099    207.4 1.288e+04 1.391e-09
  0.18045    207.6 1.203e+04 8.589e-10
  0.21981    208.2 1.119e+04 5.389e-10
  0.25917    209.2 1.050e+04 3.611e-10
  0.29853    210.5 9.966e+03 2.661e-10
  0.33716    211.8 9.620e+03 2.220e-10
  0.35684    211.9 9.847e+03 2.508e-10
  0.37726    213.4 9.829e+03 2.512e-10
  0.41662    215.0 9.826e+03 2.573e-10
  0.45598    216.5 9.884e+03 2.754e-10
  0.49534    217.8 9.993e+03 3.037e-10
  0.53470    218.7 1.007e+04 3.310e-10
  0.56413    219.1 1.011e+04 3.540e-10
  0.58371    219.8 1.019e+04 3.860e-10
  0.60339    220.5 1.035e+04 4.391e-10
  0.62307    221.0 1.057e+04 5.106e-10
  0.64276    221.1 1.086e+04 6.033e-10
  0.66244    221.0 1.123e+04 7.347e-10
  0.68212    220.7 1.174e+04 9.413e-10
  0.69487    220.2 1.235e+04 1.269e-09
  0.70471    219.5 1.237e+04 1.245e-09
  0.72148    218.9 1.293e+04 1.562e-09
  0.74116    218.3 1.353e+04 1.935e-09
  0.76084    217.5 1.413e+04 2.267e-09
  0.78052    216.3 1.462e+04 2.353e-09
  0.80020    214.7 1.467e+04 2.339e-09
  0.81989    212.7 1.457e+04 2.257e-09
  0.83957    210.6 1.421e+04 2.089e-09
  0.85906    208.6 1.365e+04 1.924e-09
  0.86890    207.7 1.302e+04 1.566e-09
  0.87893    206.1 1.272e+04 1.504e-09
  0.89861    204.7 1.256e+04 1.506e-09
  0.91829    203.4 1.254e+04 1.533e-09
  0.93797    201.8 1.258e+04 1.700e-09
  0.95347    200.1 1.304e+04 2.116e-09
  0.96331    200.0 1.398e+04 2.660e-09
  0.97733    197.3 1.515e+04 3.939e-09
  0.99702    194.7 1.624e+04 5.874e-09
  1.01670    192.4 1.707e+04 8.128e-09
  1.03309    190.1 1.767e+04 1.026e-08
  1.04293    189.1 1.777e+04 1.176e-08
  1.05606    186.6 1.840e+04 1.429e-08
  1.07574    183.5 1.906e+04 1.542e-08
  1.09542    179.7 1.945e+04 1.533e-08
  1.11510    175.0 1.962e+04 1.462e-08
  1.13478    169.7 1.973e+04 1.175e-08
  1.15446    164.5 1.903e+04 7.622e-09
  1.17414    159.4 1.758e+04 4.203e-09
  1.19383    154.3 1.541e+04 2.301e-09
  1.20712    150.7 1.371e+04 1.690e-09
  1.21696    151.8 1.360e+04 1.729e-09
  1.23319    151.7 1.361e+04 1.710e-09
  1.25287    151.9 1.374e+04 1.734e-09
  1.27255    152.6 1.396e+04 1.806e-09
  1.29223    153.6 1.419e+04 1.886e-09
  1.31191    154.8 1.447e+04 1.974e-09
  1.32662    155.7 1.468e+04 2.077e-09
  1.33642    156.7 1.485e+04 2.152e-09
  1.34626    158.2 1.518e+04 2.232e-09
  1.35610    159.4 1.585e+04 2.357e-09
  1.36594    159.5 1.729e+04 2.585e-09
  1.37578    158.7 2.142e+04 3.102e-09
  1.38105    155.7 2.950e+04 4.785e-09
  1.38270    153.6 3.471e+04 7.466e-09
  1.38727    155.2 3.739e+04 6.157e-08
  1.39546    146.5 3.417e+04 2.582e-07
  1.40530    130.9 2.990e+04 6.053e-07
  1.41514    118.7 2.761e+04 6.447e-07
  1.42498    116.6 2.522e+04 5.019e-07
  1.43482    117.6 2.393e+04 2.954e-07
  1.44466    120.3 2.295e+04 1.595e-07
  1.45450    123.0 2.233e+04 8.808e-08
  1.46315    124.8 2.251e+04 4.784e-08
  1.46807    126.4 2.111e+04 6.387e-08
  1.47418    127.8 2.267e+04 3.372e-08
  1.48402    127.7 2.545e+04 1.468e-08
  1.49386    128.6 2.582e+04 9.656e-09
  1.50867    127.1 2.390e+04 3.922e-09
  1.52840    126.0 1.768e+04 2.556e-09
  1.54534    125.8 1.426e+04 2.264e-09
  1.55518    125.3 1.293e+04 1.235e-09
  1.56777    126.3 1.248e+04 1.137e-09
  1.58745    128.3 1.235e+04 1.081e-09
  1.60713    130.0 1.226e+04 9.966e-10
  1.62681    131.2 1.211e+04 8.897e-10
  1.64649    132.2 1.192e+04 7.542e-10
  1.66617    133.0 1.176e+04 6.389e-10
  1.68585    133.7 1.151e+04 5.044e-10
  1.70963    136.0 1.217e+04 5.853e-10
  1.72941    134.4 9.916e+03 2.036e-10
  1.75493    135.8 9.296e+03 1.619e-10
  1.79194    137.5 9.112e+03 1.591e-10
  1.81162    137.2 9.071e+03 1.546e-10
  1.83366    138.9 9.065e+03 1.604e-10
  1.87302    140.7 9.119e+03 1.786e-10
  1.91238    142.5 9.257e+03 2.084e-10
  1.95174    144.2 9.416e+03 2.445e-10
  1.99111    145.8 9.569e+03 2.771e-10
  2.03047    147.2 9.646e+03 2.909e-10
  2.05779    148.3 9.650e+03 2.910e-10
  2.07747    149.0 9.543e+03 2.676e-10
  2.10919    150.0 9.541e+03 2.673e-10
  2.14855    150.8 9.540e+03 2.681e-10
  2.18792    151.5 9.560e+03 2.752e-10
  2.22728    152.1 9.656e+03 2.980e-10
  2.26664    152.2 9.797e+03 3.296e-10
  2.30600    152.2 9.956e+03 3.594e-10
  2.34536    151.9 1.018e+04 3.936e-10
  2.38473    151.0 1.044e+04 4.523e-10
  2.40585    150.0 1.057e+04 5.273e-10
  2.42553    151.6 1.003e+04 3.667e-10
  2.46345    150.4 9.993e+03 3.645e-10
  2.50281    149.3 9.828e+03 3.496e-10
  2.54218    149.2 9.549e+03 3.194e-10
  2.58154    149.4 9.229e+03 2.671e-10
  2.62090    149.8 8.874e+03 1.979e-10
  2.64990    150.5 8.515e+03 1.344e-10
  2.66958    150.8 8.389e+03 1.080e-10
  2.69962    151.4 8.115e+03 7.541e-11
  2.73423    152.4 8.101e+03 7.345e-11
  2.75391    153.2 8.097e+03 8.339e-11
  2.77835    154.3 8.119e+03 8.467e-11
  2.81771    155.3 8.237e+03 9.529e-11
  2.85707    156.0 8.519e+03 1.259e-10
  2.89644    156.0 8.877e+03 1.772e-10
  2.93580    155.9 9.287e+03 2.466e-10
  2.97516    155.5 9.666e+03 3.200e-10
  3.00458    155.0 9.852e+03 3.621e-10
  3.02417    154.7 1.002e+04 4.055e-10
  3.04385    154.4 1.019e+04 4.671e-10
  3.06353    154.0 1.036e+04 5.428e-10
  3.07868    153.5 1.063e+04 6.437e-10
  3.08740    153.2 1.076e+04 6.613e-10
  3.09193    154.0 1.060e+04 6.097e-10
  3.10289    153.3 1.104e+04 7.789e-10
  3.12257    152.3 1.164e+04 1.071e-09
  3.14225    151.3 1.235e+04 1.548e-09
  3.16193    150.7 1.304e+04 2.204e-09
  3.18162    150.4 1.369e+04 3.001e-09
  3.20130    150.1 1.412e+04 3.324e-09
  3.22098    149.6 1.412e+04 3.250e-09
  3.24066    148.9 1.399e+04 2.919e-09
  3.25612    147.7 1.380e+04 2.376e-09
  3.26596    148.1 1.486e+04 3.828e-09
  3.28002    145.9 1.505e+04 3.712e-09
  3.29970    143.3 1.524e+04 3.702e-09
  3.31441    141.5 1.525e+04 3.490e-09
  3.32421    140.3 1.528e+04 3.345e-09
  3.33405    138.5 1.569e+04 3.548e-09
  3.34304    137.4 1.620e+04 3.890e-09
  3.34796    136.7 1.745e+04 6.016e-09
  3.35373    135.5 1.800e+04 7.081e-09
  3.36357    134.8 1.840e+04 7.989e-09
  3.37838    133.7 1.842e+04 7.680e-09
  3.39811    131.9 1.843e+04 7.694e-09
  3.41779    130.4 1.805e+04 6.390e-09
  3.43015    128.6 1.704e+04 4.412e-09
  3.44000    127.3 1.897e+04 1.133e-08
  3.45715    125.2 1.791e+04 7.882e-09
  3.47683    123.4 1.664e+04 5.747e-09
  3.49651    122.3 1.546e+04 4.428e-09
  3.50766    121.8 1.450e+04 3.481e-09
  3.51750    122.3 1.468e+04 3.720e-09
  3.53588    122.1 1.387e+04 2.923e-09
  3.55556    121.8 1.315e+04 2.282e-09
  3.57524    121.8 1.250e+04 1.768e-09
  3.59434    121.8 1.194e+04 1.371e-09
  3.60419    120.9 1.219e+04 1.514e-09
  3.61460    120.9 1.166e+04 1.205e-09
  3.63428    121.1 1.129e+04 1.005e-09
  3.65396    121.6 1.101e+04 8.659e-10
  3.67364    122.1 1.082e+04 7.684e-10
  3.69332    122.5 1.068e+04 7.010e-10
  3.71300    123.1 1.056e+04 6.444e-10
  3.73269    123.6 1.046e+04 6.010e-10
  3.75237    124.3 1.034e+04 5.690e-10
  3.76838    125.0 1.024e+04 5.445e-10
  3.77822    124.6 1.072e+04 7.439e-10
  3.79173    125.3 1.062e+04 7.030e-10
  3.81141    126.1 1.058e+04 6.855e-10
  3.83109    126.9 1.058e+04 6.859e-10
  3.85077    127.8 1.060e+04 6.917e-10
  3.87045    128.8 1.067e+04 7.124e-10
  3.89013    129.8 1.078e+04 7.521e-10
  3.90982    130.7 1.097e+04 8.183e-10
  3.92679    131.7 1.125e+04 9.242e-10
  3.93663    131.7 1.118e+04 9.075e-10
  3.94241    132.6 1.161e+04 1.083e-09
  3.95225    131.5 1.281e+04 1.832e-09
  3.96886    132.4 1.353e+04 2.377e-09
  3.98854    133.3 1.433e+04 3.161e-09
  4.00822    134.3 1.513e+04 4.222e-09
  4.02790    135.3 1.584e+04 5.472e-09
  4.04758    136.4 1.650e+04 6.826e-09
  4.06726    137.4 1.711e+04 8.254e-09
  4.08695    138.3 1.765e+04 9.676e-09
  4.10660    138.9 1.808e+04 1.104e-08
  4.12628    140.0 1.780e+04 9.182e-09
  4.14599    140.7 1.787e+04 9.043e-09
  4.16567    141.3 1.793e+04 8.475e-09
  4.18535    141.8 1.786e+04 7.870e-09
  4.20503    141.9 1.776e+04 6.966e-09
  4.21974    141.9 1.768e+04 6.160e-09
  4.22954    141.7 1.764e+04 5.634e-09
  4.23938    141.2 1.785e+04 5.276e-09
  4.24922    140.5 1.796e+04 5.301e-09
  4.25906    139.4 1.821e+04 5.509e-09
  4.26890    137.9 1.850e+04 5.981e-09
  4.27874    136.1 1.879e+04 6.787e-09
  4.28545    134.2 1.914e+04 8.045e-09
  4.29037    134.6 1.849e+04 6.514e-09
  4.29842    132.9 1.902e+04 8.263e-09
  4.30826    131.3 1.954e+04 1.064e-08
  4.31810    130.0 2.004e+04 1.384e-08
  4.32794    129.0 2.054e+04 1.809e-08
  4.33778    128.2 2.095e+04 2.311e-08
  4.34762    127.4 2.125e+04 2.754e-08
  4.35567    126.5 2.144e+04 2.995e-08
  4.36059    125.3 2.171e+04 2.831e-08
  4.36730    124.4 2.204e+04 3.041e-08
  4.37246    123.6 2.242e+04 3.162e-08
  4.37738    124.2 2.260e+04 3.069e-08
  4.38698    123.4 2.304e+04 3.345e-08
  4.39683    122.3 2.394e+04 3.619e-08
  4.40667    118.8 2.694e+04 4.437e-08
  4.41651    109.0 3.133e+04 8.546e-08
  4.42635     97.4 2.922e+04 2.235e-07
  4.43619     85.4 2.541e+04 5.270e-07
  4.44603     71.4 2.552e+04 7.304e-07
  4.45456     56.0 2.886e+04 5.225e-07
  4.45948     46.5 4.172e+04 1.143e-07
  4.46571     28.7 5.109e+04 1.730e-08
  4.47555     11.0 3.439e+04 5.359e-09
  4.48539      2.3 1.981e+04 4.836e-09
  4.50020     -4.0 1.686e+04 2.479e-09
  4.51993     -4.5 1.464e+04 1.485e-09
  4.53961     -3.7 1.373e+04 9.163e-10
  4.55929     -3.1 1.217e+04 6.485e-10
  4.57897     -2.0 1.106e+04 5.639e-10
  4.59865      0.2 1.072e+04 5.779e-10
  4.61833      2.7 1.080e+04 6.375e-10
  4.62869      5.1 1.102e+04 7.311e-10
  4.63853      5.3 1.078e+04 6.519e-10
  4.65770      7.8 1.090e+04 6.917e-10
  4.67738     10.0 1.094e+04 7.048e-10
  4.69706     12.1 1.089e+04 6.887e-10
  4.71674     14.0 1.079e+04 6.489e-10
  4.73642     15.7 1.062e+04 5.884e-10
  4.75610     17.3 1.039e+04 5.212e-10
  4.77491     18.8 1.013e+04 4.564e-10
  4.78475     19.4 9.807e+03 3.900e-10
  4.79288     20.6 9.681e+03 3.587e-10
  4.80272     20.9 9.264e+03 2.925e-10
  4.81515     22.7 9.117e+03 2.595e-10
  4.83483     23.4 9.160e+03 2.578e-10
  4.85451     25.4 9.012e+03 2.323e-10
  4.87419     26.2 9.045e+03 2.328e-10
  4.89387     28.0 9.053e+03 2.306e-10
  4.91355     29.0 9.214e+03 2.424e-10
  4.93323     30.3 9.575e+03 2.757e-10
  4.95291     31.6 1.003e+04 3.276e-10
  4.96691     32.9 1.046e+04 3.979e-10
  4.97675     33.6 9.125e+03 2.320e-10
  4.99228     34.6 9.432e+03 2.620e-10
  5.01196     35.6 9.843e+03 3.149e-10
  5.03164     36.6 1.027e+04 4.037e-10
  5.05132     37.8 1.063e+04 5.349e-10
  5.07100     39.3 1.095e+04 7.044e-10
  5.09068     40.8 1.126e+04 9.081e-10
  5.11036     42.3 1.154e+04 1.129e-09
  5.13004     43.7 1.182e+04 1.351e-09
  5.14094     45.2 1.213e+04 1.578e-09
  5.15078     44.7 1.141e+04 1.130e-09
  5.16941     46.1 1.161e+04 1.316e-09
  5.18909     47.4 1.180e+04 1.473e-09
  5.20389     48.6 1.196e+04 1.576e-09
  5.21373     49.0 1.204e+04 1.547e-09
  5.22845     50.1 1.219e+04 1.568e-09
  5.25807     51.0 1.219e+04 1.488e-09
  5.29753     52.5 1.207e+04 1.373e-09
  5.33689     54.1 1.181e+04 1.182e-09
  5.37625     56.0 1.149e+04 9.911e-10
  5.41561     57.7 1.119e+04 8.407e-10
  5.45498     59.9 1.099e+04 7.257e-10
  5.47926     60.7 1.094e+04 7.144e-10
  5.48900     60.8 1.067e+04 7.331e-10
  5.50398     61.9 1.067e+04 7.379e-10
  5.52366     62.9 1.068e+04 7.418e-10
  5.54335     64.1 1.071e+04 7.490e-10
  5.56303     65.2 1.079e+04 7.691e-10
  5.58271     66.2 1.092e+04 8.021e-10
  5.60239     67.1 1.108e+04 8.513e-10
  5.62207     68.0 1.136e+04 9.603e-10
  5.63286     68.6 1.179e+04 1.178e-09
  5.64270     69.1 1.155e+04 9.927e-10
  5.65319     69.4 1.204e+04 1.284e-09
  5.66303     69.8 1.193e+04 1.166e-09
  5.68111     69.9 1.239e+04 1.529e-09
  5.70079     70.1 1.290e+04 2.096e-09
  5.72048     70.5 1.348e+04 2.880e-09
  5.74016     71.1 1.398e+04 3.528e-09
  5.75984     71.2 1.407e+04 3.569e-09
  5.77952     71.5 1.396e+04 3.373e-09
  5.79920     71.8 1.361e+04 2.788e-09
  5.81738     71.9 1.309e+04 2.042e-09
  5.82722     71.6 1.315e+04 2.121e-09
  5.84850     70.7 1.223e+04 1.156e-09
  5.88796     70.2 1.087e+04 4.765e-10
  5.92732     69.9 9.698e+03 1.874e-10
  5.96668     69.9 9.052e+03 1.054e-10
  6.00605     70.8 8.788e+03 9.590e-11
  6.04235     72.7 8.703e+03 9.497e-11
  6.06204     73.2 8.642e+03 8.815e-11
  6.08477     75.3 8.582e+03 8.518e-11
  6.12413     77.3 8.543e+03 8.170e-11
  6.15580     79.3 8.503e+03 7.775e-11
  6.17548     79.1 8.471e+03 7.400e-11
  6.20286     81.1 8.433e+03 7.130e-11
  6.24222     83.2 8.399e+03 6.815e-11
  6.28158     85.2 8.372e+03 6.461e-11
  6.32094     87.2 8.334e+03 6.128e-11
  6.36031     89.1 8.292e+03 5.931e-11
  6.39967     91.0 8.293e+03 5.952e-11
  6.43903     92.9 8.313e+03 6.094e-11
  6.47839     94.9 8.360e+03 6.563e-11
  6.50386     96.8 8.458e+03 7.596e-11
  6.52354     96.0 8.876e+03 1.150e-10
  6.55712     98.1 9.030e+03 1.521e-10
  6.59648    100.1 9.223e+03 2.022e-10
  6.63584    102.4 9.609e+03 2.785e-10
  6.67520    104.0 9.866e+03 3.477e-10
  6.70463    105.0 1.002e+04 3.980e-10
  6.72421    105.9 1.023e+04 4.624e-10
  6.74389    106.7 1.047e+04 5.480e-10
  6.76357    107.5 1.074e+04 6.557e-10
  6.78325    108.4 1.104e+04 7.904e-10
  6.80294    109.4 1.131e+04 9.475e-10
  6.82262    110.3 1.160e+04 1.131e-09
  6.84188    111.4 1.184e+04 1.354e-09
  6.85172    110.8 1.152e+04 1.220e-09
  6.86198    112.1 1.167e+04 1.302e-09
  6.88166    113.5 1.171e+04 1.281e-09
  6.90011    114.8 1.174e+04 1.201e-09
  6.90995    115.3 1.149e+04 1.050e-09
  6.92102    116.5 1.153e+04 9.678e-10
  6.94070    117.5 1.150e+04 8.173e-10
  6.96038    118.4 1.132e+04 6.415e-10
  6.98007    119.0 1.098e+04 4.839e-10
  6.99975    119.4 1.047e+04 3.660e-10
  7.01591    119.7 9.956e+03 2.926e-10
  7.02575    118.2 9.480e+03 2.458e-10
  7.03911    118.9 9.314e+03 2.285e-10
  7.06873    121.1 9.196e+03 2.117e-10
  7.10819    123.1 8.952e+03 1.837e-10
  7.14755    125.1 8.796e+03 1.640e-10
  7.18030    127.0 8.683e+03 1.520e-10
  7.19998    125.3 9.629e+03 2.944e-10
  7.22627    127.2 9.685e+03 3.044e-10
  7.26564    128.9 9.928e+03 3.348e-10
  7.30500    131.1 1.020e+04 3.801e-10
  7.32919    132.4 1.001e+04 3.536e-10
  7.33893    132.4 1.003e+04 3.568e-10
  7.35401    133.5 1.007e+04 3.636e-10
  7.36398    134.3 1.021e+04 3.968e-10
  7.37382    132.8 1.087e+04 6.225e-10
  7.39337    133.4 1.112e+04 7.547e-10
  7.41305    134.1 1.142e+04 9.155e-10
  7.43273    134.7 1.180e+04 1.116e-09
  7.45241    135.3 1.225e+04 1.369e-09
  7.47209    135.9 1.274e+04 1.679e-09
  7.49177    136.4 1.319e+04 2.014e-09
  7.51145    136.8 1.363e+04 2.268e-09
  7.52817    137.1 1.393e+04 2.355e-09
  7.53801    134.7 1.408e+04 2.299e-09
  7.55082    134.5 1.416e+04 2.203e-09
  7.57050    134.1 1.413e+04 1.976e-09
  7.59018    133.5 1.393e+04 1.716e-09
  7.60986    132.7 1.343e+04 1.546e-09
  7.62954    132.0 1.302e+04 1.386e-09
  7.64922    131.6 1.295e+04 1.420e-09
  7.66890    131.3 1.304e+04 1.562e-09
  7.68858    130.9 1.356e+04 1.898e-09
  7.70220    130.2 1.449e+04 2.616e-09
  7.71204    127.7 1.480e+04 3.119e-09
  7.72795    126.4 1.598e+04 4.656e-09
  7.74763    124.6 1.766e+04 7.961e-09
  7.75807    122.7 1.954e+04 1.434e-08
  7.76791    123.7 1.918e+04 1.306e-08
  7.78699    121.3 2.116e+04 2.218e-08
  7.80170    117.8 2.238e+04 2.479e-08
  7.81149    115.7 2.235e+04 2.452e-08
  7.82630    113.7 2.246e+04 2.330e-08
  7.84603    109.4 2.224e+04 1.562e-08
  7.86571    104.2 2.098e+04 7.586e-09
  7.87623     97.5 1.810e+04 3.495e-09
  7.88607     95.3 1.738e+04 3.778e-09
  7.90508     90.3 1.507e+04 2.377e-09
  7.92476     87.2 1.414e+04 1.908e-09
  7.94444     85.7 1.385e+04 1.732e-09
  7.96412     84.8 1.367e+04 1.560e-09
  7.98380     84.1 1.336e+04 1.321e-09
  8.00348     83.1 1.292e+04 1.048e-09
  8.02316     82.0 1.243e+04 7.870e-10
  8.04042     80.5 1.190e+04 5.947e-10
  8.05026     80.9 1.190e+04 6.086e-10
  8.06252     79.6 1.159e+04 5.457e-10
  8.08221     78.2 1.165e+04 5.607e-10
  8.10189     76.2 1.205e+04 6.505e-10
  8.12157     73.8 1.325e+04 9.232e-10
  8.14125     71.4 1.513e+04 1.570e-09
  8.16093     69.9 1.680e+04 2.786e-09
  8.17721     69.4 1.799e+04 4.491e-09
  8.18705     71.4 1.693e+04 2.968e-09
  8.19532     70.7 1.803e+04 4.409e-09
  8.20512     70.5 1.873e+04 5.557e-09
  8.21435     70.1 1.952e+04 6.779e-09
  8.21927     70.6 1.978e+04 8.088e-09
  8.22480     70.2 2.043e+04 9.548e-09
  8.23464     69.7 2.104e+04 1.122e-08
  8.24448     69.2 2.149e+04 1.295e-08
  8.25432     68.7 2.179e+04 1.473e-08
  8.26416     67.8 2.198e+04 1.700e-08
  8.27400     66.1 2.335e+04 2.235e-08
  8.28384     62.3 2.588e+04 4.002e-08
  8.29368     56.7 2.634e+04 1.080e-07
  8.30104     56.0 2.603e+04 1.399e-07
  8.30378     54.5 2.588e+04 1.929e-07
  8.30624     54.9 2.604e+04 1.799e-07
  8.31085     52.0 2.586e+04 2.812e-07
  8.31577     47.5 2.473e+04 5.400e-07
  8.32069     42.0 2.231e+04 1.314e-06
  8.32561     36.6 2.006e+04 3.205e-06
  8.33053     32.1 1.895e+04 5.432e-06
  8.33545     28.3 1.883e+04 5.401e-06
  8.34037     27.1 1.900e+04 4.001e-06
  8.34482     27.1 1.954e+04 2.581e-06
  8.34728     27.8 1.950e+04 2.613e-06
  8.35270     27.3 2.066e+04 1.170e-06
  8.36256     26.4 2.476e+04 2.727e-07
  8.37240     22.1 3.991e+04 2.084e-08
  8.38224     12.9 4.861e+04 2.788e-09
  8.38843     -6.1 2.294e+04 2.792e-09
  8.39286      4.8 3.334e+04 3.108e-09
  8.39652      7.2 3.835e+04 4.530e-09
  8.40193     -1.5 2.417e+04 3.174e-09
  8.41674     -6.6 2.039e+04 2.970e-09
  8.43647    -13.1 1.601e+04 2.081e-09
  8.45615    -17.7 1.361e+04 1.816e-09
  8.47583    -20.6 1.323e+04 1.667e-09
  8.49551    -22.0 1.314e+04 1.557e-09
  8.51519    -23.8 1.273e+04 1.301e-09
  8.53487    -25.3 1.263e+04 1.156e-09
  8.55267    -28.1 1.195e+04 9.426e-10
  8.56251    -26.1 1.192e+04 9.045e-10
  8.57423    -28.3 1.166e+04 8.257e-10
  8.59391    -30.6 1.156e+04 7.940e-10
  8.60618    -33.3 1.214e+04 9.037e-10
  8.61602    -34.9 1.244e+04 1.010e-09
  8.63328    -38.6 1.321e+04 1.291e-09
  8.65296    -42.0 1.365e+04 1.697e-09
  8.67264    -44.1 1.375e+04 2.126e-09
  8.69232    -44.9 1.380e+04 2.458e-09
  8.71200    -45.6 1.394e+04 2.628e-09
  8.72670    -47.0 1.463e+04 2.892e-09
  8.73654    -46.2 1.433e+04 2.812e-09
  8.75136    -47.9 1.510e+04 3.119e-09
  8.77104    -50.8 1.592e+04 3.561e-09
  8.79073    -53.7 1.662e+04 4.216e-09
  8.81041    -55.6 1.740e+04 5.080e-09
  8.83009    -56.4 1.814e+04 5.843e-09
  8.84977    -56.9 1.848e+04 6.142e-09
  8.86945    -57.4 1.816e+04 5.747e-09
  8.88913    -57.8 1.764e+04 5.169e-09
  8.90073    -57.9 1.712e+04 4.836e-09
  8.91057    -55.8 1.764e+04 4.952e-09
  8.92849    -55.7 1.753e+04 4.937e-09
  8.94817    -55.1 1.731e+04 4.790e-09
  8.96785    -54.2 1.718e+04 4.577e-09
  8.98754    -53.2 1.675e+04 4.310e-09
  9.00722    -52.0 1.600e+04 3.756e-09
  9.02532    -50.9 1.523e+04 3.238e-09
  9.03516    -51.3 1.626e+04 4.126e-09
  9.04658    -50.3 1.621e+04 3.973e-09
  9.06492    -49.6 1.644e+04 3.928e-09
  9.07476    -48.0 1.593e+04 3.539e-09
  9.08594    -47.2 1.586e+04 3.353e-09
  9.10562    -46.3 1.619e+04 3.260e-09
  9.12530    -45.7 1.661e+04 3.308e-09
  9.14498    -45.3 1.703e+04 3.513e-09
  9.16467    -44.9 1.706e+04 3.959e-09
  9.18435    -44.6 1.664e+04 4.615e-09
  9.20403    -43.8 1.605e+04 5.295e-09
  9.21874    -42.4 1.577e+04 5.589e-09
  9.22853    -42.0 1.567e+04 5.662e-09
  9.23837    -40.7 1.554e+04 5.863e-09
  9.24377    -40.1 1.539e+04 5.858e-09
  9.24874    -40.6 1.612e+04 6.193e-09
  9.26307    -38.7 1.576e+04 6.588e-09
  9.27778    -37.3 1.526e+04 6.254e-09
  9.28757    -36.2 1.525e+04 6.211e-09
