# Columns:
#   distance along LOS (in CHIMPs)
#   peculiar velocity  (in km/s)
#   temperature (K)
#   HI number density
# pos=(108.478,120.749,112.639), angles=(1.67336,4.82963)
  0.00987     -5.3 1.463e+04 5.461e-09
  0.02062     -4.2 1.480e+04 5.762e-09
  0.02534     -4.6 1.426e+04 3.930e-09
  0.03433     -4.4 1.459e+04 4.117e-09
  0.04939     -4.4 1.421e+04 3.412e-09
  0.06916     -5.6 1.341e+04 2.430e-09
  0.08893     -6.3 1.268e+04 1.732e-09
  0.10870     -7.3 1.200e+04 1.176e-09
  0.13845     -8.2 1.145e+04 8.822e-10
  0.17809     -8.2 1.072e+04 5.017e-10
  0.20517     -7.8 1.033e+04 3.856e-10
  0.22494     -7.4 1.030e+04 3.860e-10
  0.25717     -6.5 1.015e+04 3.087e-10
  0.29671     -5.8 1.016e+04 2.687e-10
  0.33625     -5.4 1.033e+04 2.665e-10
  0.36054     -5.5 1.037e+04 3.388e-10
  0.38031     -4.8 1.013e+04 2.845e-10
  0.41533     -3.9 1.015e+04 3.365e-10
  0.45487     -2.7 1.013e+04 3.541e-10
  0.49441     -1.5 1.007e+04 3.003e-10
  0.53395     -0.8 1.012e+04 2.179e-10
  0.57349     -1.0 1.006e+04 1.663e-10
  0.59364     -0.9 9.878e+03 1.521e-10
  0.61341     -1.6 9.853e+03 1.252e-10
  0.65257     -1.1 9.564e+03 1.268e-10
  0.68655      0.1 9.293e+03 1.203e-10
  0.70632      0.3 9.325e+03 1.294e-10
  0.73165      1.3 9.486e+03 9.095e-11
  0.77119      1.2 9.348e+03 7.497e-11
  0.81074      1.8 9.058e+03 7.253e-11
  0.85028      2.7 9.095e+03 6.814e-11
  0.88982      3.6 9.104e+03 6.848e-11
  0.92936      4.0 9.065e+03 7.671e-11
  0.96235      4.7 8.975e+03 9.992e-11
  0.98212      4.0 9.095e+03 9.914e-11
  1.00844      4.8 9.211e+03 1.491e-10
  1.03233      5.3 9.687e+03 2.337e-10
  1.05210      4.9 9.604e+03 1.854e-10
  1.08752      4.2 1.038e+04 3.309e-10
  1.11707      3.7 1.063e+04 5.514e-10
  1.13675      4.0 1.091e+04 6.699e-10
  1.16650      3.7 1.093e+04 7.763e-10
  1.20614      4.7 1.041e+04 5.259e-10
  1.24568      4.1 1.029e+04 2.158e-10
  1.28522      0.9 9.860e+03 1.037e-10
  1.32476     -0.1 9.249e+03 1.047e-10
  1.35082     -0.8 9.482e+03 1.281e-10
  1.36463     -3.7 9.943e+03 1.627e-10
  1.37811     -2.0 9.855e+03 1.752e-10
  1.40384     -3.0 9.998e+03 3.069e-10
  1.44338     -2.1 9.907e+03 4.959e-10
  1.48292     -1.8 1.006e+04 5.050e-10
  1.52246     -2.5 1.015e+04 4.150e-10
  1.56200     -3.5 9.772e+03 4.193e-10
  1.60154     -3.2 9.497e+03 4.570e-10
  1.64108     -1.8 9.247e+03 3.972e-10
  1.68062     -1.2 9.359e+03 2.683e-10
  1.70412     -1.9 9.137e+03 2.271e-10
  1.72325     -1.0 9.142e+03 1.925e-10
  1.73929     -2.8 8.755e+03 1.985e-10
  1.75970     -2.2 8.572e+03 1.983e-10
  1.79924     -0.9 8.425e+03 2.199e-10
  1.83878      0.7 8.382e+03 2.164e-10
  1.87832      2.4 8.253e+03 1.830e-10
  1.91786      4.0 8.077e+03 1.373e-10
  1.95740      4.9 7.927e+03 1.013e-10
  1.99694      6.2 7.949e+03 9.956e-11
  2.03013      5.6 8.284e+03 1.293e-10
  2.04990      6.1 8.251e+03 1.261e-10
  2.07602      6.0 8.657e+03 2.313e-10
  2.10799      6.6 9.189e+03 4.166e-10
  2.12776      6.2 9.230e+03 3.687e-10
  2.15511      6.0 9.496e+03 4.489e-10
  2.19465      5.4 9.291e+03 4.367e-10
  2.23419      5.6 8.933e+03 3.476e-10
  2.27373      4.8 8.949e+03 2.413e-10
  2.31327      2.9 9.323e+03 2.479e-10
  2.35281      0.7 9.474e+03 3.227e-10
  2.37592      0.8 9.491e+03 4.982e-10
  2.39569      1.8 9.547e+03 4.577e-10
  2.43189      2.3 9.694e+03 5.145e-10
  2.47143      2.3 9.843e+03 4.851e-10
  2.49647      1.5 1.024e+04 5.122e-10
  2.51624      0.3 1.131e+04 1.030e-09
  2.55051     -1.0 1.228e+04 1.450e-09
  2.58007     -1.8 1.225e+04 1.452e-09
  2.59974     -2.8 1.236e+04 1.547e-09
  2.61951     -3.2 1.243e+04 1.679e-09
  2.63928     -4.4 1.247e+04 1.748e-09
  2.65905     -5.2 1.240e+04 1.782e-09
  2.67882     -6.2 1.246e+04 1.886e-09
  2.69051     -7.6 1.268e+04 1.969e-09
  2.70039     -8.2 1.302e+04 2.333e-09
  2.71162    -10.0 1.311e+04 2.368e-09
  2.72150     -9.5 1.321e+04 2.272e-09
  2.73813    -11.9 1.317e+04 2.386e-09
  2.75790    -13.4 1.272e+04 2.293e-09
  2.77767    -14.0 1.224e+04 1.937e-09
  2.79744    -14.8 1.159e+04 1.326e-09
  2.81721    -17.1 1.078e+04 7.835e-10
  2.83698    -20.0 1.032e+04 5.003e-10
  2.85675    -23.1 9.713e+03 3.744e-10
  2.87462    -24.9 9.443e+03 3.425e-10
  2.88284    -24.9 9.335e+03 3.178e-10
  2.88474    -24.9 9.247e+03 3.024e-10
  2.90627    -26.1 9.109e+03 3.036e-10
  2.94591    -27.4 9.057e+03 3.128e-10
  2.98545    -28.8 8.985e+03 2.755e-10
  3.02499    -31.2 8.769e+03 1.941e-10
  3.04771    -34.2 8.677e+03 1.737e-10
  3.06748    -32.9 8.746e+03 1.802e-10
  3.10407    -35.9 8.788e+03 1.895e-10
  3.14361    -38.0 8.837e+03 2.538e-10
  3.18315    -40.0 9.227e+03 3.360e-10
  3.22269    -44.8 1.074e+04 5.194e-10
  3.25364    -51.8 1.253e+04 1.168e-09
  3.27331    -55.1 1.359e+04 2.461e-09
  3.29169    -56.5 1.379e+04 3.606e-09
  3.31146    -57.0 1.385e+04 3.862e-09
  3.33123    -57.5 1.376e+04 2.952e-09
  3.35100    -59.5 1.323e+04 1.190e-09
  3.37077    -65.8 1.162e+04 3.828e-10
  3.38341    -70.4 1.002e+04 2.252e-10
  3.39330    -70.6 1.007e+04 2.539e-10
  3.41031    -72.1 9.682e+03 2.281e-10
  3.43008    -72.4 9.677e+03 2.292e-10
  3.45984    -73.0 9.723e+03 2.347e-10
  3.49948    -73.7 9.757e+03 2.454e-10
  3.53902    -74.0 9.796e+03 2.651e-10
  3.57856    -74.2 9.741e+03 2.867e-10
  3.61810    -73.8 9.631e+03 2.935e-10
  3.64211    -73.2 9.411e+03 2.617e-10
  3.66188    -73.9 9.545e+03 3.089e-10
  3.69718    -72.7 9.134e+03 2.514e-10
  3.71950    -71.2 8.754e+03 1.641e-10
  3.73927    -71.4 8.823e+03 1.751e-10
  3.77626    -70.2 8.547e+03 1.184e-10
  3.81580    -69.2 8.480e+03 9.714e-11
  3.85534    -68.2 8.471e+03 9.393e-11
  3.89488    -67.2 8.513e+03 1.034e-10
  3.93442    -66.3 8.602e+03 1.422e-10
  3.97396    -64.9 8.695e+03 1.831e-10
  4.01081    -63.5 8.767e+03 2.008e-10
  4.03058    -63.7 8.724e+03 1.868e-10
  4.04551    -62.4 8.846e+03 2.065e-10
  4.06528    -62.6 8.961e+03 2.477e-10
  4.09258    -61.5 9.046e+03 2.646e-10
  4.13212    -60.6 9.122e+03 2.814e-10
  4.17166    -59.7 9.194e+03 3.106e-10
  4.21120    -58.7 9.266e+03 3.496e-10
  4.25074    -57.6 9.349e+03 3.930e-10
  4.29028    -56.5 9.446e+03 4.339e-10
  4.32982    -55.4 9.517e+03 4.616e-10
  4.36936    -54.3 9.551e+03 4.746e-10
  4.39130    -53.3 9.579e+03 4.865e-10
  4.40145    -53.4 1.009e+04 7.343e-10
  4.41906    -53.6 9.816e+03 6.436e-10
  4.44844    -52.6 9.966e+03 7.100e-10
  4.48798    -51.5 1.015e+04 7.675e-10
  4.52752    -50.4 1.020e+04 7.804e-10
  4.56706    -49.2 1.018e+04 7.495e-10
  4.60660    -47.9 1.002e+04 6.969e-10
  4.64614    -46.6 9.900e+03 6.543e-10
  4.68568    -45.1 9.765e+03 6.091e-10
  4.71731    -43.5 9.607e+03 5.471e-10
  4.73708    -43.7 9.420e+03 4.396e-10
  4.76477    -42.2 9.258e+03 3.819e-10
  4.78776    -40.8 9.162e+03 3.445e-10
  4.80753    -39.9 8.783e+03 2.496e-10
  4.84385    -38.6 8.788e+03 2.326e-10
  4.88339    -37.6 8.804e+03 2.302e-10
  4.92293    -36.8 8.963e+03 2.630e-10
  4.96247    -35.9 9.247e+03 3.428e-10
  5.00201    -35.1 9.714e+03 4.596e-10
  5.04155    -34.6 1.031e+04 6.227e-10
  5.06309    -34.5 1.087e+04 8.267e-10
  5.08286    -35.7 1.122e+04 1.118e-09
  5.12063    -35.1 1.158e+04 1.469e-09
  5.15646    -34.1 1.179e+04 1.628e-09
  5.17623    -34.6 1.236e+04 2.013e-09
  5.19971    -34.3 1.212e+04 1.729e-09
  5.23925    -33.9 1.199e+04 1.547e-09
  5.27879    -33.2 1.194e+04 1.397e-09
  5.30835    -32.5 1.188e+04 1.376e-09
  5.32802    -31.9 1.198e+04 1.392e-09
  5.34779    -31.2 1.207e+04 1.383e-09
  5.36039    -30.8 1.215e+04 1.327e-09
  5.37027    -31.5 1.174e+04 8.620e-10
  5.38733    -31.6 1.195e+04 9.080e-10
  5.39879    -32.1 1.220e+04 1.072e-09
  5.40867    -31.9 1.155e+04 8.492e-10
  5.42687    -32.4 1.196e+04 1.153e-09
  5.44664    -32.6 1.216e+04 1.592e-09
  5.46641    -32.5 1.241e+04 2.158e-09
  5.48618    -31.8 1.266e+04 2.739e-09
  5.50595    -30.9 1.289e+04 3.137e-09
  5.52572    -30.3 1.295e+04 3.225e-09
  5.54474    -29.7 1.280e+04 3.102e-09
  5.55462    -28.9 1.351e+04 3.824e-09
  5.56179    -28.6 1.309e+04 3.186e-09
  5.57168    -28.6 1.257e+04 2.047e-09
  5.58503    -28.6 1.228e+04 1.823e-09
  5.60480    -28.5 1.208e+04 1.708e-09
  5.62457    -28.2 1.204e+04 1.683e-09
  5.64434    -27.9 1.207e+04 1.712e-09
  5.66411    -27.6 1.235e+04 1.924e-09
  5.68388    -27.6 1.273e+04 2.299e-09
  5.70365    -27.9 1.330e+04 2.910e-09
  5.72342    -28.8 1.445e+04 4.216e-09
  5.73469    -30.5 1.596e+04 6.796e-09
  5.74035    -30.8 1.669e+04 4.349e-09
  5.74886    -31.0 1.769e+04 7.038e-09
  5.76296    -32.6 1.953e+04 1.087e-08
  5.78273    -33.8 2.093e+04 1.437e-08
  5.80250    -34.7 2.134e+04 1.523e-08
  5.82227    -35.3 2.064e+04 1.210e-08
  5.84204    -35.8 1.935e+04 7.091e-09
  5.86181    -37.0 1.753e+04 3.470e-09
  5.88158    -39.5 1.485e+04 1.643e-09
  5.89769    -41.5 1.248e+04 9.532e-10
  5.90758    -42.1 1.081e+04 7.780e-10
  5.92112    -42.3 1.037e+04 6.129e-10
  5.93321    -41.6 1.020e+04 5.232e-10
  5.94310    -42.0 1.026e+04 4.955e-10
  5.96066    -40.8 1.059e+04 4.704e-10
  5.98043    -39.9 1.200e+04 4.795e-10
  6.00020    -39.2 1.413e+04 5.064e-10
  6.01997    -38.8 1.675e+04 5.565e-10
  6.03974    -38.6 1.880e+04 6.558e-10
  6.05951    -38.3 1.948e+04 7.952e-10
  6.07058    -37.7 1.921e+04 9.592e-10
  6.08056    -38.0 1.298e+04 3.635e-10
  6.09915    -36.3 1.346e+04 5.415e-10
  6.11756    -35.9 1.324e+04 6.295e-10
  6.12745    -36.2 1.414e+04 8.058e-10
  6.13860    -36.2 1.409e+04 9.581e-10
  6.15837    -35.7 1.448e+04 1.162e-09
  6.17814    -35.4 1.573e+04 1.488e-09
  6.19791    -35.2 1.782e+04 2.028e-09
  6.21768    -35.0 2.002e+04 2.793e-09
  6.23359    -34.5 2.165e+04 3.717e-09
  6.24347    -33.4 1.522e+04 3.188e-09
  6.25722    -32.5 1.623e+04 3.824e-09
  6.27699    -31.5 1.672e+04 4.134e-09
  6.29676    -30.7 1.674e+04 4.182e-09
  6.31180    -29.9 1.632e+04 3.853e-09
  6.32168    -29.4 1.860e+04 5.506e-09
  6.33630    -28.5 1.791e+04 4.783e-09
  6.35607    -27.9 1.714e+04 3.921e-09
  6.37584    -27.1 1.631e+04 2.962e-09
  6.39561    -26.0 1.509e+04 2.098e-09
  6.40648    -24.9 1.360e+04 1.401e-09
  6.41636    -23.7 1.471e+04 2.231e-09
  6.43515    -22.8 1.460e+04 1.594e-09
  6.45492    -22.0 1.382e+04 1.101e-09
  6.47469    -21.2 1.288e+04 7.700e-10
  6.49446    -19.7 1.281e+04 6.264e-10
  6.50604    -19.2 1.220e+04 5.041e-10
  6.51592    -18.4 1.237e+04 6.284e-10
  6.54398    -16.2 1.295e+04 5.042e-10
  6.58362    -14.1 1.176e+04 3.665e-10
  6.62316    -12.2 1.084e+04 3.655e-10
  6.66270    -10.2 1.057e+04 5.068e-10
  6.69058     -7.8 1.081e+04 6.783e-10
  6.70037     -6.6 1.132e+04 8.090e-10
  6.71193     -5.4 1.141e+04 9.403e-10
  6.73170     -5.3 1.205e+04 1.112e-09
  6.74238     -5.9 1.452e+04 1.303e-09
  6.75226    -10.8 2.243e+04 3.932e-09
  6.77124     -9.9 2.302e+04 5.021e-09
  6.79101     -9.3 2.226e+04 4.721e-09
  6.81078     -9.8 2.036e+04 3.604e-09
  6.83055    -12.4 1.843e+04 2.931e-09
  6.85032    -15.3 1.722e+04 2.814e-09
  6.87009    -17.2 1.605e+04 3.323e-09
  6.88462    -17.8 1.534e+04 4.310e-09
  6.89451    -17.6 1.649e+04 6.985e-09
  6.90538    -16.5 1.593e+04 7.699e-09
  6.91527    -14.9 1.561e+04 6.929e-09
  6.92940    -13.6 1.577e+04 7.428e-09
  6.94917    -12.3 1.599e+04 7.689e-09
  6.96894    -11.5 1.597e+04 7.745e-09
  6.98871    -11.2 1.592e+04 6.887e-09
  7.00848    -11.2 1.584e+04 6.600e-09
  7.02825    -11.3 1.570e+04 6.526e-09
  7.04802    -10.9 1.566e+04 6.196e-09
  7.06779    -10.1 1.564e+04 5.692e-09
  7.07827     -9.4 1.540e+04 4.830e-09
  7.07945     -9.4 1.589e+04 7.367e-09
  7.08874    -10.6 1.672e+04 7.656e-09
  7.10733    -10.3 1.625e+04 6.751e-09
  7.12710    -10.3 1.567e+04 5.420e-09
  7.14687    -10.6 1.495e+04 4.286e-09
  7.16664    -11.0 1.406e+04 3.486e-09
  7.18641    -11.0 1.341e+04 3.061e-09
  7.20618    -10.0 1.303e+04 2.766e-09
  7.22595     -8.6 1.272e+04 2.496e-09
  7.24128     -7.4 1.252e+04 2.181e-09
  7.25116     -8.7 1.282e+04 1.918e-09
  7.26321     -7.8 1.248e+04 1.636e-09
  7.27309     -7.6 1.283e+04 2.065e-09
  7.28526     -7.4 1.256e+04 1.791e-09
  7.30503     -6.7 1.223e+04 1.513e-09
  7.33479     -4.9 1.163e+04 1.098e-09
  7.37442     -3.5 1.154e+04 9.289e-10
  7.40448     -1.4 1.152e+04 8.476e-10
  7.42425     -3.5 1.151e+04 1.654e-09
  7.44352     -1.6 1.135e+04 1.384e-09
  7.45745     -0.4 1.122e+04 1.526e-09
  7.46733     -0.4 1.163e+04 1.663e-09
  7.48297     -0.1 1.209e+04 2.002e-09
  7.50274     -0.1 1.254e+04 2.349e-09
  7.52251      0.3 1.288e+04 3.115e-09
  7.54228      1.0 1.330e+04 4.358e-09
  7.56205      1.4 1.437e+04 6.514e-09
  7.57717      0.9 1.595e+04 1.008e-08
  7.58706     -0.9 1.641e+04 1.127e-08
  7.60159     -0.3 1.721e+04 1.530e-08
  7.62136     -0.0 1.703e+04 1.591e-08
  7.64113      0.9 1.699e+04 1.306e-08
  7.65168      0.8 1.699e+04 8.390e-09
  7.66157      1.8 1.715e+04 8.757e-09
  7.68067      0.1 1.664e+04 5.299e-09
  7.70044     -3.1 1.475e+04 2.900e-09
  7.72021     -5.9 1.291e+04 1.789e-09
  7.73998     -7.2 1.193e+04 1.338e-09
  7.75006     -7.7 1.142e+04 1.092e-09
  7.75995     -9.9 1.094e+04 7.905e-10
  7.77952    -10.6 1.073e+04 6.623e-10
  7.79929    -12.1 1.059e+04 5.545e-10
  7.81906    -14.1 1.047e+04 4.860e-10
  7.83603    -16.5 1.017e+04 4.257e-10
  7.84592    -17.0 1.040e+04 4.863e-10
  7.85860    -19.1 1.019e+04 4.452e-10
  7.87837    -21.5 1.004e+04 4.214e-10
  7.89814    -24.1 1.019e+04 4.383e-10
  7.91307    -27.8 1.037e+04 4.750e-10
  7.92296    -29.2 1.024e+04 4.436e-10
  7.93768    -32.2 1.048e+04 5.586e-10
  7.95745    -34.6 1.048e+04 6.804e-10
  7.97722    -36.6 1.070e+04 8.569e-10
  7.99699    -40.3 1.208e+04 1.211e-09
  8.01676    -47.0 1.558e+04 2.147e-09
  8.03027    -54.6 1.852e+04 4.601e-09
  8.04015    -61.5 1.935e+04 7.987e-09
  8.05630    -67.1 2.054e+04 1.337e-08
  8.07607    -71.8 2.158e+04 1.787e-08
  8.09584    -78.1 2.169e+04 1.496e-08
  8.11561    -83.5 2.126e+04 1.262e-08
  8.13538    -88.5 1.953e+04 1.038e-08
  8.15515    -92.6 1.796e+04 9.336e-09
  8.17492    -95.4 1.769e+04 9.045e-09
  8.19469    -97.5 1.816e+04 9.608e-09
  8.21446   -100.9 1.878e+04 9.972e-09
  8.22451   -104.8 2.004e+04 9.839e-09
  8.23439   -112.5 2.314e+04 9.766e-09
  8.24897   -116.7 2.359e+04 1.057e-08
  8.25880   -115.2 2.157e+04 6.500e-09
  8.27372   -118.4 2.082e+04 7.252e-09
  8.28855   -120.6 2.010e+04 8.139e-09
  8.29839   -121.4 1.955e+04 8.520e-09
  8.30827   -122.2 1.885e+04 9.371e-09
  8.31658   -122.5 1.869e+04 1.034e-08
  8.32153   -123.3 1.856e+04 1.171e-08
  8.32804   -123.3 1.851e+04 1.239e-08
  8.33531   -123.2 1.870e+04 1.341e-08
  8.34026   -122.4 1.798e+04 1.017e-08
  8.34781   -122.4 1.810e+04 1.130e-08
  8.35770   -122.3 1.832e+04 1.279e-08
  8.37257   -122.0 1.857e+04 1.525e-08
  8.39239   -121.2 1.844e+04 1.583e-08
  8.40886   -120.4 1.806e+04 1.466e-08
  8.41850   -120.5 1.667e+04 8.152e-09
  8.42181   -120.4 1.647e+04 7.815e-09
  8.43193   -119.7 1.592e+04 6.388e-09
  8.45170   -119.0 1.529e+04 5.109e-09
  8.47147   -118.1 1.467e+04 4.035e-09
  8.49124   -117.2 1.396e+04 3.000e-09
  8.51101   -116.4 1.318e+04 2.122e-09
  8.53078   -115.8 1.238e+04 1.472e-09
  8.55055   -115.2 1.155e+04 1.021e-09
  8.57032   -114.7 1.076e+04 7.363e-10
  8.58486   -114.1 1.014e+04 5.732e-10
  8.59475   -113.2 1.118e+04 8.627e-10
  8.60309   -112.7 1.053e+04 6.908e-10
  8.61298   -112.7 9.729e+03 4.853e-10
  8.62963   -111.9 9.615e+03 4.569e-10
  8.64940   -110.8 9.582e+03 4.499e-10
  8.66917   -109.7 9.575e+03 4.489e-10
  8.68894   -108.8 9.625e+03 4.670e-10
  8.70871   -108.0 9.740e+03 5.212e-10
  8.72848   -107.3 9.886e+03 6.020e-10
  8.74787   -106.5 1.008e+04 7.099e-10
  8.75775   -105.7 1.037e+04 8.350e-10
  8.76803   -104.9 1.061e+04 9.847e-10
  8.78744   -104.1 1.084e+04 1.149e-09
  8.79733   -104.0 1.051e+04 9.351e-10
  8.80757   -103.1 1.073e+04 1.094e-09
  8.82734   -102.2 1.087e+04 1.213e-09
  8.84711   -101.4 1.091e+04 1.251e-09
  8.86688   -100.5 1.085e+04 1.244e-09
  8.88665    -99.5 1.062e+04 1.106e-09
  8.90642    -98.6 1.032e+04 9.094e-10
  8.92076    -97.7 9.999e+03 7.159e-10
  8.93064    -97.1 1.021e+04 8.476e-10
  8.94596    -96.3 9.879e+03 6.517e-10
  8.96573    -95.9 9.557e+03 4.935e-10
  8.98178    -95.9 9.155e+03 3.649e-10
  8.99166    -95.4 9.461e+03 4.639e-10
  9.00527    -95.1 9.326e+03 4.184e-10
  9.03502    -94.6 9.392e+03 4.293e-10
  9.07408    -93.3 9.462e+03 4.610e-10
  9.09385    -92.8 9.787e+03 5.484e-10
  9.11420    -92.3 1.043e+04 7.677e-10
  9.15374    -92.3 1.155e+04 1.326e-09
  9.17601    -91.8 1.195e+04 1.663e-09
  9.18580    -92.4 1.224e+04 1.951e-09
  9.20297    -92.1 1.254e+04 2.309e-09
  9.22274    -91.8 1.268e+04 2.525e-09
  9.24251    -91.3 1.266e+04 2.523e-09
  9.25666    -90.7 1.237e+04 2.195e-09
  9.26654    -90.5 1.265e+04 2.559e-09
  9.28205    -90.1 1.212e+04 1.915e-09
  9.31180    -89.8 1.142e+04 1.341e-09
  9.35058    -88.6 1.041e+04 8.014e-10
  9.37035    -89.5 1.072e+04 9.479e-10
  9.39098    -87.8 9.734e+03 5.664e-10
  9.41986    -86.0 9.134e+03 3.806e-10
  9.43963    -86.4 9.266e+03 4.443e-10
  9.47006    -84.4 8.935e+03 3.303e-10
  9.50960    -82.3 8.722e+03 2.647e-10
  9.54914    -80.1 8.625e+03 2.328e-10
  9.58868    -78.0 8.592e+03 2.228e-10
  9.62822    -76.0 8.604e+03 2.209e-10
  9.66776    -74.2 8.769e+03 2.372e-10
  9.70730    -72.5 9.010e+03 2.805e-10
  9.73905    -70.9 9.307e+03 3.467e-10
  9.75785    -72.2 9.427e+03 3.886e-10
  9.76564    -73.5 9.663e+03 4.483e-10
  9.78638    -72.3 9.963e+03 5.562e-10
  9.82592    -71.1 1.022e+04 6.463e-10
  9.86546    -70.1 1.032e+04 6.963e-10
  9.90500    -68.9 1.024e+04 6.819e-10
  9.94454    -67.6 1.009e+04 5.999e-10
  9.98408    -66.2 9.883e+03 5.045e-10
 10.02362    -64.7 9.620e+03 4.031e-10
 10.06317    -63.1 9.327e+03 3.038e-10
 10.09165    -61.4 9.086e+03 2.222e-10
 10.11142    -62.7 8.983e+03 1.863e-10
 10.12752    -60.8 8.847e+03 1.471e-10
 10.14729    -60.5 8.785e+03 1.328e-10
 10.18179    -58.4 8.705e+03 1.106e-10
 10.22133    -56.2 8.663e+03 9.898e-11
 10.26087    -53.9 8.644e+03 9.342e-11
 10.30041    -51.6 8.649e+03 9.084e-11
 10.33995    -49.1 8.658e+03 8.880e-11
 10.37949    -46.7 8.667e+03 8.580e-11
 10.41766    -44.2 8.660e+03 7.951e-11
 10.43743    -44.7 8.644e+03 6.682e-11
 10.45857    -42.2 8.631e+03 5.862e-11
 10.49623    -39.8 8.615e+03 5.119e-11
 10.51600    -39.6 8.621e+03 4.813e-11
 10.53765    -37.3 8.625e+03 4.201e-11
 10.57719    -35.0 8.630e+03 3.833e-11
 10.61673    -32.7 8.660e+03 3.740e-11
 10.65627    -30.6 8.767e+03 3.908e-11
 10.69581    -28.6 8.837e+03 4.432e-11
 10.73535    -26.4 8.816e+03 5.391e-11
 10.76344    -23.9 8.826e+03 6.328e-11
 10.78321    -24.4 8.894e+03 6.711e-11
 10.81443    -22.1 8.914e+03 6.635e-11
 10.85397    -19.6 8.918e+03 5.911e-11
 10.88470    -17.4 9.024e+03 4.993e-11
 10.90447    -17.6 9.024e+03 4.796e-11
 10.93305    -15.7 9.035e+03 4.414e-11
 10.97259    -13.7 9.040e+03 4.508e-11
 11.01213    -11.9 9.085e+03 4.952e-11
 11.05167     -9.9 9.125e+03 5.937e-11
 11.08945     -7.9 9.179e+03 7.344e-11
 11.10922     -8.4 9.243e+03 7.385e-11
 11.13075     -6.6 9.505e+03 9.248e-11
 11.17029     -5.0 9.694e+03 1.219e-10
 11.20983     -3.6 9.858e+03 1.628e-10
 11.24937     -2.5 1.004e+04 2.173e-10
 11.27317     -1.5 1.026e+04 2.857e-10
 11.29294     -1.6 1.033e+04 3.163e-10
 11.32845     -0.9 1.060e+04 3.742e-10
 11.36800     -0.7 1.082e+04 3.902e-10
 11.40754     -1.5 1.131e+04 4.493e-10
 11.43514     -2.6 1.160e+04 5.395e-10
 11.44493     -4.2 1.188e+04 7.716e-10
 11.45677     -4.8 1.193e+04 9.514e-10
 11.46721     -4.7 1.197e+04 1.074e-09
 11.47710     -5.0 1.199e+04 1.083e-09
 11.49631     -4.8 1.202e+04 1.044e-09
 11.51608     -4.8 1.213e+04 9.351e-10
 11.53585     -5.1 1.220e+04 7.977e-10
 11.55562     -5.7 1.217e+04 6.764e-10
 11.57539     -6.5 1.204e+04 6.143e-10
 11.59516     -6.3 1.170e+04 5.161e-10
 11.60793     -6.5 1.162e+04 5.025e-10
 11.61782     -7.1 1.160e+04 5.038e-10
 11.64177     -5.7 1.140e+04 4.428e-10
 11.66164     -5.6 1.117e+04 3.477e-10
 11.68432     -4.4 1.105e+04 2.312e-10
 11.72386     -3.5 1.104e+04 1.554e-10
 11.76125     -2.6 1.086e+04 1.257e-10
 11.78102     -4.1 1.061e+04 1.153e-10
