# Columns:
#   distance along LOS (in CHIMPs)
#   peculiar velocity  (in km/s)
#   temperature (K)
#   HI number density
# pos=(2.31178,3.31376,174.428), angles=(1.91051,3.19672)
  0.00532   -202.5 1.137e+04 3.763e-10
  0.03139   -201.8 1.177e+04 5.200e-10
  0.06811   -201.1 1.208e+04 7.055e-10
  0.08886   -199.3 1.222e+04 7.086e-10
  0.10391   -199.3 1.262e+04 9.253e-10
  0.12456   -199.4 1.281e+04 1.035e-09
  0.13872   -199.7 1.300e+04 1.153e-09
  0.14909   -199.1 1.328e+04 1.278e-09
  0.16605   -199.9 1.352e+04 1.421e-09
  0.18420   -201.8 1.377e+04 1.646e-09
  0.19458   -202.3 1.385e+04 1.657e-09
  0.19915   -204.7 1.384e+04 1.766e-09
  0.20952   -205.1 1.553e+04 3.495e-09
  0.22829   -207.1 1.551e+04 3.719e-09
  0.24904   -208.8 1.549e+04 3.765e-09
  0.25957   -210.0 1.484e+04 3.379e-09
  0.26471   -209.4 1.563e+04 4.496e-09
  0.27487   -210.0 1.540e+04 4.210e-09
  0.29048   -211.0 1.497e+04 3.618e-09
  0.30963   -212.0 1.415e+04 2.587e-09
  0.32000   -212.9 1.526e+04 3.528e-09
  0.33202   -213.8 1.455e+04 2.497e-09
  0.35277   -214.7 1.368e+04 1.616e-09
  0.37005   -215.4 1.296e+04 1.136e-09
  0.38043   -217.3 1.432e+04 2.040e-09
  0.39426   -217.8 1.377e+04 1.690e-09
  0.41501   -218.1 1.345e+04 1.582e-09
  0.43048   -218.2 1.335e+04 1.568e-09
  0.44085   -219.6 1.442e+04 2.719e-09
  0.45650   -219.2 1.412e+04 2.533e-09
  0.47725   -218.6 1.386e+04 2.360e-09
  0.49091   -218.0 1.357e+04 2.126e-09
  0.50128   -218.7 1.382e+04 2.382e-09
  0.51874   -218.0 1.330e+04 1.804e-09
  0.53949   -217.3 1.282e+04 1.375e-09
  0.55133   -216.5 1.238e+04 1.034e-09
  0.56038   -216.9 1.225e+04 9.147e-10
  0.56928   -216.6 1.234e+04 1.027e-09
  0.58098   -215.7 1.198e+04 7.647e-10
  0.60139   -214.9 1.168e+04 5.625e-10
  0.61176   -215.3 1.160e+04 4.822e-10
  0.62248   -214.5 1.140e+04 3.974e-10
  0.65154   -213.8 1.124e+04 3.535e-10
  0.67238   -214.7 1.114e+04 3.150e-10
  0.69528   -212.3 1.079e+04 2.654e-10
  0.73678   -210.0 1.048e+04 2.256e-10
  0.77249   -207.9 1.032e+04 2.000e-10
  0.79323   -207.9 1.035e+04 2.130e-10
  0.81976   -206.0 1.033e+04 2.059e-10
  0.86126   -204.1 1.031e+04 2.016e-10
  0.89334   -202.3 1.029e+04 1.986e-10
  0.91409   -202.4 1.049e+04 2.709e-10
  0.93380   -200.7 1.044e+04 2.676e-10
  0.95455   -200.4 1.048e+04 2.731e-10
  0.98574   -198.8 1.040e+04 2.672e-10
  1.01420   -197.4 1.031e+04 2.583e-10
  1.03494   -197.6 1.045e+04 3.290e-10
  1.06872   -196.1 1.036e+04 3.125e-10
  1.11022   -194.7 1.032e+04 3.072e-10
  1.13505   -193.3 1.030e+04 3.069e-10
  1.15580   -193.5 1.037e+04 3.269e-10
  1.19320   -192.2 1.029e+04 3.104e-10
  1.23470   -190.9 1.020e+04 2.899e-10
  1.25590   -189.4 1.010e+04 2.684e-10
  1.27665   -189.4 1.004e+04 2.571e-10
  1.31768   -187.8 9.984e+03 2.417e-10
  1.35601   -186.2 9.959e+03 2.382e-10
  1.37676   -186.2 9.897e+03 2.198e-10
  1.40067   -184.8 9.901e+03 2.257e-10
  1.44216   -183.9 1.014e+04 2.699e-10
  1.47686   -183.3 1.049e+04 3.590e-10
  1.49761   -183.7 1.040e+04 3.318e-10
  1.52515   -183.5 1.066e+04 4.360e-10
  1.56664   -183.5 1.088e+04 5.509e-10
  1.59772   -183.6 1.108e+04 6.567e-10
  1.61846   -183.7 1.110e+04 6.628e-10
  1.63916   -183.3 1.124e+04 7.411e-10
  1.65795   -183.7 1.130e+04 7.695e-10
  1.66832   -184.1 1.133e+04 7.931e-10
  1.68056   -185.1 1.133e+04 8.342e-10
  1.69339   -185.7 1.133e+04 8.458e-10
  1.70376   -185.3 1.134e+04 8.505e-10
  1.71837   -185.6 1.134e+04 8.658e-10
  1.72875   -186.2 1.134e+04 8.716e-10
  1.74280   -186.7 1.135e+04 8.904e-10
  1.76354   -187.2 1.133e+04 9.099e-10
  1.77880   -187.6 1.131e+04 9.268e-10
  1.78917   -187.8 1.126e+04 9.212e-10
  1.81551   -187.8 1.129e+04 9.464e-10
  1.83942   -187.5 1.132e+04 9.875e-10
  1.86017   -188.3 1.116e+04 9.133e-10
  1.89859   -188.7 1.098e+04 8.374e-10
  1.93953   -189.0 1.062e+04 6.811e-10
  1.96028   -190.0 1.003e+04 4.558e-10
  1.98158   -189.4 9.552e+03 3.291e-10
  2.02307   -188.5 9.177e+03 2.466e-10
  2.06038   -187.4 8.980e+03 2.032e-10
  2.08113   -187.8 8.705e+03 1.655e-10
  2.10606   -186.5 8.644e+03 1.485e-10
  2.14755   -185.1 8.644e+03 1.442e-10
  2.18124   -184.0 8.649e+03 1.439e-10
  2.20198   -184.2 8.507e+03 1.280e-10
  2.23054   -184.0 8.559e+03 1.301e-10
  2.27203   -184.3 8.943e+03 1.729e-10
  2.30209   -185.2 9.973e+03 3.340e-10
  2.32284   -186.0 1.010e+04 3.555e-10
  2.35502   -187.8 1.110e+04 7.297e-10
  2.39651   -189.8 1.185e+04 1.212e-09
  2.42294   -192.0 1.223e+04 1.546e-09
  2.43322   -192.3 1.246e+04 1.708e-09
  2.44279   -192.9 1.252e+04 1.757e-09
  2.45327   -193.6 1.216e+04 1.506e-09
  2.46903   -194.3 1.211e+04 1.492e-09
  2.48317   -195.2 1.212e+04 1.476e-09
  2.49355   -195.9 1.226e+04 1.570e-09
  2.51042   -197.0 1.201e+04 1.401e-09
  2.53117   -198.1 1.170e+04 1.164e-09
  2.54360   -199.3 1.133e+04 9.245e-10
  2.55398   -200.3 1.123e+04 8.356e-10
  2.57266   -201.4 1.107e+04 7.112e-10
  2.59341   -202.6 1.106e+04 6.581e-10
  2.60403   -203.6 1.107e+04 6.457e-10
  2.61440   -204.9 1.110e+04 6.693e-10
  2.63490   -205.9 1.112e+04 6.763e-10
  2.65408   -206.7 1.110e+04 6.888e-10
  2.66446   -207.8 1.107e+04 7.166e-10
  2.67640   -208.3 1.098e+04 7.071e-10
  2.69714   -208.6 1.089e+04 6.736e-10
  2.71451   -209.0 1.085e+04 6.274e-10
  2.72488   -210.1 1.097e+04 6.477e-10
  2.73864   -210.5 1.101e+04 6.371e-10
  2.75938   -211.1 1.111e+04 6.345e-10
  2.77494   -211.7 1.139e+04 6.765e-10
  2.78531   -213.5 1.191e+04 9.661e-10
  2.80088   -213.7 1.206e+04 1.152e-09
  2.81750   -213.4 1.215e+04 1.335e-09
  2.82787   -213.3 1.207e+04 1.168e-09
  2.83536   -213.0 1.206e+04 1.283e-09
  2.84574   -213.7 1.251e+04 1.856e-09
  2.86312   -213.1 1.249e+04 1.873e-09
  2.88386   -212.2 1.224e+04 1.825e-09
  2.89579   -211.0 1.187e+04 1.506e-09
  2.90616   -211.1 1.188e+04 1.474e-09
  2.92536   -209.9 1.151e+04 1.112e-09
  2.94584   -208.9 1.118e+04 7.980e-10
  2.95622   -209.4 1.112e+04 7.274e-10
  2.96685   -208.5 1.085e+04 5.263e-10
  2.98760   -207.8 1.069e+04 4.221e-10
  3.00637   -207.0 1.058e+04 3.686e-10
  3.02721   -208.4 1.046e+04 3.357e-10
  3.06040   -205.6 1.014e+04 2.797e-10
  3.10190   -203.0 9.960e+03 2.453e-10
  3.12732   -200.3 9.925e+03 2.293e-10
  3.14806   -200.8 9.883e+03 2.320e-10
  3.18202   -198.3 9.889e+03 2.267e-10
  3.20277   -197.8 9.900e+03 2.297e-10
  3.22638   -195.3 9.917e+03 2.262e-10
  3.24817   -192.8 9.933e+03 2.228e-10
  3.26892   -193.4 9.841e+03 2.125e-10
  3.30936   -190.8 9.809e+03 2.036e-10
  3.34828   -188.3 9.767e+03 1.930e-10
  3.36902   -188.7 9.562e+03 1.446e-10
  3.39235   -186.2 9.541e+03 1.271e-10
  3.43384   -183.7 9.558e+03 1.107e-10
  3.46913   -181.4 9.615e+03 9.612e-11
  3.48988   -182.1 9.428e+03 6.905e-11
  3.51683   -179.9 9.459e+03 6.382e-11
  3.55832   -177.8 9.484e+03 5.989e-11
  3.58999   -175.7 9.500e+03 5.671e-11
  3.61073   -176.1 9.375e+03 6.151e-11
  3.64131   -173.9 9.362e+03 6.073e-11
  3.68280   -171.6 9.355e+03 6.027e-11
  3.71084   -169.2 9.353e+03 6.005e-11
  3.73159   -169.0 9.405e+03 7.965e-11
  3.76579   -166.6 9.455e+03 8.124e-11
  3.80728   -164.1 9.513e+03 8.286e-11
  3.83169   -161.7 9.574e+03 8.413e-11
  3.85244   -161.7 9.848e+03 1.367e-10
  3.89027   -159.4 9.912e+03 1.443e-10
  3.93143   -157.1 9.968e+03 1.519e-10
  3.95218   -157.0 9.991e+03 1.338e-10
  3.97326   -155.2 1.049e+04 3.027e-10
  4.01475   -152.9 1.061e+04 3.459e-10
  4.05265   -150.6 1.073e+04 3.963e-10
  4.07340   -151.0 1.120e+04 7.045e-10
  4.09774   -148.7 1.123e+04 7.151e-10
  4.13923   -146.6 1.130e+04 6.952e-10
  4.17351   -144.6 1.128e+04 6.583e-10
  4.19425   -145.1 1.139e+04 7.828e-10
  4.22222   -143.3 1.139e+04 7.260e-10
  4.26371   -141.7 1.135e+04 6.558e-10
  4.29436   -140.2 1.129e+04 5.980e-10
  4.31511   -140.2 1.150e+04 7.741e-10
  4.34670   -138.7 1.146e+04 7.507e-10
  4.38819   -137.1 1.138e+04 7.251e-10
  4.41521   -135.4 1.128e+04 7.000e-10
  4.43596   -135.3 1.141e+04 7.594e-10
  4.47118   -133.5 1.131e+04 7.147e-10
  4.51267   -131.7 1.120e+04 6.696e-10
  4.53607   -129.8 1.109e+04 6.254e-10
  4.55681   -129.8 1.113e+04 6.255e-10
  4.59566   -127.9 1.107e+04 5.844e-10
  4.63617   -126.0 1.102e+04 5.509e-10
  4.65692   -126.3 1.115e+04 5.954e-10
  4.67864   -124.4 1.116e+04 5.940e-10
  4.70158   -122.7 1.126e+04 6.382e-10
  4.72233   -122.2 1.130e+04 6.467e-10
  4.75703   -120.6 1.140e+04 7.016e-10
  4.77777   -121.1 1.167e+04 9.787e-10
  4.80312   -119.5 1.179e+04 1.069e-09
  4.84462   -118.0 1.187e+04 1.137e-09
  4.87788   -116.7 1.193e+04 1.171e-09
  4.89863   -117.2 1.167e+04 1.090e-09
  4.92760   -115.8 1.160e+04 1.055e-09
  4.96910   -114.5 1.156e+04 1.016e-09
  4.99873   -113.2 1.153e+04 9.690e-10
  5.01948   -113.5 1.113e+04 8.144e-10
  5.05208   -112.2 1.118e+04 8.241e-10
  5.09358   -110.8 1.119e+04 8.204e-10
  5.11959   -109.2 1.113e+04 7.836e-10
  5.14033   -108.9 1.086e+04 7.128e-10
  5.17656   -107.2 1.088e+04 6.931e-10
  5.21806   -105.5 1.080e+04 6.469e-10
  5.24044   -103.8 1.069e+04 5.990e-10
  5.26119   -103.5 1.073e+04 6.355e-10
  5.30104   -101.7 1.073e+04 6.495e-10
  5.34055    -99.9 1.071e+04 6.616e-10
  5.36129    -99.6 1.076e+04 7.117e-10
  5.38403    -97.9 1.076e+04 7.329e-10
  5.42552    -96.1 1.075e+04 7.519e-10
  5.45099    -94.3 1.075e+04 7.721e-10
  5.46612    -93.7 1.061e+04 6.909e-10
  5.48215    -93.5 1.053e+04 6.647e-10
  5.50851    -91.6 1.055e+04 6.837e-10
  5.55000    -89.8 1.063e+04 7.348e-10
  5.58225    -87.9 1.067e+04 7.857e-10
  5.60300    -87.9 1.087e+04 8.536e-10
  5.63299    -86.2 1.102e+04 9.675e-10
  5.67448    -84.5 1.103e+04 9.868e-10
  5.70311    -82.9 1.076e+04 8.391e-10
  5.72385    -83.1 1.094e+04 9.560e-10
  5.75747    -81.3 1.044e+04 7.135e-10
  5.79896    -79.5 9.730e+03 4.473e-10
  5.82396    -77.9 9.078e+03 2.739e-10
  5.84471    -77.8 9.352e+03 3.537e-10
  5.88195    -76.3 9.026e+03 2.696e-10
  5.92344    -74.7 8.933e+03 2.468e-10
  5.94481    -73.2 8.922e+03 2.440e-10
  5.96556    -73.3 9.482e+03 3.791e-10
  6.00643    -72.4 9.879e+03 4.697e-10
  6.04492    -71.9 1.045e+04 6.582e-10
  6.06567    -72.3 1.106e+04 9.574e-10
  6.08942    -72.1 1.145e+04 1.195e-09
  6.13091    -72.1 1.163e+04 1.323e-09
  6.16578    -72.0 1.162e+04 1.345e-09
  6.18652    -72.5 1.170e+04 1.447e-09
  6.20040    -71.9 1.107e+04 9.899e-10
  6.21067    -72.3 1.068e+04 8.049e-10
  6.22407    -72.3 1.041e+04 6.268e-10
  6.23638    -72.6 1.009e+04 4.663e-10
  6.24675    -72.8 1.004e+04 4.212e-10
  6.26557    -73.1 9.885e+03 3.637e-10
  6.28653    -73.5 9.741e+03 3.286e-10
  6.30738    -73.6 9.690e+03 3.025e-10
  6.33838    -73.1 9.673e+03 3.159e-10
  6.37987    -72.5 9.889e+03 3.800e-10
  6.40748    -71.8 1.009e+04 4.506e-10
  6.42823    -71.7 1.009e+04 4.426e-10
  6.45239    -71.2 1.017e+04 4.862e-10
  6.46771    -71.1 1.016e+04 4.897e-10
  6.47809    -71.1 1.017e+04 4.879e-10
  6.49378    -70.9 1.017e+04 4.902e-10
  6.51453    -70.8 1.009e+04 4.799e-10
  6.52814    -70.8 9.977e+03 4.528e-10
  6.53851    -71.1 1.018e+04 4.957e-10
  6.55602    -71.6 1.019e+04 4.862e-10
  6.57490    -72.0 1.024e+04 4.841e-10
  6.58528    -71.8 1.012e+04 4.555e-10
  6.58857    -72.2 1.016e+04 4.631e-10
  6.59894    -73.1 1.054e+04 6.106e-10
  6.61826    -73.4 1.052e+04 6.182e-10
  6.63862    -73.2 1.034e+04 6.106e-10
  6.64899    -73.7 1.052e+04 8.051e-10
  6.65975    -72.9 1.021e+04 6.875e-10
  6.68050    -72.2 9.970e+03 5.373e-10
  6.69905    -71.8 9.781e+03 4.145e-10
  6.70942    -72.3 9.885e+03 4.699e-10
  6.72199    -71.9 9.681e+03 3.671e-10
  6.74920    -71.5 9.518e+03 2.937e-10
  6.76994    -72.1 9.889e+03 3.761e-10
  6.78423    -71.4 9.945e+03 3.728e-10
  6.80498    -71.2 1.027e+04 4.171e-10
  6.81990    -70.9 1.058e+04 4.961e-10
  6.83027    -72.5 1.111e+04 8.565e-10
  6.84647    -71.8 1.143e+04 1.099e-09
  6.86722    -71.0 1.187e+04 1.469e-09
  6.88033    -70.0 1.242e+04 1.988e-09
  6.89070    -70.1 1.263e+04 2.282e-09
  6.90871    -69.1 1.319e+04 2.789e-09
  6.92946    -68.1 1.377e+04 3.356e-09
  6.94075    -67.3 1.435e+04 3.991e-09
  6.95053    -69.6 1.520e+04 3.497e-09
  6.95998    -68.7 1.454e+04 3.239e-09
  6.97095    -69.0 1.537e+04 3.568e-09
  6.99081    -69.7 1.624e+04 4.003e-09
  7.00118    -73.6 1.553e+04 3.017e-09
  7.01245    -74.4 1.550e+04 3.300e-09
  7.03319    -75.0 1.537e+04 3.615e-09
  7.05123    -75.6 1.520e+04 3.818e-09
  7.06161    -76.7 1.308e+04 2.497e-09
  7.07469    -77.2 1.311e+04 2.375e-09
  7.09543    -78.0 1.298e+04 2.180e-09
  7.11166    -78.9 1.266e+04 1.911e-09
  7.12203    -79.0 1.191e+04 1.174e-09
  7.13693    -79.8 1.174e+04 1.044e-09
  7.15767    -80.5 1.162e+04 9.494e-10
  7.17209    -81.2 1.157e+04 9.083e-10
  7.18246    -81.2 1.147e+04 8.136e-10
  7.19917    -82.0 1.177e+04 9.041e-10
  7.21991    -82.6 1.201e+04 1.052e-09
  7.23251    -83.0 1.218e+04 1.253e-09
  7.24289    -82.9 1.202e+04 1.488e-09
  7.26141    -82.5 1.190e+04 1.720e-09
  7.28215    -81.7 1.175e+04 1.837e-09
  7.29294    -80.6 1.149e+04 1.904e-09
  7.30331    -79.3 1.143e+04 1.707e-09
  7.32365    -78.0 1.122e+04 1.616e-09
  7.33468    -77.0 1.110e+04 1.503e-09
  7.34366    -76.6 1.097e+04 1.347e-09
  7.35337    -75.9 1.104e+04 8.681e-10
  7.36514    -75.2 1.097e+04 7.665e-10
  7.38589    -74.4 1.086e+04 6.780e-10
  7.40342    -73.6 1.068e+04 6.025e-10
  7.41379    -74.3 1.008e+04 3.402e-10
  7.42738    -73.4 9.974e+03 3.372e-10
  7.44813    -72.4 9.924e+03 3.489e-10
  7.46385    -71.7 9.862e+03 3.535e-10
  7.47432    -72.7 9.319e+03 1.738e-10
  7.50019    -70.8 9.378e+03 1.999e-10
  7.54168    -69.0 9.567e+03 2.540e-10
  7.57452    -67.0 9.766e+03 3.263e-10
  7.59527    -66.8 9.141e+03 1.530e-10
  7.62467    -64.7 9.360e+03 2.060e-10
  7.66616    -62.7 9.523e+03 2.528e-10
  7.69538    -60.9 9.611e+03 2.899e-10
  7.70768    -60.8 9.267e+03 1.605e-10
  7.71995    -59.9 8.756e+03 9.985e-11
  7.74915    -58.2 8.938e+03 1.238e-10
  7.79064    -56.8 9.155e+03 1.676e-10
  7.81623    -55.4 9.425e+03 2.412e-10
  7.83698    -55.0 9.375e+03 2.360e-10
  7.87363    -53.8 9.788e+03 3.507e-10
  7.91512    -52.8 1.006e+04 4.678e-10
  7.93708    -52.0 1.030e+04 5.948e-10
  7.94736    -51.4 1.041e+04 6.112e-10
  7.96679    -51.5 1.053e+04 6.642e-10
  7.98694    -51.4 1.074e+04 7.483e-10
  7.99732    -51.6 1.106e+04 8.059e-10
  8.00829    -52.2 1.136e+04 9.244e-10
  8.02903    -52.7 1.158e+04 1.041e-09
  8.04737    -53.1 1.161e+04 1.081e-09
  8.05774    -54.3 1.273e+04 1.516e-09
  8.07053    -54.1 1.247e+04 1.455e-09
  8.08409    -53.4 1.191e+04 1.126e-09
  8.09446    -53.4 1.204e+04 1.252e-09
  8.10780    -52.8 1.141e+04 8.632e-10
  8.11817    -53.0 1.165e+04 1.009e-09
  8.13277    -53.2 1.120e+04 6.268e-10
  8.15351    -54.1 1.079e+04 4.441e-10
  8.16822    -54.6 1.045e+04 3.848e-10
  8.17860    -56.1 1.076e+04 5.084e-10
  8.19501    -56.0 1.076e+04 5.076e-10
  8.21575    -55.9 1.120e+04 5.776e-10
  8.22865    -55.9 1.169e+04 7.110e-10
  8.23902    -57.4 1.197e+04 9.940e-10
  8.25725    -57.3 1.211e+04 1.294e-09
  8.27799    -57.2 1.229e+04 1.789e-09
  8.28908    -56.9 1.250e+04 2.473e-09
  8.29945    -56.3 1.245e+04 2.243e-09
  8.31949    -55.5 1.297e+04 2.578e-09
  8.33913    -55.2 1.392e+04 2.733e-09
  8.34950    -56.6 1.415e+04 1.672e-09
  8.36098    -59.1 1.470e+04 1.677e-09
  8.38173    -62.4 1.423e+04 1.647e-09
  8.39956    -65.0 1.323e+04 1.655e-09
  8.40993    -65.8 1.238e+04 1.568e-09
  8.42322    -65.9 1.237e+04 1.632e-09
  8.44397    -66.0 1.231e+04 1.605e-09
  8.45879    -65.9 1.209e+04 1.376e-09
  8.46443    -65.8 1.195e+04 1.251e-09
  8.47036    -65.8 1.163e+04 1.073e-09
  8.48546    -66.2 1.137e+04 8.757e-10
  8.50621    -66.4 1.111e+04 7.123e-10
  8.52041    -66.5 1.091e+04 5.961e-10
  8.53078    -66.6 1.077e+04 5.618e-10
  8.54770    -66.3 1.069e+04 5.179e-10
  8.56845    -65.9 1.066e+04 5.006e-10
  8.58084    -65.4 1.063e+04 4.961e-10
  8.59121    -65.4 1.048e+04 4.819e-10
  8.60994    -64.7 1.050e+04 4.903e-10
  8.63069    -64.0 1.054e+04 5.123e-10
  8.64136    -63.4 1.064e+04 5.560e-10
  8.65173    -62.9 1.039e+04 4.867e-10
  8.67218    -62.2 1.043e+04 4.893e-10
  8.70340    -61.4 1.049e+04 4.924e-10
  8.74157    -59.7 1.055e+04 5.055e-10
  8.76231    -59.7 1.017e+04 3.582e-10
  8.78648    -58.4 1.020e+04 3.811e-10
  8.82798    -56.9 1.015e+04 3.816e-10
  8.86242    -55.2 9.885e+03 3.301e-10
  8.88317    -55.0 9.636e+03 3.155e-10
  8.91096    -53.1 9.348e+03 2.460e-10
  8.95246    -51.4 9.165e+03 1.784e-10
  8.98327    -49.7 9.075e+03 1.372e-10
  9.00402    -49.4 8.902e+03 1.344e-10
  9.03544    -47.7 8.826e+03 1.161e-10
  9.07694    -46.0 8.807e+03 1.115e-10
  9.10413    -44.2 8.884e+03 1.118e-10
  9.12487    -44.6 9.049e+03 1.518e-10
  9.15992    -43.2 9.239e+03 1.841e-10
  9.19802    -41.5 9.402e+03 2.299e-10
  9.21877    -42.3 1.007e+04 4.044e-10
  9.22498    -40.6 1.044e+04 5.414e-10
  9.24573    -41.0 1.111e+04 7.216e-10
  9.28440    -39.8 1.133e+04 7.757e-10
  9.32509    -38.7 1.140e+04 7.900e-10
  9.34583    -40.6 1.242e+04 9.737e-10
  9.36739    -39.8 1.241e+04 1.012e-09
  9.40888    -38.9 1.212e+04 1.066e-09
  9.44594    -38.2 1.183e+04 1.080e-09
  9.46669    -38.5 1.263e+04 2.038e-09
  9.48140    -37.4 1.247e+04 2.007e-09
  9.50205    -36.6 1.246e+04 2.022e-09
  9.51654    -35.6 1.251e+04 2.014e-09
  9.52692    -35.3 1.238e+04 2.147e-09
  9.54354    -34.6 1.232e+04 1.935e-09
  9.56429    -34.2 1.226e+04 1.730e-09
  9.57697    -34.0 1.218e+04 1.552e-09
  9.58521    -33.8 1.177e+04 1.288e-09
  9.59328    -34.1 1.187e+04 1.386e-09
  9.60578    -34.0 1.164e+04 1.203e-09
  9.62653    -33.7 1.141e+04 1.042e-09
  9.65775    -32.7 1.127e+04 8.515e-10
  9.68765    -30.7 1.091e+04 6.547e-10
  9.70839    -31.0 1.025e+04 3.893e-10
  9.74083    -29.4 1.016e+04 3.439e-10
  9.78232    -27.5 1.010e+04 3.025e-10
  9.80850    -25.5 1.010e+04 2.632e-10
  9.82925    -24.9 9.941e+03 2.569e-10
  9.86531    -23.0 9.922e+03 2.316e-10
  9.90680    -21.2 1.001e+04 2.258e-10
  9.92935    -20.0 1.051e+04 2.967e-10
  9.94923    -18.6 1.016e+04 2.756e-10
  9.96817    -19.7 1.055e+04 3.604e-10
  9.98979    -18.2 1.133e+04 6.990e-10
 10.02081    -16.9 1.182e+04 9.835e-10
 10.03964    -16.6 1.310e+04 1.569e-09
 10.05011    -16.2 1.223e+04 1.292e-09
 10.06231    -15.1 1.311e+04 2.319e-09
 10.08295    -14.7 1.428e+04 3.686e-09
 10.10006    -14.5 1.593e+04 6.229e-09
 10.11044    -13.0 1.455e+04 3.734e-09
 10.12445    -12.9 1.656e+04 5.900e-09
 10.14519    -13.3 1.806e+04 1.016e-08
 10.16049    -13.0 1.846e+04 1.775e-08
 10.17087    -12.7 1.870e+04 8.453e-09
 10.18669    -12.7 1.921e+04 1.613e-08
 10.20220    -12.0 1.979e+04 1.646e-08
 10.21252    -12.2 1.850e+04 2.172e-08
 10.22082    -12.7 1.786e+04 2.324e-08
 10.22601    -12.8 1.897e+04 1.649e-08
 10.23327    -13.3 1.814e+04 1.807e-08
 10.24364    -14.0 1.721e+04 1.878e-08
 10.25103    -15.3 1.640e+04 1.694e-08
 10.25622    -15.0 1.724e+04 1.397e-08
 10.26439    -16.1 1.606e+04 1.318e-08
 10.27476    -16.6 1.537e+04 1.244e-08
 10.28125    -16.9 1.514e+04 1.213e-08
 10.28643    -16.7 1.565e+04 9.533e-09
 10.29551    -17.3 1.519e+04 9.502e-09
 10.31112    -16.9 1.502e+04 1.078e-08
 10.33140    -15.6 1.523e+04 1.154e-08
 10.34177    -15.6 1.501e+04 8.316e-09
 10.34268    -13.9 1.490e+04 9.167e-09
 10.35305    -14.0 1.446e+04 6.595e-09
 10.37341    -12.6 1.504e+04 7.818e-09
 10.39183    -11.6 1.650e+04 8.808e-09
 10.40220    -10.9 1.476e+04 6.024e-09
 10.41490    -10.1 1.640e+04 7.539e-09
 10.43565     -9.7 1.794e+04 8.350e-09
 10.45225     -9.9 1.802e+04 8.601e-09
 10.46263     -9.3 1.885e+04 9.306e-09
 10.47714     -9.3 1.937e+04 1.112e-08
 10.49789     -9.4 1.818e+04 1.139e-08
 10.51268     -9.1 1.681e+04 1.014e-08
 10.52305     -7.7 1.965e+04 1.470e-08
 10.53938     -7.0 1.805e+04 1.212e-08
 10.56013     -6.2 1.642e+04 7.939e-09
 10.57311     -5.5 1.491e+04 4.384e-09
 10.58348     -4.1 1.634e+04 6.201e-09
 10.60162     -4.8 1.422e+04 3.190e-09
 10.62237     -5.1 1.279e+04 1.845e-09
 10.63353     -4.5 1.163e+04 1.122e-09
 10.64391     -3.9 1.196e+04 1.325e-09
 10.66386     -2.8 1.129e+04 8.986e-10
 10.68359     -1.8 1.076e+04 6.131e-10
 10.69396     -0.7 1.109e+04 7.342e-10
 10.70535     -0.1 1.056e+04 5.511e-10
