# Columns:
#   distance along LOS (in CHIMPs)
#   peculiar velocity  (in km/s)
#   temperature (K)
#   HI number density
# pos=(72.5631,112.204,126.958), angles=(2.99348,3.77367)
  0.00669   -112.1 1.363e+04 3.243e-09
  0.02325   -111.7 1.343e+04 2.891e-09
  0.04300   -111.3 1.332e+04 2.615e-09
  0.06274   -110.9 1.326e+04 2.364e-09
  0.07782   -110.5 1.316e+04 2.103e-09
  0.08769   -110.6 1.244e+04 1.767e-09
  0.10224   -110.3 1.226e+04 1.516e-09
  0.12199   -110.1 1.205e+04 1.290e-09
  0.13679   -109.9 1.185e+04 1.096e-09
  0.14667   -110.6 1.167e+04 1.082e-09
  0.16148   -110.3 1.151e+04 8.998e-10
  0.18123   -109.9 1.140e+04 7.566e-10
  0.20097   -109.6 1.136e+04 6.504e-10
  0.22072   -109.3 1.136e+04 5.710e-10
  0.23882   -109.0 1.136e+04 5.093e-10
  0.24870   -108.9 1.105e+04 4.182e-10
  0.26022   -108.8 1.111e+04 3.667e-10
  0.27996   -108.7 1.116e+04 3.326e-10
  0.29971   -108.8 1.117e+04 3.125e-10
  0.31946   -109.0 1.110e+04 3.033e-10
  0.33921   -109.1 1.107e+04 3.026e-10
  0.35741   -109.2 1.088e+04 3.179e-10
  0.37725   -110.8 1.069e+04 3.490e-10
  0.39855   -110.0 1.081e+04 3.925e-10
  0.40971   -109.8 1.092e+04 4.420e-10
  0.41968   -111.0 1.086e+04 3.461e-10
  0.44801   -110.7 1.100e+04 4.048e-10
  0.48751   -110.3 1.101e+04 4.199e-10
  0.51703   -108.9 1.103e+04 4.498e-10
  0.53668   -108.9 1.092e+04 4.110e-10
  0.56640   -109.2 1.057e+04 3.267e-10
  0.60599   -108.4 1.040e+04 2.809e-10
  0.64549   -107.4 1.021e+04 2.418e-10
  0.68498   -106.3 1.004e+04 2.202e-10
  0.72205   -105.0 9.896e+03 2.127e-10
  0.74179   -104.9 9.744e+03 1.661e-10
  0.76397   -103.7 9.928e+03 2.003e-10
  0.79883   -102.4 1.016e+04 2.742e-10
  0.81858   -104.3 1.046e+04 3.174e-10
  0.84296   -102.4 1.070e+04 4.415e-10
  0.88246   -100.4 1.089e+04 5.715e-10
  0.92195    -98.2 1.103e+04 6.816e-10
  0.96145    -96.1 1.111e+04 7.468e-10
  1.00094    -94.1 1.113e+04 7.612e-10
  1.04044    -92.1 1.110e+04 7.341e-10
  1.06371    -90.9 1.084e+04 6.012e-10
  1.08346    -90.6 1.084e+04 5.907e-10
  1.10946    -89.3 1.060e+04 5.067e-10
  1.12911    -88.3 1.048e+04 4.763e-10
  1.15883    -86.8 1.035e+04 4.312e-10
  1.19842    -85.2 1.012e+04 3.752e-10
  1.23791    -82.5 9.788e+03 3.154e-10
  1.25981    -80.4 9.686e+03 2.936e-10
  1.27955    -81.2 9.497e+03 3.034e-10
  1.31690    -78.7 9.390e+03 2.922e-10
  1.35640    -76.2 9.330e+03 2.895e-10
  1.38583    -73.5 9.312e+03 2.898e-10
  1.40558    -73.3 9.083e+03 1.669e-10
  1.43539    -71.0 9.109e+03 1.680e-10
  1.47488    -69.2 9.347e+03 2.135e-10
  1.51438    -67.5 9.808e+03 3.456e-10
  1.55387    -65.5 1.031e+04 5.503e-10
  1.59337    -63.5 1.074e+04 7.658e-10
  1.63286    -62.0 1.094e+04 8.620e-10
  1.67236    -61.0 1.094e+04 8.543e-10
  1.70103    -59.8 1.062e+04 6.500e-10
  1.71678    -60.4 1.125e+04 9.170e-10
  1.72759    -61.3 1.173e+04 1.164e-09
  1.75135    -60.6 1.110e+04 7.856e-10
  1.79084    -60.1 1.084e+04 6.401e-10
  1.83034    -59.3 1.085e+04 6.243e-10
  1.86983    -59.0 1.130e+04 7.876e-10
  1.90933    -58.8 1.196e+04 1.314e-09
  1.93142    -57.9 1.204e+04 1.612e-09
  1.94120    -58.5 1.236e+04 2.094e-09
  1.95850    -58.0 1.253e+04 2.497e-09
  1.97825    -57.2 1.262e+04 2.796e-09
  1.99799    -56.3 1.263e+04 2.832e-09
  2.01774    -55.1 1.249e+04 2.581e-09
  2.03749    -53.9 1.221e+04 1.994e-09
  2.04942    -53.2 1.198e+04 1.402e-09
  2.05929    -52.7 1.207e+04 1.492e-09
  2.07698    -52.6 1.187e+04 1.008e-09
  2.09673    -52.6 1.159e+04 7.038e-10
  2.11648    -52.7 1.119e+04 5.302e-10
  2.13623    -52.4 1.078e+04 4.370e-10
  2.15194    -51.8 1.053e+04 3.970e-10
  2.16181    -53.2 1.088e+04 3.838e-10
  2.17572    -52.8 1.091e+04 3.800e-10
  2.19547    -52.3 1.099e+04 4.090e-10
  2.21043    -51.7 1.102e+04 4.815e-10
  2.22030    -50.9 1.114e+04 4.369e-10
  2.23496    -50.2 1.113e+04 5.104e-10
  2.25471    -49.3 1.110e+04 5.875e-10
  2.27446    -48.3 1.112e+04 6.537e-10
  2.29421    -47.4 1.116e+04 7.100e-10
  2.31395    -46.7 1.126e+04 7.653e-10
  2.34367    -45.4 1.157e+04 8.511e-10
  2.37163    -43.0 1.144e+04 7.735e-10
  2.38076    -42.6 1.124e+04 7.768e-10
  2.38243    -42.7 1.183e+04 1.126e-09
  2.39294    -41.7 1.169e+04 1.042e-09
  2.41269    -40.9 1.155e+04 9.467e-10
  2.43244    -40.3 1.153e+04 8.940e-10
  2.45219    -39.7 1.162e+04 8.692e-10
  2.47193    -39.1 1.196e+04 8.948e-10
  2.49168    -38.6 1.243e+04 9.555e-10
  2.51143    -38.0 1.292e+04 1.049e-09
  2.53118    -37.2 1.344e+04 1.165e-09
  2.54232    -36.3 1.391e+04 1.284e-09
  2.55219    -37.3 1.580e+04 2.378e-09
  2.57067    -36.4 1.614e+04 2.546e-09
  2.59042    -35.6 1.665e+04 2.749e-09
  2.60304    -34.8 1.712e+04 3.012e-09
  2.61291    -36.4 1.759e+04 9.859e-09
  2.62991    -35.6 1.780e+04 1.105e-08
  2.64966    -35.0 1.802e+04 1.216e-08
  2.66941    -34.2 1.804e+04 1.238e-08
  2.68916    -32.7 1.765e+04 9.454e-09
  2.70333    -31.9 1.667e+04 6.402e-09
  2.71320    -32.5 1.722e+04 1.437e-08
  2.72865    -31.4 1.653e+04 1.108e-08
  2.74840    -29.6 1.605e+04 8.402e-09
  2.76815    -27.8 1.588e+04 6.800e-09
  2.78789    -26.2 1.569e+04 5.516e-09
  2.80764    -24.7 1.540e+04 4.461e-09
  2.82366    -23.3 1.517e+04 3.679e-09
  2.83353    -23.9 1.470e+04 3.248e-09
  2.84714    -22.6 1.430e+04 2.579e-09
  2.86433    -21.0 1.418e+04 2.149e-09
  2.87421    -21.1 1.438e+04 4.857e-09
  2.88663    -19.6 1.408e+04 4.250e-09
  2.90638    -18.0 1.378e+04 3.582e-09
  2.92613    -16.0 1.343e+04 2.972e-09
  2.94587    -14.0 1.322e+04 2.295e-09
  2.96562    -12.5 1.308e+04 1.621e-09
  2.98537    -11.6 1.281e+04 1.420e-09
  3.00512     -9.8 1.273e+04 1.277e-09
  3.02486     -8.8 1.248e+04 1.191e-09
  3.03522     -7.7 1.180e+04 1.144e-09
  3.04475     -7.5 1.460e+04 3.278e-09
  3.05414     -8.1 1.332e+04 1.990e-09
  3.06436     -8.4 1.402e+04 2.329e-09
  3.08411    -10.7 1.588e+04 3.667e-09
  3.10385    -13.4 1.715e+04 6.163e-09
  3.12360    -15.0 1.740e+04 1.054e-08
  3.14335    -14.8 1.797e+04 1.786e-08
  3.16310    -13.9 1.815e+04 2.528e-08
  3.17786    -12.4 1.800e+04 3.255e-08
  3.18768    -10.7 1.829e+04 3.392e-08
  3.19618     -9.8 1.866e+04 2.509e-08
  3.20610     -9.0 1.922e+04 1.182e-08
  3.22234     -8.2 1.841e+04 5.250e-09
  3.24209    -10.9 1.563e+04 1.732e-09
  3.26183    -15.0 1.111e+04 6.158e-10
  3.27476    -15.5 9.434e+03 3.778e-10
  3.28463    -15.5 9.500e+03 4.163e-10
  3.30133    -14.7 8.961e+03 3.232e-10
  3.32108    -13.8 8.628e+03 2.556e-10
  3.34082    -13.3 8.451e+03 2.283e-10
  3.35733    -11.5 8.294e+03 2.053e-10
  3.37718    -11.6 8.001e+03 1.588e-10
  3.41013     -9.0 7.740e+03 1.419e-10
  3.44963     -6.4 7.683e+03 1.255e-10
  3.48569     -4.4 7.623e+03 1.031e-10
  3.50544     -5.3 7.696e+03 1.049e-10
  3.52862     -4.1 7.758e+03 1.061e-10
  3.56811     -2.8 7.893e+03 1.393e-10
  3.60761     -0.7 8.029e+03 1.801e-10
  3.64710      1.7 8.137e+03 2.031e-10
  3.67945      4.0 8.220e+03 2.103e-10
  3.69920      3.4 8.347e+03 2.242e-10
  3.72609      5.2 8.331e+03 2.083e-10
  3.76559      6.8 8.361e+03 1.957e-10
  3.80508      8.4 8.399e+03 1.904e-10
  3.84458     10.1 8.427e+03 1.919e-10
  3.88407     11.7 8.574e+03 2.091e-10
  3.92357     13.4 8.816e+03 2.452e-10
  3.94667     14.4 9.064e+03 2.855e-10
  3.95644     12.9 9.024e+03 2.691e-10
  3.97274     13.2 9.131e+03 2.881e-10
  3.99249     12.9 9.643e+03 4.014e-10
  4.01114     13.1 9.882e+03 5.250e-10
  4.02102     12.8 9.662e+03 4.505e-10
  4.04196     12.9 1.063e+04 8.445e-10
  4.08155     14.0 1.139e+04 1.318e-09
  4.12104     14.9 1.140e+04 1.265e-09
  4.15057     15.6 1.120e+04 1.122e-09
  4.16709     16.1 1.101e+04 9.350e-10
  4.17696     16.1 1.117e+04 1.034e-09
  4.18203     16.0 1.099e+04 8.598e-10
  4.19190     15.1 1.109e+04 9.450e-10
  4.20971     15.0 1.094e+04 8.286e-10
  4.22946     15.0 1.078e+04 7.554e-10
  4.24921     15.1 1.064e+04 7.148e-10
  4.26895     15.5 1.065e+04 7.166e-10
  4.28870     15.4 1.082e+04 7.538e-10
  4.30845     14.7 1.158e+04 9.242e-10
  4.32820     12.8 1.291e+04 1.415e-09
  4.34304     11.1 1.384e+04 2.352e-09
  4.35291     10.4 1.373e+04 2.520e-09
  4.36769      9.9 1.423e+04 3.755e-09
  4.38744      9.8 1.465e+04 5.118e-09
  4.39757      9.5 1.528e+04 6.427e-09
  4.40745      9.6 1.568e+04 7.057e-09
  4.42693      7.7 1.656e+04 8.493e-09
  4.44668      3.0 1.866e+04 1.126e-08
  4.46144     -2.5 2.116e+04 1.826e-08
  4.47127     -6.4 2.292e+04 2.599e-08
  4.48114     -8.5 2.286e+04 3.496e-08
  4.49102     -9.7 2.170e+04 3.432e-08
  4.50089    -10.2 2.028e+04 2.773e-08
  4.50778    -10.3 1.860e+04 1.820e-08
  4.51084    -10.5 1.840e+04 1.695e-08
  4.51382    -10.1 1.862e+04 1.873e-08
  4.52064    -10.5 1.722e+04 1.158e-08
  4.53051    -11.3 1.662e+04 6.813e-09
  4.54537    -13.4 1.655e+04 3.202e-09
  4.56517    -20.5 1.272e+04 7.718e-10
  4.58491    -24.5 9.754e+03 3.785e-10
  4.60466    -23.6 9.441e+03 3.019e-10
  4.63438    -22.8 9.373e+03 2.720e-10
  4.66525    -21.2 9.148e+03 2.383e-10
  4.68500    -19.7 8.677e+03 1.599e-10
  4.71347    -17.9 8.660e+03 1.478e-10
  4.75296    -15.9 8.729e+03 1.468e-10
  4.79246    -13.9 8.702e+03 1.413e-10
  4.82912    -11.9 8.619e+03 1.325e-10
  4.84887    -11.2 8.868e+03 1.814e-10
  4.87145     -9.4 8.651e+03 1.486e-10
  4.91094     -7.6 8.535e+03 1.304e-10
  4.95044     -5.8 8.559e+03 1.297e-10
  4.98727     -4.0 8.622e+03 1.384e-10
  5.00701     -2.7 8.486e+03 1.092e-10
  5.02943     -0.8 8.606e+03 1.365e-10
  5.06892      1.1 8.781e+03 1.768e-10
  5.10842      3.0 9.054e+03 2.251e-10
  5.14791      4.6 9.413e+03 2.935e-10
  5.18741      5.7 9.776e+03 3.870e-10
  5.21693      6.9 9.850e+03 4.438e-10
  5.23658      7.1 9.944e+03 4.675e-10
  5.26630      8.0 1.018e+04 5.645e-10
  5.29010      9.4 1.019e+04 5.635e-10
  5.30984      9.6 9.882e+03 4.318e-10
  5.32903     11.0 9.898e+03 4.310e-10
  5.34878     11.9 9.926e+03 4.389e-10
  5.38488     13.6 9.896e+03 4.194e-10
  5.42438     15.3 9.857e+03 3.817e-10
  5.46387     16.9 9.842e+03 3.495e-10
  5.50337     18.7 9.878e+03 3.416e-10
  5.54286     20.7 9.926e+03 3.426e-10
  5.58236     22.8 9.979e+03 3.389e-10
  5.62185     25.0 1.003e+04 3.195e-10
  5.65105     27.1 1.004e+04 2.932e-10
  5.67080     28.4 1.003e+04 3.178e-10
  5.70084     30.6 1.003e+04 3.010e-10
  5.73132     32.7 9.990e+03 2.902e-10
  5.75107     32.9 1.017e+04 3.815e-10
  5.77983     35.1 1.013e+04 4.067e-10
  5.81933     37.5 1.009e+04 4.218e-10
  5.85882     39.9 1.005e+04 4.090e-10
  5.89832     42.0 9.975e+03 3.733e-10
  5.93781     43.9 9.835e+03 3.456e-10
  5.97307     45.6 9.698e+03 3.285e-10
  5.99281     47.4 1.019e+04 4.886e-10
  6.01680     48.8 9.919e+03 4.195e-10
  6.05630     50.0 9.576e+03 3.477e-10
  6.09579     51.1 9.254e+03 2.794e-10
  6.13529     52.1 8.999e+03 2.213e-10
  6.17255     53.0 8.836e+03 1.876e-10
  6.19230     53.1 9.230e+03 2.357e-10
  6.21428     54.0 9.108e+03 2.199e-10
  6.25377     55.0 9.136e+03 2.261e-10
  6.29327     56.0 9.232e+03 2.486e-10
  6.31483     57.0 9.396e+03 2.815e-10
  6.33458     57.9 9.149e+03 2.145e-10
  6.37226     58.5 9.490e+03 2.874e-10
  6.41175     58.8 9.815e+03 3.655e-10
  6.45125     58.9 1.008e+04 4.310e-10
  6.49074     58.6 1.038e+04 4.901e-10
  6.53024     58.1 1.066e+04 5.429e-10
  6.56973     57.9 1.075e+04 5.719e-10
  6.60923     58.1 1.073e+04 5.714e-10
  6.63353     58.7 1.063e+04 5.546e-10
  6.64140     59.1 1.117e+04 9.496e-10
  6.65660     59.9 1.137e+04 1.102e-09
  6.68821     61.0 1.139e+04 9.994e-10
  6.71774     61.5 1.133e+04 9.583e-10
  6.73739     61.9 1.135e+04 9.326e-10
  6.75714     62.3 1.137e+04 9.300e-10
  6.77688     62.9 1.140e+04 9.311e-10
  6.79663     63.5 1.140e+04 9.304e-10
  6.80754     64.2 1.137e+04 9.240e-10
  6.81741     64.6 1.153e+04 1.016e-09
  6.83613     65.4 1.150e+04 9.977e-10
  6.85395     66.3 1.148e+04 9.876e-10
  6.86382     66.6 1.154e+04 1.017e-09
  6.87562     67.5 1.157e+04 1.051e-09
  6.89537     68.4 1.155e+04 1.073e-09
  6.91512     69.5 1.149e+04 1.061e-09
  6.93486     70.7 1.149e+04 1.020e-09
  6.95461     71.8 1.159e+04 9.665e-10
  6.96854     72.8 1.180e+04 9.016e-10
  6.97842     73.4 1.214e+04 1.316e-09
  6.99411     74.2 1.262e+04 1.328e-09
  7.01385     74.4 1.329e+04 1.401e-09
  7.03360     74.1 1.429e+04 1.581e-09
  7.05335     73.0 1.537e+04 1.969e-09
  7.07310     71.7 1.594e+04 2.606e-09
  7.08443     71.5 1.592e+04 3.524e-09
  7.09431     71.7 1.714e+04 6.248e-09
  7.11259     72.0 1.693e+04 6.401e-09
  7.12955     72.5 1.640e+04 6.154e-09
  7.13943     72.7 1.773e+04 1.020e-08
  7.15209     73.1 1.674e+04 7.720e-09
  7.17183     73.7 1.580e+04 5.382e-09
  7.19158     73.9 1.493e+04 3.497e-09
  7.21133     73.6 1.409e+04 2.184e-09
  7.23108     72.6 1.319e+04 1.444e-09
  7.25082     71.4 1.230e+04 1.107e-09
  7.27057     70.7 1.167e+04 1.069e-09
  7.29032     70.4 1.162e+04 1.116e-09
  7.30044     70.5 1.172e+04 1.288e-09
  7.30529     72.6 1.339e+04 1.750e-09
  7.31492     74.0 1.357e+04 1.823e-09
  7.32981     74.0 1.312e+04 1.842e-09
  7.34956     73.9 1.285e+04 1.922e-09
  7.36931     73.9 1.251e+04 2.019e-09
  7.38905     73.9 1.232e+04 2.017e-09
  7.40880     73.7 1.210e+04 1.935e-09
  7.42855     73.5 1.178e+04 1.723e-09
  7.44830     73.4 1.141e+04 1.409e-09
  7.46145     73.1 1.101e+04 1.111e-09
  7.47132     71.7 1.217e+04 1.315e-09
  7.48779     71.2 1.138e+04 1.062e-09
  7.50754     71.0 1.114e+04 9.433e-10
  7.52566     71.1 1.102e+04 9.084e-10
  7.53553     70.8 1.171e+04 1.241e-09
  7.54703     71.3 1.153e+04 1.195e-09
  7.56678     72.3 1.138e+04 1.160e-09
  7.58653     73.4 1.132e+04 1.162e-09
  7.60628     74.5 1.131e+04 1.174e-09
  7.62245     75.7 1.131e+04 1.207e-09
  7.63233     76.2 1.194e+04 1.571e-09
  7.64577     77.4 1.185e+04 1.574e-09
  7.66552     78.7 1.187e+04 1.620e-09
  7.68527     79.8 1.195e+04 1.735e-09
  7.70501     81.0 1.207e+04 1.893e-09
  7.72476     82.4 1.223e+04 2.066e-09
  7.74451     83.9 1.248e+04 2.259e-09
  7.75615     85.4 1.273e+04 2.443e-09
  7.76602     85.4 1.239e+04 2.246e-09
  7.78346     86.8 1.244e+04 2.220e-09
  7.79334     87.3 1.235e+04 2.325e-09
  7.80375     88.7 1.248e+04 2.358e-09
  7.82350     90.2 1.258e+04 2.340e-09
  7.84325     91.5 1.263e+04 2.290e-09
  7.86299     92.7 1.266e+04 2.185e-09
  7.88274     93.9 1.262e+04 2.053e-09
  7.90249     95.1 1.254e+04 1.921e-09
  7.92224     96.1 1.243e+04 1.799e-09
  7.94198     97.3 1.227e+04 1.665e-09
  7.95435     98.4 1.204e+04 1.510e-09
  7.96422     99.0 1.297e+04 2.076e-09
  7.97676    100.1 1.281e+04 1.879e-09
  7.98664    100.1 1.234e+04 1.611e-09
  8.00123    101.3 1.222e+04 1.478e-09
  8.02097    102.4 1.201e+04 1.309e-09
  8.04072    103.4 1.167e+04 1.116e-09
  8.06047    104.3 1.126e+04 9.361e-10
  8.08022    105.1 1.089e+04 8.012e-10
  8.09996    105.8 1.062e+04 7.144e-10
  8.11535    106.5 1.042e+04 6.719e-10
  8.12523    107.4 1.145e+04 8.801e-10
  8.13946    108.1 1.105e+04 7.953e-10
  8.15921    108.7 1.082e+04 7.602e-10
  8.17895    109.5 1.071e+04 7.493e-10
  8.19738    110.2 1.067e+04 7.554e-10
  8.20725    110.4 1.094e+04 8.279e-10
  8.21845    111.1 1.099e+04 8.752e-10
  8.23820    111.8 1.107e+04 9.286e-10
  8.25794    112.5 1.114e+04 9.697e-10
  8.27636    113.3 1.119e+04 9.937e-10
  8.28624    113.4 1.230e+04 1.407e-09
  8.29744    114.2 1.219e+04 1.341e-09
  8.31719    114.9 1.206e+04 1.260e-09
  8.33693    115.6 1.190e+04 1.180e-09
  8.35668    116.2 1.176e+04 1.117e-09
  8.37643    116.8 1.165e+04 1.080e-09
  8.39618    117.5 1.163e+04 1.079e-09
  8.41592    118.2 1.164e+04 1.100e-09
  8.42786    119.0 1.169e+04 1.155e-09
  8.43774    119.6 1.257e+04 1.581e-09
  8.44725    120.3 1.272e+04 1.659e-09
  8.45712    119.8 1.313e+04 2.115e-09
  8.47517    120.7 1.319e+04 2.293e-09
  8.49491    121.7 1.328e+04 2.474e-09
  8.51466    122.7 1.325e+04 2.545e-09
  8.53441    123.6 1.322e+04 2.538e-09
  8.55416    124.4 1.311e+04 2.487e-09
  8.57390    125.2 1.296e+04 2.372e-09
  8.59365    125.9 1.279e+04 2.231e-09
  8.60825    126.5 1.266e+04 2.088e-09
  8.61813    126.8 1.297e+04 2.471e-09
  8.63315    127.3 1.282e+04 2.309e-09
  8.64848    128.0 1.276e+04 2.177e-09
  8.65835    127.5 1.262e+04 1.955e-09
  8.67264    127.7 1.254e+04 1.825e-09
  8.69239    127.8 1.252e+04 1.761e-09
  8.71214    127.7 1.252e+04 1.760e-09
  8.73188    127.6 1.252e+04 1.775e-09
  8.75163    127.3 1.253e+04 1.831e-09
  8.76926    126.9 1.264e+04 1.981e-09
  8.77914    127.5 1.277e+04 1.963e-09
  8.79113    126.7 1.324e+04 2.340e-09
  8.81087    125.6 1.402e+04 3.020e-09
  8.83062    124.5 1.490e+04 4.005e-09
  8.85037    123.3 1.562e+04 4.983e-09
  8.86909    122.0 1.588e+04 5.224e-09
  8.87897    122.8 1.511e+04 4.136e-09
  8.88986    121.3 1.519e+04 4.149e-09
  8.90961    119.8 1.504e+04 3.913e-09
  8.92936    118.4 1.449e+04 3.239e-09
  8.94015    117.0 1.366e+04 2.411e-09
  8.95002    117.6 1.332e+04 2.073e-09
  8.96885    115.9 1.224e+04 1.351e-09
  8.98860    114.2 1.140e+04 9.270e-10
  9.01832    113.3 1.075e+04 5.625e-10
  9.04794    112.0 1.027e+04 4.751e-10
  9.06759    111.3 9.964e+03 4.250e-10
  9.08734    110.9 9.736e+03 3.896e-10
  9.09958    110.6 9.610e+03 3.761e-10
  9.10352    111.5 9.475e+03 3.543e-10
  9.11103    111.5 9.490e+03 3.649e-10
  9.12683    111.5 9.495e+03 3.682e-10
  9.14658    111.4 9.546e+03 3.847e-10
  9.16633    111.2 9.701e+03 4.234e-10
  9.18607    110.9 9.938e+03 4.859e-10
  9.20582    110.6 1.021e+04 5.699e-10
  9.22557    110.3 1.045e+04 6.645e-10
  9.24532    110.1 1.063e+04 7.555e-10
  9.26216    109.8 1.075e+04 8.323e-10
  9.27204    109.6 1.099e+04 9.553e-10
  9.28481    109.6 1.105e+04 1.000e-09
  9.30456    109.6 1.109e+04 1.035e-09
  9.32019    109.7 1.113e+04 1.064e-09
  9.33007    110.5 1.062e+04 8.120e-10
  9.34405    110.6 1.068e+04 8.458e-10
  9.36380    110.6 1.074e+04 8.841e-10
  9.38355    110.9 1.079e+04 9.228e-10
  9.40330    111.4 1.083e+04 9.602e-10
  9.42304    111.9 1.087e+04 9.929e-10
  9.43305    112.5 1.093e+04 1.029e-09
  9.44292    112.4 1.095e+04 1.002e-09
  9.46254    113.2 1.112e+04 1.071e-09
  9.48229    113.6 1.145e+04 1.191e-09
  9.50203    113.6 1.204e+04 1.421e-09
  9.52178    113.2 1.306e+04 1.890e-09
  9.54081    112.4 1.435e+04 2.755e-09
  9.55068    113.9 1.280e+04 1.806e-09
  9.56128    113.3 1.395e+04 2.648e-09
  9.58102    113.3 1.509e+04 3.967e-09
  9.59405    113.6 1.602e+04 5.655e-09
  9.60393    114.0 1.563e+04 4.228e-09
  9.62052    114.3 1.615e+04 5.544e-09
  9.64027    114.9 1.636e+04 6.387e-09
  9.66001    115.6 1.623e+04 6.536e-09
  9.67976    116.4 1.608e+04 6.420e-09
  9.69951    117.1 1.586e+04 6.079e-09
  9.71926    117.6 1.558e+04 5.689e-09
  9.73900    118.1 1.538e+04 5.366e-09
  9.75506    118.6 1.529e+04 5.126e-09
  9.76494    119.4 1.532e+04 5.170e-09
  9.77129    120.0 1.532e+04 5.062e-09
  9.78117    120.3 1.524e+04 4.644e-09
  9.79825    120.8 1.531e+04 4.931e-09
  9.81799    121.4 1.546e+04 5.298e-09
  9.83774    122.1 1.571e+04 5.619e-09
  9.85749    122.9 1.600e+04 5.649e-09
  9.87724    123.4 1.606e+04 5.589e-09
  9.89698    123.9 1.619e+04 5.276e-09
  9.91607    124.0 1.629e+04 4.720e-09
  9.92595    124.0 1.677e+04 4.867e-09
  9.93648    123.8 1.643e+04 4.493e-09
  9.95623    123.4 1.580e+04 4.366e-09
  9.97597    123.2 1.532e+04 4.453e-09
  9.99191    123.3 1.521e+04 4.547e-09
 10.00178    124.6 1.597e+04 4.798e-09
 10.01547    124.5 1.561e+04 4.760e-09
 10.03522    124.6 1.528e+04 4.746e-09
 10.05496    124.7 1.500e+04 4.668e-09
 10.07471    124.9 1.480e+04 4.539e-09
 10.08695    125.2 1.465e+04 4.418e-09
 10.09683    125.0 1.475e+04 4.742e-09
 10.11421    125.3 1.468e+04 4.591e-09
 10.13395    125.5 1.465e+04 4.462e-09
 10.15370    125.8 1.465e+04 4.321e-09
 10.17345    126.1 1.465e+04 4.112e-09
 10.19320    126.3 1.456e+04 3.743e-09
 10.21252    126.3 1.432e+04 3.191e-09
 10.22240    126.7 1.440e+04 3.189e-09
 10.23269    126.7 1.400e+04 2.624e-09
 10.24796    126.4 1.347e+04 2.024e-09
 10.25784    126.1 1.321e+04 1.826e-09
 10.27219    125.6 1.256e+04 1.344e-09
 10.29193    125.1 1.186e+04 9.808e-10
 10.31168    124.7 1.123e+04 7.179e-10
 10.33143    124.5 1.075e+04 5.523e-10
