# Columns:
#   distance along LOS (in CHIMPs)
#   peculiar velocity  (in km/s)
#   temperature (K)
#   HI number density
# pos=(176.965,195.137,63.3849), angles=(2.0037,4.66729)
  0.01196    281.4 9.113e+03 2.464e-10
  0.03728    282.7 9.247e+03 2.617e-10
  0.05882    284.3 9.430e+03 3.351e-10
  0.08854    285.8 9.575e+03 3.513e-10
  0.12691    287.0 9.627e+03 3.433e-10
  0.14845    289.5 1.010e+04 4.801e-10
  0.17470    290.4 1.010e+04 4.486e-10
  0.21655    291.1 1.001e+04 3.704e-10
  0.23808    293.8 1.061e+04 5.273e-10
  0.26085    294.7 1.051e+04 4.102e-10
  0.30392    294.9 1.033e+04 3.196e-10
  0.32772    294.4 1.016e+04 2.946e-10
  0.33765    295.9 1.080e+04 3.922e-10
  0.34606    295.7 1.050e+04 3.255e-10
  0.35757    295.3 1.034e+04 3.158e-10
  0.37234    294.5 1.031e+04 3.205e-10
  0.38311    296.3 1.059e+04 3.696e-10
  0.40065    295.7 1.038e+04 3.690e-10
  0.41716    295.2 1.030e+04 3.779e-10
  0.42793    297.4 1.066e+04 4.966e-10
  0.44372    296.6 1.059e+04 5.097e-10
  0.46197    295.6 1.064e+04 5.534e-10
  0.47274    297.2 1.114e+04 6.752e-10
  0.48680    295.8 1.113e+04 6.762e-10
  0.50679    294.0 1.114e+04 6.844e-10
  0.51756    295.5 1.148e+04 7.584e-10
  0.52988    293.4 1.149e+04 7.625e-10
  0.55141    290.3 1.177e+04 8.441e-10
  0.56238    281.8 1.444e+04 1.252e-09
  0.57315    277.8 1.669e+04 1.739e-09
  0.58379    272.9 1.762e+04 2.363e-09
  0.58480    273.2 1.740e+04 2.301e-09
  0.59007    272.8 1.779e+04 2.418e-09
  0.59978    268.2 1.896e+04 3.724e-09
  0.60710    262.1 2.028e+04 6.820e-09
  0.61248    259.3 2.101e+04 9.236e-09
  0.62131    253.3 2.184e+04 1.548e-08
  0.62950    247.1 2.308e+04 2.303e-08
  0.63489    244.7 2.354e+04 2.727e-08
  0.64285    237.2 2.536e+04 3.511e-08
  0.65191    229.0 2.620e+04 4.001e-08
  0.65730    225.2 2.635e+04 4.321e-08
  0.66439    217.0 2.591e+04 4.305e-08
  0.67432    210.6 2.453e+04 4.035e-08
  0.67970    207.6 2.398e+04 4.010e-08
  0.68593    204.1 2.264e+04 3.321e-08
  0.69670    201.7 2.205e+04 2.497e-08
  0.70752    198.9 2.181e+04 1.839e-08
  0.72372    194.3 2.187e+04 8.123e-09
  0.74164    188.5 2.122e+04 2.839e-09
  0.75241    185.6 2.048e+04 1.773e-09
  0.76679    178.1 1.492e+04 1.142e-09
  0.78646    174.0 1.309e+04 1.164e-09
  0.79723    172.9 1.282e+04 9.410e-10
  0.80987    172.3 1.292e+04 1.112e-09
  0.82161    171.7 1.345e+04 1.493e-09
  0.83225    170.4 1.413e+04 2.274e-09
  0.84205    169.2 1.434e+04 2.190e-09
  0.85295    168.5 1.484e+04 3.073e-09
  0.87448    167.8 1.532e+04 4.133e-09
  0.88686    167.2 1.584e+04 5.172e-09
  0.89763    166.5 1.626e+04 6.087e-09
  0.91756    165.7 1.703e+04 7.707e-09
  0.93168    164.6 1.772e+04 9.214e-09
  0.94245    163.6 1.822e+04 1.105e-08
  0.96063    162.2 1.877e+04 1.278e-08
  0.97650    160.6 1.891e+04 1.281e-08
  0.98727    159.9 1.926e+04 1.578e-08
  1.00371    158.7 1.911e+04 1.489e-08
  1.02131    157.8 1.856e+04 1.192e-08
  1.03208    157.3 1.867e+04 1.412e-08
  1.04679    157.3 1.765e+04 9.192e-09
  1.06613    157.4 1.636e+04 4.718e-09
  1.07690    157.3 1.627e+04 5.526e-09
  1.08986    157.4 1.497e+04 2.631e-09
  1.11095    157.0 1.385e+04 1.137e-09
  1.12172    157.2 1.406e+04 1.640e-09
  1.13294    157.3 1.320e+04 8.884e-10
  1.15586    157.3 1.168e+04 3.223e-10
  1.17750    159.1 1.296e+04 7.788e-10
  1.20852    160.7 1.156e+04 3.878e-10
  1.24559    162.5 1.031e+04 2.550e-10
  1.26713    165.4 1.195e+04 4.986e-10
  1.29467    167.2 1.064e+04 3.404e-10
  1.33523    169.1 1.023e+04 3.286e-10
  1.35676    171.5 1.102e+04 4.590e-10
  1.38082    173.2 1.064e+04 4.600e-10
  1.42390    174.7 1.062e+04 4.675e-10
  1.44640    175.4 1.073e+04 5.024e-10
  1.46794    177.6 1.114e+04 6.526e-10
  1.51005    177.9 1.114e+04 6.513e-10
  1.53603    178.0 1.104e+04 6.076e-10
  1.54670    178.4 1.117e+04 6.814e-10
  1.56370    178.4 1.108e+04 6.452e-10
  1.58065    178.3 1.096e+04 5.836e-10
  1.59142    178.9 1.109e+04 6.317e-10
  1.60677    178.5 1.097e+04 5.778e-10
  1.62557    178.6 1.094e+04 5.379e-10
  1.63634    178.8 1.104e+04 5.915e-10
  1.64985    178.6 1.100e+04 5.808e-10
  1.67029    178.2 1.107e+04 5.871e-10
  1.68106    178.6 1.117e+04 6.341e-10
  1.69293    178.2 1.131e+04 6.459e-10
  1.71446    177.9 1.145e+04 6.698e-10
  1.72587    177.6 1.162e+04 7.161e-10
  1.73664    178.0 1.185e+04 8.246e-10
  1.75754    177.7 1.209e+04 8.926e-10
  1.77069    177.2 1.238e+04 1.026e-09
  1.77508    177.6 1.260e+04 1.193e-09
  1.78347    176.7 1.223e+04 9.868e-10
  1.80062    175.9 1.263e+04 1.164e-09
  1.81551    174.9 1.310e+04 1.458e-09
  1.82627    175.3 1.328e+04 1.656e-09
  1.84369    174.3 1.376e+04 2.092e-09
  1.86032    173.1 1.427e+04 2.617e-09
  1.87109    173.9 1.445e+04 2.892e-09
  1.88677    172.6 1.489e+04 3.248e-09
  1.90514    170.8 1.525e+04 3.337e-09
  1.91591    171.4 1.554e+04 3.548e-09
  1.92984    169.0 1.565e+04 3.472e-09
  1.94996    166.1 1.566e+04 3.478e-09
  1.96073    166.4 1.634e+04 3.944e-09
  1.97292    163.0 1.620e+04 4.206e-09
  1.99446    160.0 1.575e+04 4.881e-09
  2.00554    157.7 1.549e+04 5.075e-09
  2.01631    157.6 1.607e+04 5.823e-09
  2.03753    155.8 1.548e+04 5.585e-09
  2.05036    154.7 1.474e+04 4.531e-09
  2.06113    154.5 1.472e+04 4.525e-09
  2.08061    153.8 1.377e+04 2.980e-09
  2.09518    152.7 1.272e+04 1.742e-09
  2.10594    152.2 1.257e+04 1.611e-09
  2.12368    150.3 1.145e+04 9.143e-10
  2.13999    148.4 1.049e+04 5.655e-10
  2.15076    148.1 1.049e+04 5.718e-10
  2.16676    147.1 1.001e+04 4.329e-10
  2.18491    147.5 9.908e+03 4.013e-10
  2.20654    147.3 9.953e+03 4.172e-10
  2.24234    147.4 9.445e+03 3.090e-10
  2.27464    148.1 9.078e+03 2.755e-10
  2.29618    147.8 9.156e+03 2.869e-10
  2.32849    148.6 9.066e+03 2.841e-10
  2.36427    149.2 9.076e+03 2.898e-10
  2.38581    148.7 9.109e+03 2.959e-10
  2.41464    149.1 9.099e+03 2.969e-10
  2.45391    149.4 9.068e+03 2.939e-10
  2.47544    148.4 9.120e+03 3.043e-10
  2.50079    148.4 9.071e+03 2.979e-10
  2.54354    148.4 9.080e+03 2.982e-10
  2.56508    147.4 9.266e+03 3.480e-10
  2.58695    147.4 9.336e+03 3.611e-10
  2.63002    147.8 9.388e+03 3.751e-10
  2.65461    148.2 9.527e+03 4.318e-10
  2.66528    148.1 9.744e+03 5.046e-10
  2.68367    148.4 9.954e+03 5.711e-10
  2.69933    148.6 1.018e+04 6.493e-10
  2.71010    148.4 1.041e+04 7.416e-10
  2.72379    148.6 1.068e+04 8.551e-10
  2.73456    148.1 1.072e+04 8.409e-10
  2.74415    148.3 1.099e+04 9.584e-10
  2.75492    148.2 1.124e+04 1.108e-09
  2.76982    148.4 1.149e+04 1.237e-09
  2.78897    148.6 1.167e+04 1.311e-09
  2.79973    148.6 1.189e+04 1.500e-09
  2.81290    148.8 1.197e+04 1.522e-09
  2.83378    149.1 1.199e+04 1.490e-09
  2.84455    149.2 1.222e+04 1.695e-09
  2.85597    149.5 1.224e+04 1.594e-09
  2.87751    149.7 1.226e+04 1.405e-09
  2.88937    149.8 1.229e+04 1.153e-09
  2.90014    149.7 1.282e+04 1.440e-09
  2.92059    149.5 1.308e+04 1.130e-09
  2.93419    148.9 1.334e+04 8.058e-10
  2.94495    148.7 1.423e+04 1.147e-09
  2.96366    147.3 1.427e+04 7.635e-10
  2.97900    144.8 1.307e+04 5.507e-10
  2.98977    142.8 1.427e+04 9.388e-10
  3.00674    138.9 1.276e+04 1.026e-09
  3.02382    135.6 1.233e+04 1.454e-09
  3.03459    132.1 1.454e+04 2.867e-09
  3.04982    130.0 1.529e+04 4.183e-09
  3.06864    128.4 1.620e+04 5.638e-09
  3.07940    125.4 1.657e+04 5.762e-09
  3.09289    124.0 1.657e+04 5.670e-09
  3.11345    122.8 1.634e+04 4.743e-09
  3.12422    119.2 1.514e+04 2.615e-09
  3.13597    116.7 1.407e+04 1.514e-09
  3.15751    114.1 1.262e+04 9.090e-10
  3.16904    111.1 1.106e+04 6.286e-10
  3.17981    109.0 1.011e+04 5.515e-10
  3.19933    108.8 1.004e+04 5.506e-10
  3.21010    109.2 9.945e+03 5.418e-10
  3.21385    109.3 9.955e+03 5.489e-10
  3.23549    108.9 9.987e+03 5.553e-10
  3.27616    109.9 1.043e+04 6.933e-10
  3.30359    110.0 1.068e+04 7.885e-10
  3.32512    109.3 1.061e+04 7.459e-10
  3.34840    109.5 1.089e+04 8.418e-10
  3.35907    109.0 1.078e+04 8.042e-10
  3.37289    108.8 1.095e+04 8.582e-10
  3.39312    108.6 1.111e+04 9.145e-10
  3.41476    107.5 1.097e+04 8.744e-10
  3.43760    106.5 1.145e+04 1.068e-09
  3.44871    105.6 1.195e+04 1.330e-09
  3.45948    105.2 1.185e+04 1.305e-09
  3.48058    104.6 1.234e+04 1.674e-09
  3.49352    104.5 1.291e+04 2.249e-09
  3.50439    104.8 1.213e+04 1.559e-09
  3.53462    104.7 1.251e+04 1.823e-09
  3.57258    104.6 1.229e+04 1.588e-09
  3.59412    103.4 1.124e+04 9.271e-10
  3.62077    103.5 1.065e+04 6.254e-10
  3.66222    103.8 9.926e+03 3.610e-10
  3.68376    103.4 9.795e+03 3.844e-10
  3.68584    104.5 9.423e+03 2.566e-10
  3.70738    103.5 9.335e+03 2.139e-10
  3.74999    104.8 9.146e+03 1.674e-10
  3.77339    106.4 9.120e+03 1.579e-10
  3.79493    106.8 9.314e+03 2.268e-10
  3.83615    108.5 9.319e+03 2.146e-10
  3.86302    110.1 9.349e+03 2.189e-10
  3.88456    110.4 9.576e+03 3.083e-10
  3.92230    112.0 9.602e+03 3.001e-10
  3.95266    113.6 9.651e+03 2.990e-10
  3.97420    113.7 9.703e+03 3.370e-10
  4.00845    115.2 9.703e+03 3.081e-10
  4.04229    116.5 9.688e+03 2.824e-10
  4.06383    116.6 9.607e+03 2.847e-10
  4.09460    118.0 9.609e+03 2.652e-10
  4.13192    119.4 9.640e+03 2.543e-10
  4.15346    119.8 9.654e+03 2.882e-10
  4.18075    121.0 9.821e+03 3.146e-10
  4.22156    122.1 1.011e+04 3.710e-10
  4.24310    122.6 1.057e+04 5.607e-10
  4.26691    123.2 1.121e+04 7.862e-10
  4.30998    123.2 1.175e+04 1.045e-09
  4.33273    123.0 1.203e+04 1.177e-09
  4.35427    123.3 1.258e+04 1.546e-09
  4.39613    122.3 1.241e+04 1.358e-09
  4.42236    121.2 1.183e+04 8.799e-10
  4.44390    120.9 1.186e+04 8.636e-10
  4.48229    119.2 1.084e+04 4.367e-10
  4.51200    117.4 9.783e+03 2.208e-10
  4.53353    117.2 9.798e+03 2.744e-10
  4.56844    116.6 9.333e+03 1.960e-10
  4.60163    116.7 9.204e+03 1.633e-10
  4.62317    117.1 9.508e+03 2.290e-10
  4.63693    117.6 9.389e+03 1.895e-10
  4.65847    117.9 9.214e+03 1.936e-10
  4.69126    118.8 9.264e+03 1.853e-10
  4.71280    119.2 9.479e+03 2.392e-10
  4.74074    120.0 9.546e+03 2.330e-10
  4.78090    120.9 9.638e+03 2.333e-10
  4.80244    121.1 9.950e+03 3.063e-10
  4.82689    121.7 1.005e+04 3.082e-10
  4.85910    121.7 1.026e+04 3.445e-10
  4.88054    121.8 1.050e+04 4.016e-10
  4.89187    122.0 1.074e+04 4.892e-10
  4.90264    122.0 1.098e+04 6.462e-10
  4.92362    122.5 1.121e+04 7.737e-10
  4.93669    123.1 1.145e+04 9.071e-10
  4.94746    123.1 1.162e+04 1.065e-09
  4.96669    123.6 1.194e+04 1.211e-09
  4.98151    123.4 1.239e+04 1.425e-09
  4.99228    122.9 1.259e+04 1.591e-09
  5.00977    122.1 1.341e+04 2.115e-09
  5.02632    120.8 1.438e+04 3.166e-09
  5.03709    119.9 1.435e+04 3.391e-09
  5.05285    119.4 1.531e+04 5.104e-09
  5.07114    119.2 1.622e+04 7.400e-09
  5.08191    118.5 1.610e+04 6.853e-09
  5.09592    117.9 1.680e+04 6.918e-09
  5.11228    116.5 1.693e+04 6.282e-09
  5.12155    117.1 1.812e+04 9.203e-09
  5.12673    115.0 1.710e+04 6.751e-09
  5.13900    112.5 1.699e+04 4.911e-09
  5.16054    109.2 1.592e+04 2.619e-09
  5.17154    104.9 1.333e+04 1.143e-09
  5.18231    103.2 1.164e+04 8.607e-10
  5.21448    101.1 1.040e+04 4.777e-10
  5.25060    100.6 9.666e+03 2.976e-10
  5.27214    100.4 9.402e+03 2.430e-10
  5.30073    100.2 9.296e+03 2.227e-10
  5.34024    100.7 9.284e+03 2.233e-10
  5.36178    100.2 9.247e+03 2.235e-10
  5.38688    101.0 9.358e+03 2.453e-10
  5.42987    101.9 9.605e+03 2.881e-10
  5.47295    101.5 9.915e+03 3.524e-10
  5.49613    102.1 1.001e+04 4.134e-10
  5.50680    101.8 1.011e+04 4.248e-10
  5.52668    102.4 1.037e+04 5.113e-10
  5.54085    102.9 1.080e+04 6.342e-10
  5.55162    101.7 1.101e+04 6.262e-10
  5.56976    101.0 1.191e+04 8.451e-10
  5.58566     99.6 1.322e+04 1.291e-09
  5.59297     97.4 1.322e+04 1.290e-09
  5.59860     97.1 1.425e+04 1.981e-09
  5.61283     96.1 1.524e+04 3.098e-09
  5.63048     95.4 1.616e+04 4.633e-09
  5.64125     93.5 1.572e+04 3.669e-09
  5.65591     92.6 1.642e+04 4.595e-09
  5.67530     89.6 1.743e+04 5.255e-09
  5.68602     86.2 1.666e+04 4.253e-09
  5.69350     84.5 1.721e+04 4.698e-09
  5.70299     78.7 2.031e+04 6.416e-09
  5.70838     71.1 2.395e+04 8.428e-09
  5.71504     58.8 2.825e+04 2.463e-08
  5.72540     52.7 2.510e+04 5.944e-08
  5.73079     50.1 2.279e+04 7.522e-08
  5.73658     48.8 2.197e+04 7.901e-08
  5.74735     45.2 2.308e+04 8.336e-08
  5.75319     37.1 2.808e+04 6.823e-08
  5.75858     32.5 3.070e+04 4.900e-08
  5.76888     23.3 3.759e+04 1.478e-08
  5.77560      3.0 2.622e+04 6.053e-09
  5.78099     -7.5 1.766e+04 5.804e-09
  5.79042    -12.5 1.738e+04 5.554e-09
  5.79801    -15.0 1.950e+04 5.540e-09
  5.80340    -15.5 1.989e+04 5.687e-09
  5.81196    -16.5 2.074e+04 5.808e-09
  5.82047    -27.0 1.822e+04 3.442e-09
  5.83129    -31.7 1.549e+04 2.610e-09
  5.84975    -36.2 1.247e+04 1.742e-09
  5.86533    -36.3 1.265e+04 1.551e-09
  5.87610    -37.7 1.258e+04 1.104e-09
  5.89283    -39.4 1.250e+04 8.329e-10
  5.91015    -41.5 1.212e+04 6.630e-10
  5.92092    -44.0 1.120e+04 4.707e-10
  5.93590    -45.2 1.066e+04 5.005e-10
  5.95497    -45.7 1.065e+04 5.844e-10
  5.96574    -46.3 1.053e+04 5.646e-10
  5.97898    -45.6 1.072e+04 6.811e-10
  5.99978    -44.6 1.086e+04 7.743e-10
  6.01055    -44.7 1.086e+04 7.768e-10
  6.02205    -43.5 1.092e+04 8.273e-10
  6.04359    -42.5 1.089e+04 8.337e-10
  6.05537    -41.5 1.070e+04 7.695e-10
  6.06438    -41.3 1.069e+04 7.788e-10
  6.07414    -42.0 1.075e+04 7.485e-10
  6.08667    -41.1 1.061e+04 6.369e-10
  6.10019    -40.6 1.044e+04 5.303e-10
  6.11096    -40.2 1.042e+04 5.388e-10
  6.12974    -39.8 1.026e+04 4.485e-10
  6.14500    -39.6 1.012e+04 3.916e-10
  6.15577    -39.1 1.011e+04 3.970e-10
  6.17282    -39.0 9.973e+03 3.705e-10
  6.18992    -38.7 9.918e+03 3.548e-10
  6.20069    -38.0 1.007e+04 3.881e-10
  6.21590    -37.5 1.006e+04 4.079e-10
  6.24830    -37.0 9.999e+03 4.168e-10
  6.27965    -36.2 1.018e+04 4.779e-10
  6.30119    -35.0 1.041e+04 5.553e-10
  6.33455    -34.4 1.055e+04 5.809e-10
  6.36928    -34.6 1.055e+04 5.452e-10
  6.39082    -32.9 1.072e+04 5.531e-10
  6.42070    -33.6 1.067e+04 5.324e-10
  6.45892    -33.8 1.064e+04 5.753e-10
  6.48045    -32.6 1.071e+04 5.103e-10
  6.50685    -32.5 1.069e+04 5.345e-10
  6.53912    -32.3 1.056e+04 4.495e-10
  6.55918    -32.4 1.180e+04 6.341e-10
  6.56989    -31.6 1.203e+04 6.561e-10
  6.58204    -31.6 1.170e+04 5.480e-10
  6.60358    -31.5 1.149e+04 5.116e-10
  6.61471    -31.6 1.112e+04 4.736e-10
  6.62548    -30.7 1.113e+04 4.372e-10
  6.64665    -30.2 1.102e+04 4.260e-10
  6.65953    -30.1 1.087e+04 4.640e-10
  6.67030    -29.0 1.114e+04 4.061e-10
  6.68973    -28.9 1.131e+04 4.662e-10
  6.70434    -29.1 1.136e+04 5.754e-10
  6.71511    -28.7 1.126e+04 5.331e-10
  6.73281    -28.6 1.146e+04 7.337e-10
  6.74926    -27.8 1.193e+04 1.208e-09
  6.77089    -27.4 1.216e+04 1.173e-09
  6.79407    -26.6 1.267e+04 1.767e-09
  6.80475    -26.4 1.272e+04 1.775e-09
  6.81896    -26.1 1.306e+04 2.210e-09
  6.83879    -25.3 1.385e+04 3.227e-09
  6.84956    -24.9 1.420e+04 3.495e-09
  6.86203    -24.9 1.520e+04 4.581e-09
  6.88357    -24.9 1.633e+04 6.123e-09
  6.90511    -25.3 1.680e+04 8.100e-09
  6.92665    -25.3 1.679e+04 8.818e-09
  6.93920    -25.1 1.670e+04 8.906e-09
  6.94997    -24.6 1.652e+04 8.975e-09
  6.96972    -24.2 1.640e+04 8.102e-09
  6.98401    -24.1 1.604e+04 6.714e-09
  6.99478    -23.6 1.609e+04 6.925e-09
  7.01280    -24.2 1.569e+04 5.893e-09
  7.02523    -24.8 1.520e+04 5.332e-09
  7.03050    -25.5 1.438e+04 3.324e-09
  7.03960    -25.0 1.429e+04 3.273e-09
  7.05588    -25.8 1.397e+04 2.898e-09
  7.07365    -26.3 1.358e+04 2.639e-09
  7.08442    -25.7 1.341e+04 2.580e-09
  7.09895    -25.9 1.299e+04 2.404e-09
  7.11846    -25.9 1.255e+04 2.184e-09
  7.12923    -25.5 1.243e+04 2.254e-09
  7.14203    -25.0 1.207e+04 1.972e-09
  7.16328    -24.6 1.166e+04 1.605e-09
  7.17405    -24.3 1.166e+04 1.565e-09
  7.18510    -24.1 1.136e+04 1.202e-09
  7.20664    -24.1 1.106e+04 8.676e-10
  7.21887    -24.3 1.077e+04 6.308e-10
  7.22964    -23.3 1.063e+04 5.788e-10
  7.24972    -23.3 1.050e+04 4.371e-10
  7.26368    -23.6 1.004e+04 3.325e-10
  7.27445    -23.2 9.909e+03 3.170e-10
  7.29279    -23.0 9.814e+03 2.975e-10
  7.30860    -23.3 9.466e+03 2.826e-10
  7.33023    -22.4 9.656e+03 2.378e-10
  7.36837    -21.1 9.665e+03 2.539e-10
  7.39833    -19.3 9.892e+03 3.231e-10
  7.41987    -18.5 1.003e+04 2.873e-10
  7.45452    -16.6 1.021e+04 3.598e-10
  7.48796    -14.7 1.040e+04 3.993e-10
  7.50211    -14.8 1.071e+04 4.327e-10
  7.51174    -15.5 1.064e+04 6.567e-10
  7.54067    -13.6 1.147e+04 9.878e-10
  7.57288    -12.7 1.210e+04 1.161e-09
  7.58817    -12.2 1.235e+04 1.345e-09
  7.59894    -11.9 1.253e+04 1.498e-09
  7.61586    -12.2 1.288e+04 1.783e-09
  7.63299    -13.0 1.298e+04 2.203e-09
  7.64376    -13.6 1.354e+04 2.617e-09
  7.65894    -14.0 1.371e+04 3.392e-09
  7.67780    -13.3 1.392e+04 4.167e-09
  7.68857    -13.4 1.421e+04 4.630e-09
  7.70201    -12.0 1.440e+04 4.915e-09
  7.72262    -11.1 1.431e+04 4.530e-09
  7.73339    -10.5 1.440e+04 4.006e-09
  7.74509    -10.5 1.439e+04 2.913e-09
  7.76663    -13.5 1.439e+04 2.026e-09
  7.77821    -18.1 1.380e+04 1.477e-09
  7.78897    -22.3 1.315e+04 1.143e-09
  7.80970    -28.9 1.257e+04 1.189e-09
  7.82302    -35.6 1.424e+04 2.488e-09
  7.83379    -37.4 1.539e+04 3.265e-09
  7.85278    -40.3 1.724e+04 5.954e-09
  7.86784    -42.5 1.826e+04 7.651e-09
  7.87861    -43.5 1.827e+04 7.555e-09
  7.89586    -46.8 1.785e+04 6.534e-09
  7.91266    -50.0 1.683e+04 4.603e-09
  7.92343    -50.8 1.661e+04 4.634e-09
  7.93893    -53.0 1.586e+04 3.648e-09
  7.95747    -54.7 1.546e+04 3.168e-09
  7.96824    -55.5 1.641e+04 4.420e-09
  7.97633    -57.4 1.663e+04 4.775e-09
  7.98709    -59.8 1.654e+04 4.945e-09
  8.00229    -60.6 1.688e+04 6.132e-09
  8.01306    -61.3 1.772e+04 1.050e-08
  8.02508    -61.4 1.804e+04 1.412e-08
  8.04662    -60.8 1.838e+04 1.810e-08
  8.05788    -60.2 1.860e+04 2.059e-08
  8.06321    -59.9 1.920e+04 3.350e-08
  8.07345    -59.7 1.877e+04 3.114e-08
  8.08019    -59.6 1.872e+04 2.969e-08
  8.08557    -59.3 1.842e+04 2.736e-08
  8.09498    -59.3 1.850e+04 2.584e-08
  8.10259    -59.3 1.859e+04 2.535e-08
  8.10798    -59.1 1.890e+04 2.141e-08
  8.11652    -59.3 1.894e+04 2.054e-08
  8.12500    -59.4 1.906e+04 1.987e-08
  8.13039    -59.7 1.874e+04 1.421e-08
  8.13806    -60.0 1.844e+04 1.291e-08
  8.14741    -60.1 1.805e+04 1.152e-08
  8.15823    -60.8 1.674e+04 7.515e-09
  8.17585    -60.4 1.602e+04 5.994e-09
  8.19233    -60.0 1.545e+04 4.822e-09
  8.20310    -59.7 1.415e+04 2.764e-09
  8.21892    -59.3 1.384e+04 2.320e-09
  8.23714    -58.9 1.357e+04 2.029e-09
  8.24791    -58.6 1.281e+04 1.378e-09
  8.26200    -58.2 1.252e+04 1.268e-09
  8.28196    -57.5 1.229e+04 1.224e-09
  8.29273    -56.8 1.177e+04 9.258e-10
  8.30508    -56.1 1.174e+04 9.296e-10
  8.32661    -55.5 1.170e+04 9.933e-10
  8.33755    -54.7 1.171e+04 1.079e-09
  8.34831    -53.5 1.131e+04 8.331e-10
  8.36969    -52.9 1.133e+04 8.682e-10
  8.40209    -51.6 1.138e+04 9.597e-10
  8.42737    -49.7 1.148e+04 1.060e-09
  8.44494    -48.3 1.125e+04 9.869e-10
  8.46284    -48.2 1.111e+04 9.588e-10
  8.48834    -46.3 1.112e+04 9.904e-10
  8.51701    -44.4 1.097e+04 9.309e-10
  8.53855    -42.8 1.081e+04 8.244e-10
  8.57450    -40.8 1.066e+04 7.406e-10
  8.60664    -38.9 1.052e+04 6.618e-10
  8.62818    -37.4 1.040e+04 5.405e-10
  8.66065    -35.5 1.033e+04 5.057e-10
  8.69628    -33.5 1.025e+04 4.762e-10
  8.71781    -32.3 1.011e+04 4.444e-10
  8.74680    -30.3 1.003e+04 4.281e-10
  8.78591    -28.2 9.881e+03 3.987e-10
  8.80745    -26.5 9.761e+03 3.708e-10
  8.83295    -24.4 9.643e+03 3.428e-10
  8.87554    -22.5 9.543e+03 3.151e-10
  8.89708    -21.0 9.490e+03 2.910e-10
  8.91910    -19.2 9.402e+03 2.729e-10
  8.96218    -17.5 9.449e+03 2.760e-10
  8.98671    -15.7 9.550e+03 3.000e-10
  9.00825    -14.5 9.355e+03 2.588e-10
  9.04833    -13.1 9.494e+03 2.787e-10
  9.07635    -12.2 9.753e+03 3.592e-10
  9.09789    -10.7 9.424e+03 2.537e-10
