# Columns:
#   distance along LOS (in CHIMPs)
#   peculiar velocity  (in km/s)
#   temperature (K)
#   HI number density
# pos=(230.818,151.649,102.629), angles=(1.4634,5.02714)
  0.01250    115.4 9.125e+03 2.351e-10
  0.04566    115.2 9.319e+03 2.867e-10
  0.07966    114.9 9.563e+03 3.593e-10
  0.10031    114.8 9.611e+03 3.863e-10
  0.12830    114.2 9.852e+03 4.636e-10
  0.16285    113.3 1.001e+04 4.966e-10
  0.18351    113.3 1.003e+04 5.190e-10
  0.20509    112.1 1.004e+04 5.147e-10
  0.22575    111.8 9.958e+03 4.900e-10
  0.25226    110.7 9.827e+03 4.473e-10
  0.29358    110.1 9.600e+03 3.856e-10
  0.33052    109.9 9.397e+03 3.369e-10
  0.35118    110.1 9.287e+03 3.100e-10
  0.37621    109.9 9.172e+03 2.861e-10
  0.41753    110.1 9.171e+03 2.868e-10
  0.45596    110.4 9.225e+03 2.979e-10
  0.47662    110.5 9.123e+03 2.729e-10
  0.50017    110.4 9.254e+03 3.020e-10
  0.53100    110.0 9.501e+03 3.631e-10
  0.55166    109.8 9.361e+03 3.023e-10
  0.57238    109.3 9.698e+03 3.859e-10
  0.59153    108.9 9.926e+03 4.611e-10
  0.60185    108.7 1.003e+04 4.882e-10
  0.61360    108.0 1.042e+04 6.161e-10
  0.63426    107.4 1.068e+04 7.151e-10
  0.66535    106.2 1.117e+04 8.809e-10
  0.70676    103.7 1.145e+04 9.426e-10
  0.74808     99.0 1.180e+04 1.007e-09
  0.78940     94.2 1.223e+04 1.112e-09
  0.83072     88.9 1.249e+04 1.152e-09
  0.85292     83.9 1.240e+04 1.056e-09
  0.87358     83.7 1.228e+04 9.915e-10
  0.89915     79.5 1.183e+04 6.520e-10
  0.91981     79.1 1.136e+04 5.133e-10
  0.95467     75.5 1.068e+04 2.937e-10
  0.97835     72.3 1.012e+04 1.671e-10
  0.99901     72.1 1.005e+04 1.607e-10
  1.03731     69.8 9.722e+03 1.482e-10
  1.07863     68.9 9.690e+03 1.508e-10
  1.10379     68.7 9.652e+03 1.641e-10
  1.12445     68.8 9.715e+03 1.865e-10
  1.16127     68.7 9.658e+03 1.944e-10
  1.20259     68.8 9.624e+03 1.939e-10
  1.22922     69.0 9.528e+03 1.847e-10
  1.24988     69.1 9.507e+03 1.906e-10
  1.26730     69.6 9.363e+03 1.639e-10
  1.28796     70.0 9.467e+03 1.900e-10
  1.32654     70.4 9.329e+03 1.639e-10
  1.35465     70.8 9.181e+03 1.344e-10
  1.37531     70.8 9.216e+03 1.555e-10
  1.40918     71.2 9.100e+03 1.366e-10
  1.45050     71.7 9.004e+03 1.270e-10
  1.48009     72.4 8.943e+03 1.227e-10
  1.50075     72.7 8.988e+03 1.390e-10
  1.53313     73.4 8.934e+03 1.288e-10
  1.57445     74.2 8.889e+03 1.171e-10
  1.60552     74.9 8.847e+03 1.042e-10
  1.62521     75.1 8.843e+03 1.023e-10
  1.63546     75.0 8.805e+03 9.498e-11
  1.65709     75.5 8.750e+03 8.356e-11
  1.69841     76.0 8.717e+03 7.811e-11
  1.73096     76.5 8.704e+03 7.674e-11
  1.75161     76.8 8.708e+03 7.804e-11
  1.78105     77.3 8.747e+03 7.936e-11
  1.82236     77.6 8.834e+03 8.540e-11
  1.85639     77.6 9.031e+03 1.076e-10
  1.87705     77.4 9.218e+03 1.408e-10
  1.90500     77.2 9.571e+03 2.178e-10
  1.94632     76.9 1.003e+04 3.483e-10
  1.97721     76.6 1.027e+04 4.304e-10
  1.99196     76.1 1.049e+04 5.081e-10
  1.99760     75.9 1.056e+04 5.251e-10
  2.00351     75.2 1.039e+04 4.371e-10
  2.01853     74.6 1.069e+04 5.547e-10
  2.03909     73.7 1.091e+04 5.743e-10
  2.05467     72.5 1.094e+04 5.675e-10
  2.06500     71.5 1.088e+04 5.063e-10
  2.08041     70.1 1.085e+04 4.762e-10
  2.10107     68.4 1.075e+04 4.332e-10
  2.11739     67.4 1.061e+04 4.077e-10
  2.12782     67.2 1.048e+04 3.691e-10
  2.15291     65.4 1.031e+04 3.508e-10
  2.19423     63.3 1.020e+04 3.517e-10
  2.23269     61.2 1.018e+04 3.735e-10
  2.25335     61.6 9.879e+03 3.149e-10
  2.27687     60.3 9.865e+03 3.541e-10
  2.31819     58.8 1.003e+04 4.239e-10
  2.35110     56.7 1.042e+04 5.373e-10
  2.37038     55.1 1.081e+04 6.661e-10
  2.37878     56.3 1.053e+04 5.387e-10
  2.40083     53.5 1.113e+04 7.609e-10
  2.44214     50.8 1.153e+04 9.672e-10
  2.48346     48.2 1.173e+04 1.089e-09
  2.52478     47.2 1.174e+04 1.135e-09
  2.56610     44.8 1.164e+04 1.098e-09
  2.60742     42.6 1.138e+04 9.996e-10
  2.62965     41.0 1.092e+04 8.067e-10
  2.65031     42.8 1.057e+04 6.441e-10
  2.69006     41.8 1.002e+04 4.374e-10
  2.71925     41.0 9.474e+03 2.497e-10
  2.73991     40.8 9.420e+03 2.463e-10
  2.75509     39.6 9.032e+03 1.419e-10
  2.77575     41.8 8.968e+03 1.309e-10
  2.81401     40.7 8.874e+03 1.228e-10
  2.85533     39.5 8.911e+03 1.325e-10
  2.88052     38.2 9.112e+03 1.866e-10
  2.90118     40.6 9.209e+03 1.997e-10
  2.93797     39.5 9.583e+03 3.265e-10
  2.97929     38.6 9.768e+03 4.051e-10
  3.00595     37.8 9.712e+03 3.871e-10
  3.02661     39.7 1.007e+04 5.024e-10
  3.06192     38.8 9.857e+03 4.221e-10
  3.08740     37.7 9.522e+03 2.608e-10
  3.10806     36.8 9.792e+03 3.234e-10
  3.13139     34.2 9.714e+03 2.545e-10
  3.15205     35.2 1.024e+04 4.209e-10
  3.18588     32.3 1.018e+04 4.160e-10
  3.22720     30.6 9.947e+03 4.278e-10
  3.25682     30.6 9.783e+03 4.041e-10
  3.27748     31.7 9.743e+03 3.663e-10
  3.30984     31.4 9.392e+03 2.424e-10
  3.35115     30.9 9.218e+03 1.720e-10
  3.38226     30.5 9.243e+03 1.657e-10
  3.40292     31.2 9.117e+03 1.361e-10
  3.43379     30.9 9.287e+03 1.526e-10
  3.45556     30.2 9.776e+03 2.371e-10
  3.47622     29.6 9.035e+03 1.283e-10
  3.50769     29.3 9.467e+03 2.028e-10
  3.52835     30.7 9.267e+03 1.621e-10
  3.55775     30.2 9.734e+03 2.419e-10
  3.59907     29.5 1.026e+04 3.755e-10
  3.63312     28.6 1.061e+04 5.519e-10
  3.65378     30.3 1.056e+04 4.768e-10
  3.68170     29.4 1.096e+04 7.265e-10
  3.72302     28.4 1.146e+04 1.058e-09
  3.75856     27.6 1.181e+04 1.277e-09
  3.77912     28.4 1.221e+04 1.544e-09
  3.80295     27.8 1.219e+04 1.475e-09
  3.82371     28.3 1.261e+04 1.954e-09
  3.84698     27.3 1.251e+04 1.889e-09
  3.88399     26.7 1.201e+04 1.504e-09
  3.90465     28.0 1.175e+04 1.237e-09
  3.92961     27.0 1.130e+04 9.934e-10
  3.97093     26.2 1.113e+04 9.282e-10
  4.00943     25.8 1.102e+04 9.382e-10
  4.03009     27.3 1.113e+04 1.000e-09
  4.05357     27.6 1.102e+04 9.667e-10
  4.09489     28.5 1.064e+04 7.904e-10
  4.13486     29.2 1.021e+04 5.408e-10
  4.15552     31.0 1.021e+04 5.421e-10
  4.17120     31.4 9.816e+03 3.577e-10
  4.19186     32.2 9.521e+03 2.798e-10
  4.21884     32.5 9.475e+03 2.547e-10
  4.26016     32.6 9.573e+03 2.737e-10
  4.30148     34.5 9.848e+03 2.915e-10
  4.34280     32.9 1.114e+04 5.527e-10
  4.38412     31.1 1.211e+04 1.106e-09
  4.40639     29.7 1.239e+04 1.508e-09
  4.42705     31.8 1.252e+04 1.359e-09
  4.45633     30.4 1.278e+04 1.549e-09
  4.46891     29.2 1.271e+04 1.576e-09
  4.47924     30.0 1.261e+04 1.595e-09
  4.50798     27.8 1.273e+04 1.513e-09
  4.53182     24.0 1.284e+04 1.550e-09
  4.54205     26.6 1.384e+04 1.914e-09
  4.54949     23.8 1.359e+04 2.068e-09
  4.55982     25.8 1.380e+04 2.097e-09
  4.58019     23.9 1.330e+04 2.043e-09
  4.59434     22.6 1.265e+04 1.956e-09
  4.60467     23.4 1.316e+04 2.375e-09
  4.62151     23.3 1.248e+04 1.880e-09
  4.64217     22.8 1.215e+04 1.682e-09
  4.65716     21.4 1.178e+04 1.208e-09
  4.67791     21.4 1.202e+04 1.293e-09
  4.71467     18.7 1.159e+04 1.110e-09
  4.75599     18.1 1.111e+04 9.776e-10
  4.78269     18.1 1.050e+04 7.158e-10
  4.80335     18.8 1.003e+04 5.317e-10
  4.83862     17.9 9.671e+03 2.824e-10
  4.87994     16.3 9.420e+03 1.903e-10
  4.90751     14.4 9.826e+03 1.983e-10
  4.91503     16.0 9.259e+03 1.648e-10
  4.92878     15.9 8.812e+03 1.147e-10
  4.96258     13.1 9.920e+03 2.129e-10
  4.99347     11.1 1.033e+04 5.458e-10
  5.01403     11.2 1.102e+04 1.037e-09
  5.03336     11.7 1.186e+04 1.706e-09
  5.04369     12.9 1.152e+04 1.364e-09
  5.05535     13.2 1.220e+04 1.876e-09
  5.07601     13.5 1.246e+04 2.228e-09
  5.09139     13.4 1.229e+04 2.260e-09
  5.10112     13.7 1.250e+04 2.356e-09
  5.10641     14.4 1.251e+04 1.945e-09
  5.12776     13.7 1.214e+04 1.856e-09
  5.15875     13.9 1.181e+04 1.552e-09
  5.16912     12.9 1.204e+04 1.441e-09
  5.17945     13.1 1.172e+04 1.356e-09
  5.19997      9.4 1.324e+04 1.829e-09
  5.22063      5.1 1.479e+04 3.092e-09
  5.23184      3.8 1.486e+04 5.032e-09
  5.24217      4.7 1.514e+04 4.427e-09
  5.26194      5.7 1.525e+04 6.440e-09
  5.27546      6.7 1.504e+04 6.978e-09
  5.28579      7.5 1.554e+04 7.645e-09
  5.29456      8.4 1.494e+04 5.856e-09
  5.30489      8.1 1.476e+04 4.449e-09
  5.32392      7.1 1.372e+04 3.012e-09
  5.34458      4.9 1.257e+04 1.869e-09
  5.37567      2.1 1.130e+04 1.034e-09
  5.40986     -0.2 1.076e+04 7.350e-10
  5.43052      0.3 1.101e+04 8.479e-10
  5.44798     -1.6 1.137e+04 9.527e-10
  5.45954     -3.6 1.201e+04 1.232e-09
  5.46987     -3.8 1.159e+04 9.813e-10
  5.48271     -5.0 1.267e+04 1.358e-09
  5.49304     -7.6 1.363e+04 2.029e-09
  5.50986    -10.1 1.463e+04 3.684e-09
  5.53052    -11.0 1.529e+04 5.920e-09
  5.54543    -11.1 1.596e+04 8.216e-09
  5.55576    -10.3 1.627e+04 1.126e-08
  5.57183    -10.2 1.699e+04 1.249e-08
  5.59249    -11.3 1.725e+04 1.199e-08
  5.60814    -13.1 1.661e+04 8.998e-09
  5.61847    -14.1 1.611e+04 8.371e-09
  5.63328    -16.0 1.499e+04 6.050e-09
  5.64361    -15.7 1.473e+04 5.114e-09
  5.65447    -16.9 1.423e+04 4.271e-09
  5.67086    -17.9 1.425e+04 3.901e-09
  5.68119    -17.4 1.384e+04 2.537e-09
  5.69579    -18.2 1.427e+04 2.212e-09
  5.71645    -19.4 1.483e+04 2.122e-09
  5.73358    -20.6 1.554e+04 2.175e-09
  5.74391    -22.4 1.285e+04 1.014e-09
  5.75777    -24.0 1.309e+04 1.007e-09
  5.77843    -25.9 1.287e+04 1.093e-09
  5.79629    -27.4 1.253e+04 1.276e-09
  5.80662    -28.0 1.136e+04 8.925e-10
  5.81736    -28.7 1.159e+04 1.133e-09
  5.82769    -29.0 1.131e+04 9.453e-10
  5.84041    -29.5 1.152e+04 1.177e-09
  5.85901    -29.7 1.173e+04 1.319e-09
  5.86934    -29.3 1.154e+04 1.228e-09
  5.88172    -29.6 1.175e+04 1.281e-09
  5.90238    -30.0 1.187e+04 1.274e-09
  5.92173    -30.9 1.193e+04 1.119e-09
  5.93206    -30.9 1.221e+04 1.286e-09
  5.94370    -32.2 1.237e+04 1.156e-09
  5.96436    -33.3 1.227e+04 9.904e-10
  5.98445    -34.1 1.190e+04 7.873e-10
  5.99478    -34.5 1.284e+04 1.112e-09
  6.00144    -35.3 1.208e+04 7.395e-10
  6.01177    -36.0 1.170e+04 5.257e-10
  6.02634    -37.6 1.063e+04 3.618e-10
  6.04700    -38.9 9.968e+03 2.948e-10
  6.05759    -39.7 9.734e+03 2.753e-10
  6.06792    -40.3 9.788e+03 3.439e-10
  6.08832    -40.7 9.662e+03 3.315e-10
  6.11940    -41.3 9.521e+03 3.165e-10
  6.16082    -41.8 9.394e+03 2.959e-10
  6.18312    -42.7 9.404e+03 2.941e-10
  6.20378    -43.9 9.298e+03 2.749e-10
  6.24346    -45.7 9.843e+03 3.900e-10
  6.28478    -47.1 1.066e+04 7.116e-10
  6.30856    -47.9 1.120e+04 1.037e-09
  6.32921    -48.1 1.070e+04 8.249e-10
  6.35699    -48.6 1.084e+04 9.199e-10
  6.36959    -49.0 1.073e+04 8.332e-10
  6.37345    -48.8 1.064e+04 7.906e-10
  6.38141    -49.0 1.038e+04 6.982e-10
  6.39821    -49.4 1.016e+04 5.550e-10
  6.41887    -49.9 9.857e+03 4.187e-10
  6.43389    -50.5 9.596e+03 3.133e-10
  6.45465    -50.4 9.407e+03 3.031e-10
  6.49137    -50.6 9.038e+03 1.988e-10
  6.53269    -50.8 8.866e+03 1.484e-10
  6.55942    -50.9 8.850e+03 1.415e-10
  6.58008    -51.1 8.825e+03 1.346e-10
  6.61533    -51.5 9.039e+03 1.515e-10
  6.65664    -51.8 9.372e+03 2.129e-10
  6.68486    -52.0 9.554e+03 2.593e-10
  6.70552    -52.8 9.425e+03 2.355e-10
  6.72761    -53.1 9.384e+03 2.335e-10
  6.74827    -53.0 9.102e+03 1.937e-10
  6.78060    -52.7 8.941e+03 1.408e-10
  6.81029    -52.2 8.789e+03 9.272e-11
  6.83095    -52.2 8.673e+03 7.850e-11
  6.86324    -51.8 8.626e+03 6.158e-11
  6.90456    -50.9 8.608e+03 5.873e-11
  6.93573    -49.9 8.692e+03 6.176e-11
  6.95638    -50.3 8.776e+03 6.222e-11
  6.98719    -49.3 8.869e+03 8.848e-11
  7.02851    -48.0 8.947e+03 1.283e-10
  7.06116    -46.5 9.109e+03 1.796e-10
  7.08182    -46.9 9.074e+03 2.000e-10
  7.09576    -45.7 9.234e+03 2.427e-10
  7.11642    -45.7 9.342e+03 2.691e-10
  7.15247    -44.6 9.529e+03 3.477e-10
  7.18659    -43.4 9.753e+03 4.495e-10
  7.20725    -43.5 9.280e+03 3.016e-10
  7.23510    -42.2 9.324e+03 3.086e-10
  7.27642    -41.0 9.336e+03 3.080e-10
  7.31203    -39.9 9.311e+03 2.825e-10
  7.33269    -40.2 8.768e+03 1.453e-10
  7.35906    -39.4 8.766e+03 1.329e-10
  7.40038    -38.7 8.745e+03 1.263e-10
  7.43746    -37.9 8.689e+03 1.227e-10
  7.45812    -37.9 8.492e+03 1.059e-10
  7.46391    -36.7 8.416e+03 1.034e-10
  7.48457    -36.5 8.310e+03 8.397e-11
  7.52434    -35.0 8.255e+03 7.646e-11
  7.56289    -33.5 8.223e+03 6.417e-11
  7.58355    -33.1 8.107e+03 5.608e-11
  7.60697    -31.8 8.107e+03 4.548e-11
  7.64829    -30.6 8.127e+03 4.152e-11
  7.68833    -29.5 8.209e+03 4.116e-11
  7.70899    -29.5 8.222e+03 3.855e-11
  7.73093    -28.7 8.324e+03 4.982e-11
  7.77225    -27.5 8.349e+03 7.265e-11
  7.81140    -25.7 8.451e+03 9.805e-11
  7.83206    -24.9 8.530e+03 1.110e-10
  7.83442    -23.1 8.637e+03 1.208e-10
  7.85508    -22.9 8.639e+03 1.274e-10
  7.89620    -21.4 8.708e+03 1.164e-10
  7.93752    -20.2 8.750e+03 9.508e-11
  7.95986    -19.2 8.793e+03 8.519e-11
  7.98052    -19.4 8.783e+03 8.436e-11
  8.02016    -19.2 9.063e+03 8.644e-11
  8.06148    -20.3 9.660e+03 1.536e-10
  8.08529    -20.9 1.038e+04 4.058e-10
  8.10595    -22.6 1.087e+04 6.392e-10
  8.13369    -21.8 1.167e+04 1.100e-09
  8.14781    -22.6 1.222e+04 1.484e-09
  8.15814    -23.4 1.235e+04 1.555e-09
  8.17491    -23.3 1.288e+04 1.930e-09
  8.18969    -24.3 1.287e+04 1.950e-09
  8.20002    -24.2 1.282e+04 1.889e-09
  8.21053    -24.7 1.274e+04 1.725e-09
  8.22086    -25.6 1.228e+04 1.263e-09
  8.23689    -26.5 1.207e+04 9.683e-10
  8.25755    -28.0 1.167e+04 7.337e-10
  8.27325    -29.4 1.129e+04 5.971e-10
  8.28358    -30.2 1.086e+04 4.473e-10
  8.29886    -31.0 1.064e+04 3.940e-10
  8.31952    -31.4 1.054e+04 3.645e-10
  8.33596    -31.8 1.052e+04 3.273e-10
  8.35672    -32.5 1.053e+04 2.914e-10
  8.37386    -33.8 1.064e+04 2.672e-10
  8.38409    -33.9 1.071e+04 2.796e-10
  8.39868    -35.8 1.125e+04 3.220e-10
  8.40901    -36.4 1.130e+04 3.365e-10
  8.42282    -39.2 1.143e+04 4.791e-10
  8.44348    -40.3 1.138e+04 7.059e-10
  8.46140    -40.6 1.155e+04 8.775e-10
  8.47173    -40.6 1.157e+04 9.201e-10
  8.48480    -40.6 1.177e+04 9.483e-10
  8.50546    -41.6 1.197e+04 7.953e-10
  8.52411    -43.6 1.164e+04 5.722e-10
  8.53444    -43.7 1.154e+04 5.041e-10
  8.54678    -45.8 1.091e+04 3.813e-10
  8.55784    -46.6 1.079e+04 3.663e-10
  8.56827    -47.1 1.071e+04 3.223e-10
  8.58703    -48.5 1.054e+04 2.897e-10
  8.60768    -48.4 1.009e+04 1.886e-10
  8.63994    -49.7 9.969e+03 1.723e-10
  8.68126    -50.6 9.926e+03 1.742e-10
  8.71246    -51.4 9.937e+03 2.012e-10
  8.73312    -50.9 9.939e+03 1.886e-10
  8.76389    -51.5 1.002e+04 2.427e-10
  8.80521    -52.2 1.006e+04 2.917e-10
  8.83789    -53.0 1.005e+04 3.375e-10
  8.85855    -52.0 1.003e+04 3.349e-10
  8.88785    -52.7 9.946e+03 3.611e-10
  8.91586    -53.2 9.883e+03 3.682e-10
  8.93652    -52.7 1.004e+04 4.166e-10
  8.96333    -53.0 9.811e+03 3.914e-10
  8.98399    -52.1 9.952e+03 4.199e-10
  9.01181    -52.3 9.738e+03 3.662e-10
  9.05312    -52.7 9.472e+03 2.824e-10
  9.08876    -53.3 9.331e+03 2.349e-10
  9.10942    -52.0 9.554e+03 3.155e-10
  9.13576    -52.5 9.532e+03 3.094e-10
  9.17708    -52.9 9.616e+03 3.378e-10
  9.21420    -53.2 9.657e+03 3.704e-10
  9.23485    -52.0 9.984e+03 4.944e-10
  9.25972    -52.0 1.001e+04 5.133e-10
  9.28401    -51.7 9.794e+03 4.413e-10
  9.30467    -51.7 9.349e+03 2.880e-10
  9.33963    -51.3 8.925e+03 1.801e-10
  9.36029    -50.2 9.303e+03 2.334e-10
  9.38367    -49.8 8.858e+03 1.309e-10
  9.42499    -49.2 8.521e+03 7.766e-11
  9.46506    -48.5 8.358e+03 5.487e-11
  9.48572    -48.1 8.553e+03 7.734e-11
  9.50763    -47.2 8.508e+03 6.830e-11
  9.54895    -46.3 8.524e+03 6.717e-11
  9.59027    -45.6 8.730e+03 8.306e-11
  9.61116    -44.8 8.892e+03 1.310e-10
  9.63173    -43.8 9.002e+03 1.941e-10
  9.67282    -42.7 9.321e+03 2.548e-10
  9.71422    -41.8 9.578e+03 3.256e-10
  9.73659    -40.9 9.788e+03 3.966e-10
  9.75725    -40.2 9.903e+03 4.015e-10
  9.79686    -39.3 9.959e+03 4.439e-10
  9.83818    -38.1 9.943e+03 4.534e-10
  9.86202    -36.5 9.732e+03 3.812e-10
  9.88268    -35.9 9.669e+03 2.957e-10
  9.92082    -34.4 9.482e+03 2.252e-10
  9.96213    -33.1 9.328e+03 1.674e-10
  9.98746    -32.0 9.224e+03 1.336e-10
 10.00432    -31.3 9.214e+03 1.537e-10
 10.02031    -31.0 8.938e+03 1.310e-10
 10.04477    -29.2 8.858e+03 1.246e-10
 10.08609    -27.3 8.833e+03 1.187e-10
 10.11289    -25.2 8.833e+03 1.130e-10
 10.13355    -24.1 8.803e+03 1.133e-10
 10.16873    -21.9 8.752e+03 9.908e-11
 10.21005    -19.6 8.733e+03 8.579e-11
 10.23833    -17.3 8.715e+03 7.588e-11
 10.25899    -16.6 8.659e+03 6.061e-11
 10.29268    -14.4 8.627e+03 5.987e-11
 10.33400    -12.0 8.659e+03 6.087e-11
 10.36376     -9.6 8.762e+03 6.582e-11
 10.37691     -9.2 8.740e+03 7.353e-11
 10.38847     -8.5 8.687e+03 6.621e-11
 10.41664     -6.3 8.925e+03 8.841e-11
 10.45796     -4.3 9.167e+03 1.248e-10
 10.48919     -2.1 9.328e+03 1.861e-10
 10.50985     -1.5 9.447e+03 2.595e-10
 10.54059      1.0 9.690e+03 3.529e-10
 10.58191      3.8 9.782e+03 4.004e-10
 10.61463      6.5 9.578e+03 3.393e-10
 10.63529      7.2 9.711e+03 3.494e-10
 10.66455      9.3 9.666e+03 2.227e-10
 10.70587     10.5 9.729e+03 1.376e-10
 10.73596     11.6 9.593e+03 1.233e-10
 10.74949     11.9 9.588e+03 1.260e-10
 10.76072     11.6 9.644e+03 1.621e-10
 10.78851     13.7 9.593e+03 1.652e-10
 10.82983     15.8 9.668e+03 1.717e-10
 10.86550     17.5 9.985e+03 1.898e-10
 10.88616     17.4 1.031e+04 1.913e-10
 10.91246     17.6 1.089e+04 2.842e-10
 10.95378     18.7 1.159e+04 6.511e-10
 10.98467     18.5 1.267e+04 1.062e-09
 11.00106     17.2 1.422e+04 1.933e-09
 11.01139     16.2 1.441e+04 3.252e-09
 11.02589     15.5 1.570e+04 6.011e-09
 11.04655     15.4 1.655e+04 9.598e-09
 11.06378     16.2 1.694e+04 1.286e-08
 11.07411     17.3 1.728e+04 1.431e-08
 11.08787     17.0 1.746e+04 1.404e-08
 11.10392     17.4 1.728e+04 1.163e-08
 11.11425     17.8 1.729e+04 1.151e-08
 11.12650     18.0 1.660e+04 8.053e-09
 11.13683     17.1 1.626e+04 7.028e-09
 11.14985     17.4 1.479e+04 4.624e-09
 11.17051     17.9 1.345e+04 2.953e-09
 11.18921     18.1 1.227e+04 1.626e-09
 11.19954     18.3 1.218e+04 1.556e-09
 11.21183     18.2 1.148e+04 1.147e-09
 11.24170     20.0 1.028e+04 5.526e-10
 11.26246     20.0 1.019e+04 5.068e-10
 11.28433     20.6 8.910e+03 2.349e-10
 11.32565     22.7 8.320e+03 1.545e-10
 11.36697     25.4 8.094e+03 1.258e-10
 11.38789     28.4 8.024e+03 1.192e-10
 11.40855     27.8 7.950e+03 1.131e-10
 11.44960     30.6 7.937e+03 1.184e-10
 11.47226     33.5 7.985e+03 1.349e-10
 11.49292     33.9 7.753e+03 1.019e-10
 11.51332     36.5 7.855e+03 1.228e-10
 11.53398     35.9 7.959e+03 1.395e-10
 11.57356     38.6 8.132e+03 1.743e-10
 11.61488     41.2 8.369e+03 2.175e-10
 11.63876     43.9 8.579e+03 2.536e-10
 11.65942     43.2 8.450e+03 1.908e-10
 11.69752     45.3 8.482e+03 1.789e-10
 11.73884     47.3 8.524e+03 1.730e-10
 11.76419     48.5 8.700e+03 1.873e-10
 11.78485     47.4 8.425e+03 1.456e-10
 11.81976     46.7 8.998e+03 2.422e-10
 11.84042     47.0 8.715e+03 1.949e-10
 11.86279     46.1 9.987e+03 4.963e-10
 11.88953     45.4 1.072e+04 8.024e-10
 11.89976     45.1 1.108e+04 8.428e-10
 11.91424     43.9 1.215e+04 1.333e-09
 11.93490     42.8 1.319e+04 1.983e-09
 11.95215     41.8 1.360e+04 2.224e-09
 11.96248     40.3 1.510e+04 3.814e-09
 11.97622     39.9 1.485e+04 3.583e-09
 11.99688     39.3 1.415e+04 2.818e-09
 12.01397     37.9 1.315e+04 1.954e-09
 12.02162     37.6 1.247e+04 1.548e-09
 12.02519     38.0 1.352e+04 2.299e-09
 12.03820     36.1 1.212e+04 1.430e-09
 12.05886     34.6 1.096e+04 9.992e-10
 12.07758     34.3 1.048e+04 8.269e-10
 12.08791     33.9 1.079e+04 9.488e-10
 12.10018     34.1 1.053e+04 8.166e-10
 12.12084     34.4 1.035e+04 7.345e-10
 12.14030     34.5 1.019e+04 6.799e-10
 12.15063     34.4 1.041e+04 7.816e-10
 12.16216     34.7 1.034e+04 7.676e-10
 12.18281     35.1 1.032e+04 7.649e-10
 12.19804     35.4 1.040e+04 7.535e-10
 12.20791     35.0 9.899e+03 5.852e-10
 12.21335     35.2 1.037e+04 7.961e-10
 12.22413     34.8 1.078e+04 8.480e-10
