# Columns:
#   distance along LOS (in CHIMPs)
#   peculiar velocity  (in km/s)
#   temperature (K)
#   HI number density
# pos=(143.159,0.0835538,59.4834), angles=(1.46223,4.45702)
  0.00688    151.1 1.219e+04 9.320e-10
  0.01770    151.8 1.216e+04 9.215e-10
  0.02287    152.3 1.223e+04 9.366e-10
  0.02909    151.8 1.223e+04 9.024e-10
  0.04423    152.5 1.219e+04 8.741e-10
  0.06453    153.2 1.217e+04 8.498e-10
  0.08484    153.9 1.218e+04 8.297e-10
  0.09720    154.5 1.220e+04 8.158e-10
  0.10735    155.0 1.219e+04 8.116e-10
  0.12545    155.7 1.219e+04 7.972e-10
  0.15600    157.2 1.217e+04 7.863e-10
  0.17679    157.9 1.216e+04 7.946e-10
  0.18685    158.3 1.217e+04 7.944e-10
  0.20044    159.1 1.216e+04 8.006e-10
  0.21059    158.6 1.215e+04 8.008e-10
  0.22698    159.3 1.213e+04 7.999e-10
  0.24604    160.1 1.215e+04 8.011e-10
  0.25629    160.9 1.225e+04 8.243e-10
  0.26768    161.3 1.229e+04 8.327e-10
  0.28789    161.6 1.238e+04 8.398e-10
  0.30820    161.9 1.248e+04 8.465e-10
  0.32554    162.0 1.249e+04 8.394e-10
  0.33570    162.5 1.251e+04 8.384e-10
  0.35906    163.3 1.240e+04 7.278e-10
  0.38213    164.8 1.225e+04 6.382e-10
  0.39776    164.6 1.233e+04 7.654e-10
  0.41539    164.7 1.227e+04 6.934e-10
  0.44038    166.2 1.207e+04 5.475e-10
  0.48099    167.9 1.212e+04 5.302e-10
  0.52160    169.8 1.230e+04 5.860e-10
  0.55408    171.8 1.268e+04 7.456e-10
  0.57439    171.6 1.206e+04 3.858e-10
  0.60282    173.8 1.224e+04 4.378e-10
  0.64343    175.7 1.252e+04 5.019e-10
  0.67379    176.4 1.243e+04 4.499e-10
  0.69400    176.9 1.255e+04 4.980e-10
  0.71289    177.4 1.267e+04 6.412e-10
  0.72304    178.1 1.232e+04 4.214e-10
  0.73461    178.7 1.248e+04 5.660e-10
  0.74494    179.5 1.264e+04 7.604e-10
  0.75509    179.5 1.267e+04 8.212e-10
  0.77522    180.4 1.295e+04 1.083e-09
  0.79239    181.1 1.333e+04 1.421e-09
  0.80254    181.5 1.296e+04 1.057e-09
  0.81583    182.2 1.339e+04 1.419e-09
  0.83614    182.7 1.386e+04 1.900e-09
  0.85644    183.1 1.428e+04 2.485e-09
  0.87189    183.5 1.464e+04 3.123e-09
  0.88204    183.7 1.443e+04 2.586e-09
  0.89705    183.9 1.480e+04 3.188e-09
  0.91628    183.9 1.498e+04 3.555e-09
  0.92644    183.9 1.507e+04 3.688e-09
  0.93767    183.8 1.505e+04 3.658e-09
  0.95139    183.8 1.494e+04 3.519e-09
  0.96154    183.6 1.476e+04 3.099e-09
  0.97828    183.6 1.456e+04 2.890e-09
  0.99858    183.7 1.429e+04 2.565e-09
  1.01889    183.9 1.400e+04 2.205e-09
  1.03089    184.4 1.371e+04 1.859e-09
  1.04104    184.1 1.338e+04 1.605e-09
  1.05950    184.5 1.313e+04 1.389e-09
  1.07980    185.2 1.290e+04 1.241e-09
  1.09778    185.7 1.279e+04 1.195e-09
  1.10794    185.6 1.276e+04 1.226e-09
  1.13066    187.1 1.259e+04 1.166e-09
  1.16978    189.2 1.271e+04 1.229e-09
  1.19008    188.4 1.218e+04 1.082e-09
  1.21198    190.0 1.271e+04 1.407e-09
  1.24234    190.5 1.322e+04 1.749e-09
  1.25923    190.9 1.388e+04 2.328e-09
  1.26939    190.3 1.347e+04 2.081e-09
  1.27928    190.4 1.417e+04 2.833e-09
  1.28944    190.1 1.410e+04 2.872e-09
  1.30316    190.2 1.466e+04 3.721e-09
  1.32347    190.2 1.520e+04 4.639e-09
  1.33873    190.1 1.573e+04 5.581e-09
  1.34889    189.4 1.484e+04 4.149e-09
  1.36408    189.3 1.515e+04 4.530e-09
  1.38438    189.1 1.538e+04 4.768e-09
  1.40469    188.9 1.553e+04 4.855e-09
  1.41823    188.7 1.563e+04 4.864e-09
  1.42839    188.4 1.388e+04 2.772e-09
  1.44530    188.4 1.393e+04 2.793e-09
  1.46078    188.4 1.404e+04 2.852e-09
  1.47094    188.1 1.405e+04 2.845e-09
  1.48591    188.2 1.436e+04 3.113e-09
  1.49773    188.4 1.480e+04 3.591e-09
  1.50789    188.7 1.295e+04 2.007e-09
  1.52652    189.2 1.360e+04 2.444e-09
  1.54683    189.6 1.439e+04 3.159e-09
  1.56708    190.1 1.519e+04 4.253e-09
  1.58739    191.5 1.459e+04 3.396e-09
  1.60774    192.1 1.545e+04 4.813e-09
  1.62805    192.9 1.617e+04 6.477e-09
  1.64228    193.7 1.668e+04 8.080e-09
  1.65066    193.5 1.669e+04 8.189e-09
  1.65673    194.1 1.580e+04 5.401e-09
  1.66866    195.0 1.641e+04 7.289e-09
  1.68897    195.7 1.682e+04 8.695e-09
  1.70927    196.5 1.696e+04 9.167e-09
  1.72608    197.4 1.693e+04 9.035e-09
  1.73623    197.9 1.672e+04 8.554e-09
  1.74988    198.8 1.680e+04 8.598e-09
  1.77019    199.7 1.676e+04 8.431e-09
  1.79049    200.7 1.667e+04 8.097e-09
  1.80558    201.7 1.656e+04 7.765e-09
  1.81573    202.2 1.637e+04 7.400e-09
  1.82378    203.2 1.634e+04 7.323e-09
  1.83393    203.4 1.595e+04 6.582e-09
  1.85141    204.4 1.599e+04 6.637e-09
  1.87172    205.5 1.605e+04 6.765e-09
  1.88508    206.6 1.617e+04 7.018e-09
  1.89523    206.9 1.583e+04 6.317e-09
  1.91233    208.0 1.599e+04 6.565e-09
  1.93263    209.1 1.609e+04 6.671e-09
  1.95294    210.1 1.608e+04 6.609e-09
  1.96458    211.1 1.599e+04 6.306e-09
  1.97473    211.6 1.536e+04 5.069e-09
  1.99355    212.8 1.518e+04 4.605e-09
  2.00528    213.9 1.487e+04 3.930e-09
  2.01543    213.4 1.409e+04 2.787e-09
  2.03393    213.7 1.382e+04 2.315e-09
  2.04408    214.6 1.343e+04 2.217e-09
  2.05446    214.9 1.340e+04 2.005e-09
  2.07477    214.9 1.350e+04 1.880e-09
  2.09508    214.7 1.364e+04 1.898e-09
  2.11343    214.2 1.400e+04 1.994e-09
  2.12358    216.3 1.385e+04 2.013e-09
  2.13569    216.0 1.420e+04 2.247e-09
  2.15599    215.8 1.480e+04 2.586e-09
  2.17630    215.7 1.553e+04 3.335e-09
  2.18678    215.8 1.634e+04 4.422e-09
  2.19326    215.6 1.626e+04 4.350e-09
  2.20308    216.9 1.566e+04 3.581e-09
  2.21691    216.6 1.683e+04 4.978e-09
  2.23209    216.0 1.762e+04 6.356e-09
  2.23766    215.5 1.830e+04 7.890e-09
  2.24273    215.9 1.814e+04 7.537e-09
  2.25234    215.6 1.876e+04 9.317e-09
  2.26250    215.1 1.946e+04 1.207e-08
  2.27233    214.8 2.008e+04 1.562e-08
  2.27741    215.6 1.978e+04 1.339e-08
  2.28280    215.2 2.037e+04 1.682e-08
  2.29296    214.8 2.098e+04 2.143e-08
  2.30311    214.4 2.169e+04 2.688e-08
  2.31208    213.6 2.245e+04 3.217e-08
  2.31716    214.2 2.247e+04 3.203e-08
  2.32341    212.8 2.329e+04 3.383e-08
  2.33357    210.7 2.334e+04 3.313e-08
  2.34372    208.6 2.327e+04 2.996e-08
  2.35183    206.3 2.311e+04 2.523e-08
  2.35691    206.5 2.299e+04 2.450e-08
  2.36311    204.2 2.281e+04 2.026e-08
  2.36818    204.8 2.369e+04 2.431e-08
  2.37418    201.8 2.347e+04 2.015e-08
  2.38433    198.2 2.310e+04 1.723e-08
  2.39158    194.4 2.251e+04 1.479e-08
  2.39666    195.8 2.254e+04 1.438e-08
  2.40464    192.2 2.189e+04 1.292e-08
  2.41479    188.7 2.063e+04 1.123e-08
  2.42494    185.6 1.915e+04 9.374e-09
  2.43133    182.5 1.808e+04 7.480e-09
  2.43641    184.1 1.892e+04 8.822e-09
  2.44525    181.6 1.772e+04 7.157e-09
  2.46052    179.2 1.800e+04 6.559e-09
  2.48088    175.6 1.718e+04 4.341e-09
  2.50077    171.5 1.580e+04 2.342e-09
  2.51093    174.9 1.722e+04 3.819e-09
  2.52149    170.6 1.507e+04 1.769e-09
  2.53963    166.3 1.187e+04 8.931e-10
  2.54978    165.7 1.197e+04 8.998e-10
  2.56210    163.7 1.062e+04 6.926e-10
  2.58027    163.9 1.045e+04 6.563e-10
  2.59043    164.9 1.056e+04 7.115e-10
  2.60271    165.2 1.047e+04 6.928e-10
  2.62302    165.4 1.047e+04 6.818e-10
  2.64332    165.5 1.049e+04 6.694e-10
  2.65977    165.6 1.050e+04 6.576e-10
  2.66993    166.8 1.056e+04 7.192e-10
  2.68393    166.9 1.057e+04 7.023e-10
  2.70424    166.8 1.057e+04 6.913e-10
  2.72113    166.8 1.058e+04 6.906e-10
  2.73128    166.6 1.051e+04 6.614e-10
  2.73927    166.6 1.052e+04 6.635e-10
  2.74943    167.8 1.053e+04 6.738e-10
  2.76515    167.8 1.052e+04 6.604e-10
  2.78546    167.8 1.045e+04 6.340e-10
  2.80577    167.9 1.034e+04 5.937e-10
  2.81877    168.0 1.023e+04 5.536e-10
  2.82893    169.2 1.023e+04 5.547e-10
  2.84638    169.3 1.018e+04 5.349e-10
  2.86668    169.3 1.019e+04 5.348e-10
  2.88699    169.4 1.023e+04 5.448e-10
  2.89827    169.1 1.044e+04 6.017e-10
  2.90376    170.4 1.039e+04 5.915e-10
  2.91278    170.7 1.052e+04 6.397e-10
  2.92760    170.2 1.076e+04 7.610e-10
  2.94790    168.2 1.211e+04 1.289e-09
  2.96762    165.0 1.512e+04 2.850e-09
  2.97777    167.8 1.329e+04 1.851e-09
  2.98851    164.4 1.608e+04 3.930e-09
  3.00882    161.3 1.783e+04 7.231e-09
  3.02913    158.0 1.890e+04 8.967e-09
  3.04712    153.6 1.959e+04 8.645e-09
  3.05727    156.0 1.922e+04 8.147e-09
  3.06461    153.1 1.938e+04 8.315e-09
  3.07471    151.0 1.933e+04 8.084e-09
  3.08403    148.7 1.899e+04 7.343e-09
  3.08910    149.0 1.937e+04 8.518e-09
  3.09185    146.6 1.858e+04 7.180e-09
  3.09692    148.1 1.863e+04 7.493e-09
  3.10517    145.7 1.794e+04 6.794e-09
  3.11533    142.6 1.824e+04 7.132e-09
  3.12548    136.4 2.059e+04 9.491e-09
  3.13160    128.6 2.389e+04 1.917e-08
  3.13667    130.6 2.422e+04 1.818e-08
  3.14578    124.3 2.465e+04 4.598e-08
  3.15594    120.6 2.361e+04 1.002e-07
  3.16609    117.7 2.309e+04 1.389e-07
  3.17135    115.0 2.310e+04 1.351e-07
  3.17496    115.7 2.300e+04 2.108e-07
  3.17985    115.6 2.287e+04 2.068e-07
  3.18639    113.3 2.316e+04 1.718e-07
  3.19655    110.3 2.433e+04 9.575e-08
  3.20602    106.1 2.536e+04 3.762e-08
  3.21110    107.0 2.571e+04 4.812e-08
  3.21685    100.8 2.500e+04 1.656e-08
  3.23213     92.0 1.999e+04 7.496e-09
  3.25248     83.9 1.456e+04 3.706e-09
  3.26562     81.8 1.397e+04 2.659e-09
  3.27578     80.9 1.469e+04 3.287e-09
  3.28562     79.4 1.433e+04 2.604e-09
  3.29577     79.2 1.499e+04 3.494e-09
  3.31340     78.2 1.458e+04 2.961e-09
  3.33371     77.2 1.401e+04 2.480e-09
  3.35401     76.4 1.345e+04 2.118e-09
  3.36512     75.6 1.285e+04 1.814e-09
  3.37527     76.1 1.362e+04 2.395e-09
  3.39462     75.5 1.287e+04 1.925e-09
  3.41493     75.3 1.221e+04 1.535e-09
  3.43447     75.3 1.172e+04 1.262e-09
  3.44462     74.9 1.235e+04 1.543e-09
  3.44712     74.4 1.203e+04 1.346e-09
  3.45728     72.3 1.210e+04 1.341e-09
  3.47584     71.7 1.209e+04 1.294e-09
  3.49615     71.5 1.192e+04 1.337e-09
  3.51397     71.9 1.175e+04 1.343e-09
  3.52412     71.3 1.226e+04 1.745e-09
  3.53676     72.3 1.201e+04 1.649e-09
  3.55707     73.3 1.171e+04 1.439e-09
  3.57737     74.2 1.138e+04 1.180e-09
  3.59347     74.5 1.104e+04 9.288e-10
  3.60362     73.9 1.139e+04 1.085e-09
  3.61798     73.7 1.091e+04 8.208e-10
  3.62862     73.4 1.044e+04 6.550e-10
  3.63878     71.9 1.014e+04 5.957e-10
  3.65859     72.0 9.790e+03 5.223e-10
  3.67297     72.6 9.537e+03 4.664e-10
  3.68312     71.9 9.819e+03 5.727e-10
  3.69920     72.7 9.739e+03 5.534e-10
  3.71951     73.6 9.646e+03 5.209e-10
  3.73982     74.5 9.579e+03 4.999e-10
  3.75247     75.6 9.528e+03 4.543e-10
  3.76262     75.1 9.715e+03 5.539e-10
  3.78043     75.9 9.611e+03 5.133e-10
  3.79997     77.1 9.488e+03 4.401e-10
  3.81012     76.7 9.450e+03 4.134e-10
  3.82104     77.0 9.457e+03 4.045e-10
  3.83206     79.0 9.440e+03 3.774e-10
  3.84222     78.5 9.383e+03 3.814e-10
  3.86165     78.8 9.394e+03 3.759e-10
  3.88195     80.6 9.363e+03 3.655e-10
  3.90131     80.8 9.382e+03 3.680e-10
  3.91146     80.7 9.329e+03 3.635e-10
  3.92256     82.4 9.284e+03 3.611e-10
  3.94287     83.1 9.311e+03 3.660e-10
  3.96318     84.8 9.256e+03 3.656e-10
  3.98081     85.6 9.303e+03 3.768e-10
  3.98895     85.6 9.301e+03 3.908e-10
  3.99162     85.6 9.210e+03 3.545e-10
  4.00379     87.1 9.203e+03 3.630e-10
  4.02409     88.2 9.252e+03 3.795e-10
  4.04440     89.6 9.316e+03 4.043e-10
  4.06031     90.9 9.435e+03 4.413e-10
  4.07046     90.3 9.891e+03 5.551e-10
  4.08501     91.5 1.015e+04 6.503e-10
  4.10531     92.7 1.052e+04 7.575e-10
  4.12562     94.0 1.095e+04 8.945e-10
  4.13981     95.3 1.108e+04 1.041e-09
  4.14996     93.7 1.321e+04 1.636e-09
  4.16297     94.7 1.293e+04 1.898e-09
  4.17312     95.1 1.358e+04 1.989e-09
  4.18653     95.7 1.406e+04 2.503e-09
  4.20684     96.4 1.442e+04 3.174e-09
  4.21931     96.2 1.528e+04 4.440e-09
  4.22946     93.1 1.891e+04 7.667e-09
  4.24233     93.1 1.834e+04 8.429e-09
  4.25243     92.3 1.877e+04 9.235e-09
  4.25870     91.1 1.982e+04 1.284e-08
  4.26015     91.2 1.996e+04 1.299e-08
  4.26404     89.3 2.188e+04 1.424e-08
  4.27274     88.0 2.233e+04 1.604e-08
  4.28289     85.8 2.298e+04 1.984e-08
  4.29304     83.6 2.376e+04 2.306e-08
  4.29871     81.4 2.458e+04 2.576e-08
  4.30379     77.5 2.535e+04 2.542e-08
  4.31335     75.1 2.494e+04 2.675e-08
  4.32350     73.2 2.458e+04 2.616e-08
  4.33339     71.5 2.410e+04 2.419e-08
  4.33846     68.6 2.337e+04 2.257e-08
  4.34380     67.7 2.269e+04 1.966e-08
  4.34945     66.1 2.186e+04 1.683e-08
  4.35452     65.1 2.173e+04 1.938e-08
  4.36811     63.9 2.137e+04 1.546e-08
  4.37831     60.5 1.930e+04 1.308e-08
  4.38959     59.3 1.852e+04 9.593e-09
  4.40989     57.9 1.806e+04 7.247e-09
  4.43020     56.5 1.742e+04 5.699e-09
  4.44766     55.6 1.649e+04 4.855e-09
  4.45781     55.4 1.631e+04 4.702e-09
  4.47081     55.5 1.577e+04 4.247e-09
  4.49112     55.8 1.523e+04 3.889e-09
  4.51142     56.2 1.483e+04 3.632e-09
  4.52597     56.9 1.445e+04 3.399e-09
  4.53155     56.5 1.442e+04 3.227e-09
  4.53731     56.8 1.429e+04 2.926e-09
  4.55203     57.5 1.410e+04 2.934e-09
  4.57234     58.2 1.397e+04 2.968e-09
  4.59264     59.2 1.385e+04 2.946e-09
  4.60666     60.2 1.381e+04 2.889e-09
  4.61681     60.3 1.376e+04 2.738e-09
  4.63325     61.2 1.372e+04 2.754e-09
  4.65356     62.3 1.365e+04 2.638e-09
  4.67387     63.3 1.358e+04 2.528e-09
  4.68616     64.2 1.357e+04 2.378e-09
  4.69631     64.3 1.348e+04 2.322e-09
  4.70747     65.4 1.339e+04 2.148e-09
  4.71762     65.3 1.301e+04 1.804e-09
  4.73478     66.4 1.301e+04 1.741e-09
  4.75509     67.4 1.302e+04 1.670e-09
  4.76566     68.4 1.297e+04 1.582e-09
  4.77581     68.6 1.276e+04 1.437e-09
  4.79570     69.6 1.274e+04 1.377e-09
  4.81600     70.6 1.272e+04 1.318e-09
  4.83500     71.6 1.263e+04 1.246e-09
  4.84516     71.8 1.241e+04 1.140e-09
  4.85661     72.8 1.231e+04 1.083e-09
  4.87692     73.8 1.216e+04 1.048e-09
  4.88897     74.8 1.198e+04 1.028e-09
  4.89912     75.0 1.183e+04 9.209e-10
  4.91450     76.1 1.170e+04 9.155e-10
  4.92466     76.4 1.159e+04 9.027e-10
  4.93784     77.6 1.154e+04 9.065e-10
  4.95814     78.8 1.152e+04 9.169e-10
  4.97845     80.1 1.151e+04 9.335e-10
  4.99400     81.4 1.146e+04 9.416e-10
  5.00416     81.5 1.150e+04 9.590e-10
  5.01906     82.8 1.147e+04 9.745e-10
  5.03936     84.2 1.145e+04 9.824e-10
  5.05967     85.5 1.140e+04 9.775e-10
  5.07047     86.8 1.130e+04 9.520e-10
  5.07415     87.2 1.135e+04 9.280e-10
  5.08366     87.3 1.155e+04 1.017e-09
  5.10028     88.6 1.149e+04 1.007e-09
  5.12058     90.0 1.138e+04 9.649e-10
  5.14089     91.4 1.123e+04 9.061e-10
  5.15300     92.7 1.107e+04 8.388e-10
  5.16316     92.8 1.145e+04 9.719e-10
  5.18150     94.0 1.124e+04 8.932e-10
  5.20181     95.2 1.100e+04 8.196e-10
  5.22211     96.5 1.081e+04 7.620e-10
  5.23250     97.7 1.066e+04 7.142e-10
  5.24205     97.4 1.135e+04 9.360e-10
  5.25197     97.8 1.241e+04 1.293e-09
  5.26272     98.9 1.238e+04 1.311e-09
  5.28303    100.0 1.234e+04 1.330e-09
  5.30185    101.0 1.234e+04 1.354e-09
  5.31200     99.9 1.444e+04 2.516e-09
  5.32364    100.7 1.468e+04 2.805e-09
  5.34394    101.5 1.508e+04 3.207e-09
  5.36425    101.9 1.567e+04 3.759e-09
  5.38135    101.7 1.632e+04 4.457e-09
  5.39150    100.4 1.816e+04 9.459e-09
  5.40486    100.1 1.856e+04 1.111e-08
  5.42331     99.5 1.888e+04 1.256e-08
  5.43347    100.2 1.982e+04 1.673e-08
  5.44547     99.2 1.993e+04 1.704e-08
  5.46085     97.8 2.011e+04 1.732e-08
  5.47100     96.3 2.010e+04 1.640e-08
  5.48608     94.7 2.030e+04 1.625e-08
  5.50639     93.3 2.039e+04 1.597e-08
  5.52669     92.0 2.034e+04 1.500e-08
  5.54035     90.9 2.023e+04 1.308e-08
  5.55050     89.3 1.930e+04 6.197e-09
  5.56730     88.1 1.873e+04 4.810e-09
  5.58761     86.8 1.803e+04 3.620e-09
  5.60481     85.2 1.716e+04 2.776e-09
  5.61496     82.7 1.580e+04 2.080e-09
  5.61985     80.8 1.485e+04 1.903e-09
  5.63000     78.3 1.177e+04 9.384e-10
  5.64853     77.6 1.159e+04 1.090e-09
  5.66883     77.3 1.176e+04 1.190e-09
  5.68914     77.3 1.188e+04 1.200e-09
  5.70944     76.0 1.138e+04 9.202e-10
  5.72975     76.1 1.129e+04 8.700e-10
  5.75005     76.1 1.116e+04 8.056e-10
  5.76870     76.3 1.098e+04 7.235e-10
  5.77885     75.1 1.099e+04 7.267e-10
  5.78631     75.5 1.084e+04 6.475e-10
  5.79646     74.5 1.075e+04 6.071e-10
  5.81097     75.2 1.060e+04 5.375e-10
  5.83128     76.0 1.051e+04 4.841e-10
  5.84820     76.7 1.044e+04 4.391e-10
  5.85835     75.5 1.060e+04 4.967e-10
  5.87189     76.2 1.058e+04 4.559e-10
  5.89219     77.0 1.059e+04 4.500e-10
  5.91250     77.9 1.062e+04 4.557e-10
  5.92770     78.9 1.066e+04 4.731e-10
  5.93785     76.6 1.143e+04 6.838e-10
  5.95311     77.5 1.163e+04 7.807e-10
  5.96781     78.0 1.208e+04 9.541e-10
  5.97796     77.4 1.256e+04 1.080e-09
  5.99372     77.5 1.347e+04 1.465e-09
  6.00720     77.2 1.470e+04 2.126e-09
  6.01735     72.2 1.666e+04 4.989e-09
  6.03433     72.1 1.732e+04 6.734e-09
  6.05463     72.0 1.779e+04 8.166e-09
  6.07494     72.0 1.794e+04 8.824e-09
  6.08670     72.1 1.801e+04 8.862e-09
  6.09685     69.0 1.759e+04 7.292e-09
  6.11555     69.1 1.740e+04 5.762e-09
  6.13586     68.7 1.722e+04 4.135e-09
  6.14931     67.8 1.695e+04 2.850e-09
  6.15934     68.2 1.675e+04 2.377e-09
  6.16620     61.8 1.405e+04 1.038e-09
  6.17647     60.2 1.235e+04 9.641e-10
  6.19677     59.3 1.151e+04 1.020e-09
  6.21708     59.2 1.139e+04 1.151e-09
  6.23554     59.7 1.161e+04 1.365e-09
  6.24570     59.4 1.148e+04 1.259e-09
  6.25769     60.5 1.176e+04 1.445e-09
  6.27799     61.4 1.203e+04 1.569e-09
  6.29830     62.2 1.221e+04 1.563e-09
  6.31504     62.6 1.225e+04 1.471e-09
  6.32520     61.5 1.183e+04 1.099e-09
  6.33081     60.1 1.280e+04 1.500e-09
  6.34096     59.5 1.348e+04 1.640e-09
  6.35409     59.9 1.393e+04 1.860e-09
  6.35977     60.3 1.396e+04 1.888e-09
  6.36485     58.1 1.505e+04 2.346e-09
  6.37435     54.5 2.104e+04 2.503e-09
  6.38450     46.7 3.109e+04 4.355e-09
  6.39444     40.3 3.053e+04 1.601e-08
  6.39952     40.8 2.949e+04 2.313e-08
  6.40481     38.8 2.631e+04 6.455e-08
  6.41496     38.3 2.344e+04 1.646e-07
  6.42146     39.0 2.163e+04 3.384e-07
  6.42654     39.1 2.077e+04 5.951e-07
  6.43419     40.2 2.078e+04 6.577e-07
  6.43927     40.7 2.113e+04 4.838e-07
  6.44542     40.7 2.147e+04 4.002e-07
  6.45557     40.6 2.279e+04 2.177e-07
  6.46572     39.4 2.569e+04 7.694e-08
  6.47394     34.7 3.228e+04 1.879e-08
  6.47902     25.9 3.813e+04 4.225e-09
  6.48603     12.5 2.860e+04 1.850e-09
  6.49618      0.5 1.549e+04 2.263e-09
  6.50633     -1.4 1.459e+04 2.160e-09
  6.51221     -3.9 1.447e+04 3.133e-09
  6.52241     -3.1 1.407e+04 2.604e-09
  6.54197     -3.7 1.407e+04 3.753e-09
  6.55354     -3.2 1.465e+04 4.669e-09
  6.56369     -2.2 1.485e+04 4.755e-09
  6.58258     -2.2 1.474e+04 4.252e-09
  6.60288     -2.5 1.442e+04 3.103e-09
  6.62289     -3.6 1.389e+04 1.802e-09
  6.63304     -4.3 1.385e+04 1.174e-09
  6.64349     -7.4 1.267e+04 7.343e-10
  6.66380     -9.8 1.182e+04 5.645e-10
  6.68366    -11.0 1.138e+04 5.918e-10
  6.69381     -9.7 1.160e+04 6.132e-10
  6.70239    -10.6 1.140e+04 6.695e-10
  6.71254    -10.5 1.114e+04 6.068e-10
  6.72471    -10.6 1.111e+04 7.370e-10
  6.74502    -10.5 1.140e+04 8.474e-10
  6.76532    -10.0 1.155e+04 1.043e-09
  6.78189    -10.0 1.158e+04 1.093e-09
  6.79204    -10.0 1.115e+04 8.208e-10
  6.81619     -9.3 1.071e+04 6.860e-10
  6.85520     -7.7 1.026e+04 5.024e-10
  6.87550     -6.5 1.025e+04 5.061e-10
  6.89751     -5.3 9.905e+03 3.458e-10
  6.93093     -5.3 9.763e+03 2.636e-10
  6.95124     -5.7 9.426e+03 1.981e-10
  6.97873     -5.6 9.519e+03 2.212e-10
  7.01934     -5.1 9.717e+03 3.126e-10
  7.05995     -4.3 1.013e+04 4.444e-10
  7.08993     -3.8 1.066e+04 6.399e-10
  7.11024     -4.5 1.045e+04 5.078e-10
  7.14117     -4.8 1.086e+04 6.270e-10
  7.18178     -5.8 1.128e+04 7.632e-10
  7.21820     -6.9 1.156e+04 9.582e-10
  7.23850     -6.3 1.210e+04 1.104e-09
  7.24883     -7.5 1.226e+04 1.243e-09
  7.25889     -9.5 1.228e+04 1.220e-09
  7.27296    -10.9 1.289e+04 1.440e-09
  7.29327    -12.7 1.369e+04 1.831e-09
  7.31357    -14.6 1.422e+04 2.566e-09
