# Columns:
#   distance along LOS (in CHIMPs)
#   peculiar velocity  (in km/s)
#   temperature (K)
#   HI number density
# pos=(204.853,141.316,10.6285), angles=(3.02901,1.39429)
  0.00037     33.2 1.243e+04 1.546e-09
  0.01058     33.6 1.227e+04 1.451e-09
  0.03023     34.2 1.208e+04 1.329e-09
  0.04989     34.8 1.175e+04 1.076e-09
  0.07947     36.4 1.184e+04 9.418e-10
  0.11888     36.8 1.048e+04 4.303e-10
  0.15819     36.9 9.186e+03 2.517e-10
  0.19750     37.8 8.688e+03 2.085e-10
  0.23681     40.1 8.650e+03 2.096e-10
  0.25820     43.0 8.671e+03 2.169e-10
  0.27786     42.3 8.783e+03 2.335e-10
  0.31544     45.1 8.872e+03 2.594e-10
  0.35475     47.8 9.080e+03 3.012e-10
  0.39406     50.2 9.364e+03 3.553e-10
  0.43337     52.2 9.736e+03 4.270e-10
  0.47268     54.2 1.016e+04 5.180e-10
  0.51199     56.0 1.045e+04 5.975e-10
  0.55130     57.4 1.052e+04 6.382e-10
  0.59062     58.3 1.054e+04 6.784e-10
  0.61160     57.0 1.131e+04 9.036e-10
  0.62133     56.0 1.247e+04 1.463e-09
  0.63956     55.0 1.378e+04 1.968e-09
  0.65921     53.5 1.510e+04 3.043e-09
  0.67887     52.4 1.595e+04 4.700e-09
  0.69853     52.0 1.639e+04 6.528e-09
  0.71818     52.2 1.656e+04 7.632e-09
  0.73784     52.3 1.661e+04 7.582e-09
  0.75749     52.2 1.659e+04 7.095e-09
  0.77715     51.7 1.647e+04 6.123e-09
  0.78825     50.5 1.609e+04 4.947e-09
  0.79808     49.4 1.624e+04 4.915e-09
  0.81646     47.8 1.569e+04 4.343e-09
  0.83612     47.0 1.520e+04 4.083e-09
  0.85577     46.8 1.477e+04 3.712e-09
  0.87543     46.7 1.418e+04 2.867e-09
  0.89508     45.9 1.461e+04 1.753e-09
  0.91474     44.1 1.576e+04 1.560e-09
  0.93439     42.1 1.748e+04 1.805e-09
  0.95405     40.5 1.821e+04 2.596e-09
  0.96500     39.5 1.840e+04 3.728e-09
  0.96986     39.6 1.956e+04 1.057e-08
  0.97852     39.0 1.933e+04 1.220e-08
  0.98835     38.5 1.951e+04 1.540e-08
  0.99818     38.2 1.938e+04 1.706e-08
  1.00801     38.0 1.963e+04 1.911e-08
  1.01783     37.8 1.992e+04 2.206e-08
  1.02766     37.7 2.016e+04 2.421e-08
  1.03749     37.4 2.053e+04 2.592e-08
  1.04732     37.3 2.076e+04 2.506e-08
  1.05327     36.7 2.148e+04 2.421e-08
  1.05819     37.6 2.084e+04 3.745e-08
  1.06697     36.7 2.150e+04 3.516e-08
  1.07680     34.7 2.247e+04 3.596e-08
  1.08663     31.5 2.446e+04 4.089e-08
  1.09646     28.2 2.551e+04 5.613e-08
  1.10628     26.0 2.529e+04 8.467e-08
  1.11611     24.7 2.485e+04 1.192e-07
  1.12594     23.6 2.477e+04 1.343e-07
  1.13577     22.5 2.492e+04 1.230e-07
  1.14165     21.4 2.513e+04 9.351e-08
  1.14656     22.2 2.358e+04 1.853e-07
  1.15542     21.4 2.433e+04 1.264e-07
  1.16359     20.7 2.516e+04 7.411e-08
  1.16851     21.2 2.489e+04 6.717e-08
  1.17508     19.9 2.584e+04 3.958e-08
  1.18491     18.6 2.586e+04 2.293e-08
  1.19473     16.3 2.525e+04 1.392e-08
  1.20953     13.4 2.374e+04 1.009e-08
  1.22923      8.1 1.985e+04 5.915e-09
  1.24889      4.8 1.594e+04 5.104e-09
  1.26854      3.8 1.484e+04 5.433e-09
  1.28820      3.3 1.519e+04 6.126e-09
  1.30785      2.3 1.547e+04 6.101e-09
  1.31849      1.5 1.529e+04 5.108e-09
  1.32832      1.7 1.542e+04 6.137e-09
  1.34716      1.1 1.441e+04 4.026e-09
  1.36682      0.0 1.315e+04 2.279e-09
  1.38648     -2.4 1.181e+04 1.222e-09
  1.41606     -3.9 1.037e+04 5.992e-10
  1.45547     -6.7 9.038e+03 2.496e-10
  1.49478     -6.5 8.713e+03 2.067e-10
  1.53409     -6.5 9.016e+03 2.673e-10
  1.57340     -6.1 9.566e+03 4.258e-10
  1.60279     -5.2 9.867e+03 5.837e-10
  1.62234     -5.0 9.929e+03 6.004e-10
  1.65192     -4.1 9.994e+03 6.260e-10
  1.67218     -2.2 9.557e+03 4.826e-10
  1.69184     -1.8 9.479e+03 4.606e-10
  1.73064     -0.3 9.071e+03 3.006e-10
  1.76996      0.4 8.770e+03 2.090e-10
  1.80927      1.9 8.546e+03 1.912e-10
  1.84858      3.8 8.586e+03 2.029e-10
  1.88789      6.0 8.710e+03 2.329e-10
  1.92720      8.3 8.858e+03 2.664e-10
  1.96651     10.7 8.987e+03 2.981e-10
  2.00582     13.1 9.116e+03 3.354e-10
  2.02568     15.6 9.204e+03 3.658e-10
  2.04533     16.1 8.880e+03 2.689e-10
  2.08445     18.6 8.867e+03 2.645e-10
  2.12376     21.0 8.916e+03 2.704e-10
  2.16307     23.4 9.076e+03 2.902e-10
  2.20238     25.8 9.207e+03 3.098e-10
  2.24169     28.2 9.318e+03 3.265e-10
  2.28100     30.6 9.419e+03 3.408e-10
  2.32032     33.0 9.520e+03 3.543e-10
  2.35952     35.6 9.647e+03 3.704e-10
  2.39883     38.7 9.424e+03 3.204e-10
  2.43825     41.1 9.669e+03 3.653e-10
  2.47756     43.1 9.891e+03 4.113e-10
  2.50695     44.8 1.015e+04 4.825e-10
  2.52650     45.2 1.025e+04 5.103e-10
  2.55609     46.8 1.038e+04 5.221e-10
  2.59550     48.6 1.062e+04 5.954e-10
  2.63481     50.2 1.075e+04 6.712e-10
  2.67412     51.7 1.085e+04 7.262e-10
  2.71301     53.1 1.106e+04 7.715e-10
  2.73267     54.2 1.073e+04 6.240e-10
  2.75274     54.9 1.098e+04 6.945e-10
  2.79205     54.9 1.127e+04 7.995e-10
  2.82144     54.3 1.153e+04 9.782e-10
  2.84100     54.2 1.160e+04 1.048e-09
  2.86065     53.7 1.178e+04 1.189e-09
  2.88031     53.1 1.187e+04 1.286e-09
  2.89939     52.4 1.184e+04 1.274e-09
  2.90922     52.5 1.178e+04 1.238e-09
  2.91962     51.8 1.171e+04 1.213e-09
  2.93927     51.2 1.136e+04 1.024e-09
  2.95893     50.9 1.121e+04 9.522e-10
  2.98851     50.7 1.052e+04 5.993e-10
  3.02792     50.2 9.587e+03 2.708e-10
  3.06651     49.3 8.784e+03 1.167e-10
  3.08616     49.3 8.766e+03 1.129e-10
  3.10654     48.8 8.306e+03 7.264e-11
  3.13673     49.1 8.182e+03 6.982e-11
  3.15638     49.1 8.138e+03 6.718e-11
  3.18517     49.9 8.123e+03 6.787e-11
  3.22448     51.0 8.143e+03 7.451e-11
  3.26379     52.0 8.269e+03 9.313e-11
  3.30310     52.8 8.509e+03 1.267e-10
  3.34241     53.6 8.873e+03 1.822e-10
  3.38172     54.3 9.320e+03 2.606e-10
  3.42000     54.8 9.754e+03 3.527e-10
  3.43966     53.7 9.745e+03 3.531e-10
  3.45042     54.0 9.974e+03 4.182e-10
  3.46998     54.1 1.009e+04 4.728e-10
  3.48963     54.3 1.018e+04 5.113e-10
  3.50929     54.4 1.037e+04 5.391e-10
  3.52894     53.8 1.069e+04 5.696e-10
  3.54860     52.0 1.193e+04 6.433e-10
  3.56826     49.6 1.311e+04 8.732e-10
  3.58791     47.2 1.374e+04 1.358e-09
  3.60638     45.3 1.413e+04 2.175e-09
  3.61621     42.8 1.475e+04 3.387e-09
  3.62722     41.9 1.552e+04 4.516e-09
  3.64688     41.1 1.612e+04 5.340e-09
  3.66653     40.1 1.629e+04 5.300e-09
  3.68619     39.2 1.608e+04 4.665e-09
  3.70585     37.9 1.543e+04 3.451e-09
  3.72550     36.1 1.453e+04 2.262e-09
  3.74516     33.5 1.362e+04 1.496e-09
  3.76481     30.7 1.324e+04 1.355e-09
  3.78313     27.6 1.344e+04 1.488e-09
  3.79296     25.4 1.343e+04 1.584e-09
  3.80412     22.4 1.412e+04 2.499e-09
  3.82378     19.9 1.496e+04 3.918e-09
  3.84344     17.8 1.559e+04 5.164e-09
  3.86309     16.5 1.541e+04 4.589e-09
  3.88275     15.4 1.461e+04 2.929e-09
  3.90240     12.0 1.414e+04 1.323e-09
  3.92206      5.2 1.337e+04 5.316e-10
  3.94171     -1.1 1.127e+04 3.184e-10
  3.95988     -3.3 1.062e+04 3.049e-10
  3.96970     -3.0 1.066e+04 2.719e-10
  3.98103     -3.4 1.070e+04 2.862e-10
  4.00068     -4.7 1.089e+04 3.582e-10
  4.02034     -5.0 1.093e+04 3.718e-10
  4.04992     -5.4 1.095e+04 4.460e-10
  4.08933     -6.2 1.073e+04 4.166e-10
  4.11871     -7.5 1.100e+04 3.673e-10
  4.13278     -8.1 1.098e+04 3.731e-10
  4.14096     -7.9 1.098e+04 3.717e-10
  4.14655     -7.8 1.108e+04 3.626e-10
  4.16795     -9.3 1.063e+04 3.345e-10
  4.20726    -10.0 1.037e+04 2.664e-10
  4.24657    -11.4 1.029e+04 2.138e-10
  4.28588    -12.1 1.004e+04 2.100e-10
  4.32520    -11.7 9.890e+03 2.251e-10
  4.36451    -11.1 9.892e+03 2.408e-10
  4.40382    -11.1 1.030e+04 3.200e-10
  4.43320    -10.7 1.045e+04 3.909e-10
  4.45276    -11.4 1.103e+04 5.026e-10
  4.48039    -11.2 1.113e+04 8.433e-10
  4.50014    -10.4 1.112e+04 6.506e-10
  4.52175     -9.9 1.133e+04 9.900e-10
  4.56106     -9.5 1.148e+04 1.065e-09
  4.60038     -9.3 1.118e+04 8.854e-10
  4.63969     -9.2 1.069e+04 6.728e-10
  4.67900     -8.8 1.021e+04 5.366e-10
  4.71831     -8.0 1.005e+04 4.457e-10
  4.74770     -7.5 1.008e+04 4.039e-10
  4.76725     -7.6 1.016e+04 4.066e-10
  4.78691     -7.5 1.015e+04 4.391e-10
  4.80656     -7.3 1.022e+04 4.732e-10
  4.82622     -7.0 1.026e+04 5.027e-10
  4.84361     -6.4 1.021e+04 5.238e-10
  4.85344     -6.4 1.026e+04 5.104e-10
  4.86553     -5.9 1.031e+04 5.029e-10
  4.88519     -5.6 1.037e+04 4.864e-10
  4.91477     -5.7 1.028e+04 4.309e-10
  4.95418     -5.1 1.003e+04 3.740e-10
  4.99349     -3.8 9.818e+03 2.993e-10
  5.03280     -2.3 9.610e+03 2.312e-10
  5.07211     -0.8 9.439e+03 1.742e-10
  5.10957      0.6 9.323e+03 1.398e-10
  5.12922      1.2 9.375e+03 1.543e-10
  5.15073      2.6 9.316e+03 1.440e-10
  5.18748      4.3 9.336e+03 1.473e-10
  5.20713      4.4 9.154e+03 8.164e-11
  5.22936      6.1 9.225e+03 8.494e-11
  5.26867      7.5 9.401e+03 9.650e-11
  5.30798      8.5 9.661e+03 1.367e-10
  5.34729      9.4 1.001e+04 2.399e-10
  5.38660     10.6 1.050e+04 4.217e-10
  5.42591     11.5 1.102e+04 6.031e-10
  5.46523     12.0 1.135e+04 6.900e-10
  5.50454     12.2 1.143e+04 6.811e-10
  5.54097     12.4 1.129e+04 6.013e-10
  5.56063     12.5 1.122e+04 5.703e-10
  5.58316     12.9 1.101e+04 4.491e-10
  5.62247     13.5 1.084e+04 3.329e-10
  5.66178     14.2 1.066e+04 2.409e-10
  5.70109     14.9 1.054e+04 1.790e-10
  5.74040     15.8 1.041e+04 1.538e-10
  5.77972     17.0 1.036e+04 1.541e-10
  5.81903     18.3 1.039e+04 1.686e-10
  5.85834     19.7 1.052e+04 2.057e-10
  5.89447     21.5 1.068e+04 2.505e-10
  5.91412     21.1 1.053e+04 2.230e-10
  5.93696     23.0 1.054e+04 2.292e-10
  5.97627     25.0 1.050e+04 2.200e-10
  6.01558     26.8 1.044e+04 1.967e-10
  6.05490     28.4 1.041e+04 1.743e-10
  6.09421     29.8 1.042e+04 1.675e-10
  6.13352     31.1 1.046e+04 1.741e-10
  6.17283     32.1 1.056e+04 2.055e-10
  6.21214     33.2 1.072e+04 2.620e-10
  6.24796     34.3 1.082e+04 3.057e-10
  6.26762     34.3 1.061e+04 2.521e-10
  6.29076     35.5 1.057e+04 2.369e-10
  6.33008     36.7 1.042e+04 1.854e-10
  6.36939     37.7 1.026e+04 1.366e-10
  6.40870     38.7 1.013e+04 1.060e-10
  6.44801     39.8 9.979e+03 9.421e-11
  6.48732     41.3 9.918e+03 9.335e-11
  6.52663     43.0 9.912e+03 9.450e-11
  6.56594     44.6 9.912e+03 9.740e-11
  6.60146     46.1 9.919e+03 1.031e-10
  6.62111     46.2 9.847e+03 9.553e-11
  6.64457     47.7 9.879e+03 1.064e-10
  6.68388     49.0 9.941e+03 1.206e-10
  6.72319     50.2 1.005e+04 1.509e-10
  6.76250     51.4 1.035e+04 2.204e-10
  6.80181     52.6 1.066e+04 3.169e-10
  6.83120     53.2 1.090e+04 4.216e-10
  6.85076     53.7 1.127e+04 5.617e-10
  6.87041     53.7 1.182e+04 7.803e-10
  6.89007     53.3 1.247e+04 1.151e-09
  6.90972     52.8 1.311e+04 1.778e-09
  6.92938     52.8 1.371e+04 2.721e-09
  6.94903     53.1 1.435e+04 3.881e-09
  6.96458     53.6 1.469e+04 4.611e-09
  6.97441     53.7 1.468e+04 4.681e-09
  6.98835     54.3 1.460e+04 4.432e-09
  7.00800     55.1 1.433e+04 3.728e-09
  7.02766     55.4 1.400e+04 2.787e-09
  7.04731     55.4 1.363e+04 2.014e-09
  7.06697     54.9 1.323e+04 1.530e-09
  7.08662     54.4 1.280e+04 1.316e-09
  7.10187     54.4 1.258e+04 1.317e-09
  7.11170     54.3 1.198e+04 8.871e-10
  7.12594     54.7 1.198e+04 9.262e-10
  7.14133     55.2 1.211e+04 1.046e-09
  7.15116     55.6 1.189e+04 9.058e-10
  7.16525     56.1 1.211e+04 1.062e-09
  7.18490     56.6 1.236e+04 1.278e-09
  7.20456     57.2 1.264e+04 1.561e-09
  7.22421     57.8 1.292e+04 1.902e-09
  7.24387     58.4 1.318e+04 2.255e-09
  7.26353     59.1 1.341e+04 2.524e-09
  7.28318     59.5 1.358e+04 2.635e-09
  7.30284     59.6 1.370e+04 2.701e-09
  7.31808     59.6 1.382e+04 2.727e-09
  7.32791     60.4 1.351e+04 2.479e-09
  7.34215     60.2 1.367e+04 2.634e-09
  7.36180     59.9 1.392e+04 2.817e-09
  7.38146     59.6 1.409e+04 2.959e-09
  7.40112     59.3 1.411e+04 2.958e-09
  7.42077     59.3 1.396e+04 2.710e-09
  7.44043     59.2 1.357e+04 2.107e-09
  7.46008     58.9 1.306e+04 1.472e-09
  7.47974     57.8 1.254e+04 1.001e-09
  7.49483     56.2 1.189e+04 7.330e-10
  7.50465     57.4 1.228e+04 8.543e-10
  7.51905     55.9 1.154e+04 6.707e-10
  7.53870     55.2 1.104e+04 6.129e-10
  7.55836     55.2 1.092e+04 5.974e-10
  7.57802     55.2 1.086e+04 5.866e-10
  7.59767     55.3 1.079e+04 5.749e-10
  7.61733     55.4 1.070e+04 5.611e-10
  7.63698     55.7 1.062e+04 5.480e-10
  7.65664     56.1 1.057e+04 5.394e-10
  7.67157     56.5 1.056e+04 5.344e-10
  7.68140     56.7 1.064e+04 5.651e-10
  7.69595     57.2 1.061e+04 5.552e-10
  7.71561     57.8 1.059e+04 5.394e-10
  7.73526     58.5 1.053e+04 5.087e-10
  7.75492     59.3 1.046e+04 4.602e-10
  7.77457     60.2 1.044e+04 3.968e-10
  7.79423     60.9 1.060e+04 3.334e-10
  7.81388     60.9 1.093e+04 3.040e-10
  7.83354     60.5 1.130e+04 3.255e-10
  7.84832     58.6 1.263e+04 4.712e-10
  7.85815     56.7 1.295e+04 5.692e-10
  7.87285     52.7 1.547e+04 1.606e-09
  7.89251     50.3 1.697e+04 4.553e-09
  7.91216     49.4 1.803e+04 1.029e-08
  7.92686     48.9 1.928e+04 1.410e-08
  7.93660     47.8 2.029e+04 1.756e-08
  7.94642     44.1 2.184e+04 2.181e-08
  7.95629     39.2 2.425e+04 2.775e-08
  7.96612     33.9 2.517e+04 3.572e-08
  7.97595     29.3 2.387e+04 3.976e-08
  7.98577     26.5 2.198e+04 3.878e-08
  7.99560     24.5 2.070e+04 3.512e-08
  8.00543     23.9 1.992e+04 2.723e-08
  8.01526     23.4 1.936e+04 2.070e-08
  8.02502     22.4 1.830e+04 1.192e-08
  8.03490     23.3 1.765e+04 1.022e-08
  8.04975     21.4 1.621e+04 3.754e-09
  8.06941     16.1 1.369e+04 1.460e-09
  8.09899     15.5 1.178e+04 9.129e-10
  8.13840     16.4 1.071e+04 5.971e-10
  8.17771     18.5 1.069e+04 5.413e-10
  8.20191     20.5 1.081e+04 5.963e-10
  8.21164     20.4 1.071e+04 5.300e-10
  8.22665     20.6 1.074e+04 5.341e-10
  8.24631     22.1 1.067e+04 5.325e-10
  8.26597     22.4 1.065e+04 5.294e-10
  8.29555     23.6 1.067e+04 5.569e-10
  8.33496     25.0 1.057e+04 5.268e-10
  8.36893     25.8 1.045e+04 4.848e-10
  8.38859     25.9 1.035e+04 4.416e-10
  8.41358     26.6 1.028e+04 4.266e-10
  8.45289     27.3 1.017e+04 3.957e-10
  8.49220     27.9 1.003e+04 3.619e-10
  8.53151     28.6 9.888e+03 3.277e-10
  8.57082     29.0 9.862e+03 3.113e-10
  8.61014     29.4 9.887e+03 3.030e-10
  8.64945     29.5 9.944e+03 2.985e-10
  8.68876     29.5 1.006e+04 2.838e-10
  8.72243     28.8 1.032e+04 2.938e-10
  8.74208     29.5 1.120e+04 5.806e-10
  8.76738     28.9 1.137e+04 6.188e-10
  8.80669     27.9 1.121e+04 5.920e-10
  8.84600     26.5 1.092e+04 5.559e-10
  8.88531     25.1 1.082e+04 5.701e-10
  8.92463     23.8 1.092e+04 6.410e-10
  8.96394     22.9 1.110e+04 6.996e-10
  8.99332     21.3 1.149e+04 8.618e-10
  9.01288     20.1 1.174e+04 9.914e-10
  9.03254     18.7 1.206e+04 1.165e-09
  9.05219     17.5 1.222e+04 1.357e-09
  9.07185     16.5 1.212e+04 1.441e-09
  9.08454     16.0 1.187e+04 1.370e-09
  9.08842     15.2 1.213e+04 1.562e-09
  9.09538     15.1 1.210e+04 1.574e-09
  9.11116     15.3 1.145e+04 1.194e-09
  9.13082     15.4 1.090e+04 7.998e-10
  9.15047     14.7 1.060e+04 5.248e-10
  9.17013     13.2 1.030e+04 3.401e-10
  9.19971     10.8 9.750e+03 2.956e-10
  9.23912     11.3 9.201e+03 2.552e-10
  9.27843     12.8 8.915e+03 2.431e-10
  9.31774     14.6 8.766e+03 2.060e-10
  9.35705     16.1 8.655e+03 1.625e-10
  9.39636     17.5 8.476e+03 1.398e-10
  9.42942     19.3 8.403e+03 1.390e-10
  9.44907     20.3 8.308e+03 1.297e-10
  9.47499     22.3 8.290e+03 1.350e-10
  9.51430     24.5 8.293e+03 1.462e-10
  9.55361     26.9 8.272e+03 1.494e-10
  9.59292     29.4 8.238e+03 1.448e-10
  9.63223     31.9 8.169e+03 1.289e-10
  9.67154     34.1 8.104e+03 1.079e-10
  9.71085     36.2 8.056e+03 9.125e-11
  9.75016     38.2 8.058e+03 9.064e-11
  9.78291     40.2 8.065e+03 9.229e-11
  9.80257     41.0 8.168e+03 1.079e-10
  9.82879     43.1 8.184e+03 1.133e-10
  9.86810     45.2 8.212e+03 1.222e-10
  9.90741     47.4 8.251e+03 1.341e-10
  9.94672     49.7 8.290e+03 1.446e-10
  9.98603     52.1 8.305e+03 1.495e-10
 10.02534     54.3 8.332e+03 1.488e-10
 10.06466     56.6 8.347e+03 1.492e-10
 10.10397     58.8 8.373e+03 1.517e-10
 10.13641     61.1 8.425e+03 1.595e-10
 10.15606     61.3 8.424e+03 1.577e-10
 10.18259     63.6 8.518e+03 1.752e-10
 10.22190     66.0 8.654e+03 2.004e-10
 10.26121     68.5 8.801e+03 2.276e-10
 10.30052     71.0 8.933e+03 2.475e-10
 10.33984     73.4 9.033e+03 2.616e-10
 10.37915     75.9 9.085e+03 2.704e-10
 10.41846     78.2 9.139e+03 2.724e-10
 10.45777     80.6 9.192e+03 2.704e-10
 10.48990     82.9 9.255e+03 2.698e-10
 10.50956     82.8 9.071e+03 2.041e-10
 10.53639     85.0 9.098e+03 2.040e-10
 10.57570     87.0 9.176e+03 2.101e-10
 10.61502     89.0 9.310e+03 2.329e-10
 10.65433     90.9 9.474e+03 2.684e-10
 10.69364     92.8 9.687e+03 3.046e-10
 10.73295     94.6 9.795e+03 3.380e-10
 10.77226     96.3 1.001e+04 3.363e-10
 10.81157     97.8 1.002e+04 3.223e-10
 10.84340     99.3 1.003e+04 2.914e-10
 10.86305     99.8 1.010e+04 3.256e-10
 10.89019    101.3 1.016e+04 2.911e-10
 10.92951    102.8 1.017e+04 2.492e-10
 10.96882    103.8 1.020e+04 2.207e-10
 11.00813    104.5 1.019e+04 2.070e-10
 11.04744    104.9 1.022e+04 2.154e-10
 11.06740    105.3 1.030e+04 2.418e-10
 11.08706    104.7 1.017e+04 2.290e-10
 11.12606    105.5 1.031e+04 2.633e-10
 11.16537    106.7 1.040e+04 2.809e-10
 11.19689    108.0 1.040e+04 2.719e-10
 11.21655    107.9 1.079e+04 3.832e-10
 11.24400    109.4 1.073e+04 3.324e-10
 11.28331    111.0 1.064e+04 2.735e-10
 11.32262    112.5 1.054e+04 2.262e-10
 11.36193    114.1 1.041e+04 2.006e-10
 11.40124    115.7 1.031e+04 1.851e-10
 11.44055    117.5 1.021e+04 1.761e-10
 11.47987    119.2 1.018e+04 1.772e-10
 11.51918    121.0 1.015e+04 1.827e-10
 11.55039    122.9 1.015e+04 1.938e-10
 11.57004    122.6 1.028e+04 2.045e-10
 11.59780    124.3 1.027e+04 2.174e-10
 11.63711    125.9 1.029e+04 2.466e-10
 11.67642    127.4 1.036e+04 2.918e-10
 11.71573    128.6 1.047e+04 3.453e-10
 11.75504    129.6 1.054e+04 3.923e-10
 11.79436    130.4 1.057e+04 4.223e-10
 11.83367    131.1 1.059e+04 4.385e-10
 11.87298    131.8 1.058e+04 4.513e-10
 11.90388    132.5 1.061e+04 4.789e-10
 11.92354    132.5 1.084e+04 5.674e-10
 11.95160    133.3 1.082e+04 5.769e-10
 11.99091    134.2 1.084e+04 5.921e-10
 12.03022    135.1 1.086e+04 6.000e-10
 12.06954    136.1 1.087e+04 5.777e-10
 12.10885    136.9 1.090e+04 5.080e-10
 12.14816    137.4 1.093e+04 4.291e-10
 12.18747    137.8 1.095e+04 3.600e-10
 12.22678    138.3 1.085e+04 3.096e-10
 12.25738    138.9 1.075e+04 2.694e-10
 12.27703    139.9 1.256e+04 5.311e-10
 12.30540    140.4 1.291e+04 4.680e-10
 12.34472    140.6 1.347e+04 4.061e-10
 12.38403    140.3 1.383e+04 3.341e-10
 12.42334    139.0 1.325e+04 2.713e-10
 12.46265    137.5 1.173e+04 2.493e-10
 12.50196    136.2 1.104e+04 3.376e-10
 12.53135    135.3 1.099e+04 4.958e-10
 12.55090    134.9 1.126e+04 7.204e-10
 12.57056    134.5 1.182e+04 1.053e-09
 12.59022    134.3 1.238e+04 1.455e-09
 12.60987    134.0 1.283e+04 1.842e-09
 12.62050    133.6 1.310e+04 2.055e-09
 12.63033    133.6 1.351e+04 2.390e-09
 12.64918    132.8 1.345e+04 2.326e-09
 12.66884    132.1 1.327e+04 2.130e-09
 12.68849    131.5 1.300e+04 1.865e-09
 12.70815    130.9 1.277e+04 1.631e-09
 12.72781    130.3 1.273e+04 1.521e-09
 12.74746    129.5 1.287e+04 1.565e-09
 12.76712    128.1 1.351e+04 1.808e-09
 12.78677    126.1 1.476e+04 2.546e-09
 12.79725    124.0 1.606e+04 4.037e-09
 12.80708    123.9 1.673e+04 6.208e-09
 12.82608    122.4 1.778e+04 9.820e-09
 12.84574    121.1 1.844e+04 1.321e-08
 12.86540    119.7 1.886e+04 1.495e-08
 12.88505    118.3 1.883e+04 1.424e-08
 12.90471    116.4 1.863e+04 1.190e-08
 12.92436    113.6 1.820e+04 8.750e-09
 12.94402    109.5 1.736e+04 6.039e-09
 12.96367    104.7 1.603e+04 4.229e-09
 12.97400    100.3 1.455e+04 3.154e-09
 12.98383    100.0 1.452e+04 3.118e-09
 13.00299     96.3 1.357e+04 2.543e-09
 13.02264     92.9 1.347e+04 2.297e-09
 13.04005     89.6 1.352e+04 2.338e-09
 13.04988     90.4 1.332e+04 2.131e-09
 13.06195     87.0 1.344e+04 2.263e-09
 13.08161     84.3 1.348e+04 2.573e-09
