# Columns:
#   distance along LOS (in CHIMPs)
#   peculiar velocity  (in km/s)
#   temperature (K)
#   HI number density
# pos=(81.7227,198.814,113.49), angles=(1.89283,6.18664)
  0.00245    -57.9 9.792e+03 9.618e-11
  0.02559    -56.4 9.697e+03 6.948e-11
  0.06696    -55.1 9.596e+03 5.646e-11
  0.09880    -53.6 9.522e+03 5.357e-11
  0.11447    -53.3 9.521e+03 5.229e-11
  0.12400    -52.8 9.501e+03 4.965e-11
  0.14970    -51.2 9.497e+03 5.208e-11
  0.19108    -49.9 9.486e+03 6.311e-11
  0.22709    -48.5 9.459e+03 8.077e-11
  0.24777    -48.0 9.398e+03 7.897e-11
  0.27382    -46.2 9.328e+03 9.871e-11
  0.31519    -44.4 9.325e+03 1.114e-10
  0.35086    -42.9 9.350e+03 1.115e-10
  0.37154    -42.5 9.347e+03 1.102e-10
  0.39794    -41.2 9.366e+03 1.017e-10
  0.43931    -39.9 9.294e+03 9.272e-11
  0.47462    -38.4 9.201e+03 8.560e-11
  0.49531    -38.1 9.224e+03 8.942e-11
  0.51926    -36.9 9.204e+03 8.307e-11
  0.53994    -36.5 9.180e+03 7.309e-11
  0.56342    -35.2 9.204e+03 7.323e-11
  0.59839    -34.3 9.293e+03 8.337e-11
  0.61908    -34.4 9.308e+03 9.835e-11
  0.64617    -33.4 9.349e+03 1.367e-10
  0.68754    -32.2 9.445e+03 1.863e-10
  0.72216    -31.1 9.523e+03 2.222e-10
  0.74285    -31.1 9.532e+03 2.224e-10
  0.77028    -30.4 9.557e+03 2.173e-10
  0.81166    -29.8 9.504e+03 2.056e-10
  0.84593    -29.3 9.445e+03 2.025e-10
  0.86662    -29.2 9.326e+03 1.846e-10
  0.89440    -28.4 9.191e+03 1.719e-10
  0.93577    -27.5 9.103e+03 1.596e-10
  0.96040    -26.6 9.047e+03 1.436e-10
  0.97365    -25.9 9.344e+03 2.069e-10
  0.99039    -25.6 9.064e+03 1.457e-10
  1.01852    -24.7 9.012e+03 1.343e-10
  1.05989    -24.3 9.086e+03 1.434e-10
  1.09347    -24.3 9.345e+03 1.879e-10
  1.11416    -23.8 9.164e+03 1.640e-10
  1.14263    -24.5 9.871e+03 2.823e-10
  1.16560    -25.8 1.022e+04 3.825e-10
  1.17282    -25.5 1.029e+04 3.845e-10
  1.18078    -25.6 1.041e+04 4.349e-10
  1.19415    -27.2 1.107e+04 6.311e-10
  1.21484    -29.3 1.175e+04 9.285e-10
  1.22739    -31.8 1.242e+04 1.233e-09
  1.23773    -30.3 1.209e+04 1.168e-09
  1.25621    -32.9 1.274e+04 1.300e-09
  1.27690    -35.6 1.244e+04 1.324e-09
  1.28928    -37.2 1.145e+04 1.115e-09
  1.29962    -36.5 1.142e+04 1.103e-09
  1.31827    -36.9 1.078e+04 9.448e-10
  1.33895    -36.9 1.114e+04 5.022e-10
  1.35116    -38.5 1.056e+04 4.030e-10
  1.36150    -37.5 1.064e+04 4.720e-10
  1.38076    -39.0 1.030e+04 2.817e-10
  1.40154    -39.1 1.050e+04 3.340e-10
  1.43224    -40.3 9.431e+03 2.236e-10
  1.46478    -40.0 9.154e+03 1.785e-10
  1.48547    -39.0 9.798e+03 4.021e-10
  1.51498    -38.8 9.660e+03 3.091e-10
  1.55635    -39.0 9.396e+03 2.443e-10
  1.58855    -38.8 9.113e+03 2.321e-10
  1.60924    -37.7 9.378e+03 3.090e-10
  1.63910    -37.2 9.000e+03 2.324e-10
  1.68047    -36.3 8.785e+03 1.913e-10
  1.71232    -36.0 8.881e+03 1.604e-10
  1.73301    -36.0 8.849e+03 1.479e-10
  1.76321    -37.3 9.388e+03 1.759e-10
  1.80132    -39.1 9.510e+03 3.480e-10
  1.82200    -39.1 9.875e+03 4.840e-10
  1.83609    -37.0 1.033e+04 9.220e-10
  1.85678    -36.7 1.004e+04 7.647e-10
  1.88733    -36.8 1.037e+04 5.515e-10
  1.92870    -39.3 1.028e+04 4.741e-10
  1.95986    -40.7 1.020e+04 5.171e-10
  1.98055    -40.9 9.866e+03 4.380e-10
  2.01144    -40.8 9.985e+03 5.300e-10
  2.05282    -40.0 1.006e+04 5.595e-10
  2.08363    -39.6 1.026e+04 5.386e-10
  2.10432    -39.9 9.625e+03 3.207e-10
  2.13556    -39.9 9.802e+03 3.470e-10
  2.17693    -39.2 9.763e+03 4.234e-10
  2.20730    -38.1 9.838e+03 4.336e-10
  2.22799    -37.8 9.906e+03 4.527e-10
  2.24236    -37.1 1.009e+04 4.460e-10
  2.25261    -37.2 9.976e+03 4.029e-10
  2.26909    -36.8 1.008e+04 3.834e-10
  2.27943    -36.8 1.012e+04 4.012e-10
  2.29051    -36.6 1.021e+04 4.406e-10
  2.31120    -37.2 1.087e+04 5.062e-10
  2.33097    -39.5 1.225e+04 8.353e-10
  2.34132    -39.8 1.199e+04 9.079e-10
  2.35257    -42.2 1.324e+04 1.783e-09
  2.37325    -43.7 1.427e+04 3.801e-09
  2.39286    -44.1 1.541e+04 7.097e-09
  2.40320    -44.1 1.514e+04 5.398e-09
  2.41463    -44.5 1.612e+04 7.776e-09
  2.43531    -45.2 1.638e+04 8.443e-09
  2.45249    -46.1 1.566e+04 6.710e-09
  2.46158    -45.6 1.647e+04 8.564e-09
  2.46509    -45.9 1.517e+04 5.539e-09
  2.47668    -46.8 1.457e+04 3.176e-09
  2.49737    -49.2 1.348e+04 1.819e-09
  2.51663    -50.8 1.233e+04 1.179e-09
  2.52697    -50.9 1.168e+04 8.165e-10
  2.53874    -51.1 1.124e+04 6.591e-10
  2.55943    -50.4 1.100e+04 5.404e-10
  2.57851    -49.8 1.090e+04 4.329e-10
  2.59930    -49.1 1.065e+04 3.252e-10
  2.63202    -48.9 1.076e+04 2.838e-10
  2.66292    -48.4 1.059e+04 2.613e-10
  2.68360    -49.2 1.072e+04 3.017e-10
  2.70248    -47.9 1.055e+04 3.014e-10
  2.72316    -47.1 1.044e+04 2.919e-10
  2.75614    -45.7 1.035e+04 2.778e-10
  2.79751    -44.2 1.034e+04 2.448e-10
  2.82625    -43.1 1.030e+04 2.042e-10
  2.84693    -42.5 1.029e+04 2.124e-10
  2.88026    -41.6 1.024e+04 1.943e-10
  2.92163    -40.6 1.014e+04 1.978e-10
  2.95002    -39.4 1.002e+04 2.209e-10
  2.97070    -38.6 1.023e+04 2.481e-10
  3.00437    -37.4 1.028e+04 2.665e-10
  3.04574    -36.4 1.027e+04 2.985e-10
  3.07379    -35.1 1.017e+04 3.318e-10
  3.09073    -34.4 1.029e+04 3.786e-10
  3.10406    -34.8 1.010e+04 3.472e-10
  3.12849    -33.0 9.979e+03 3.202e-10
  3.16986    -31.5 9.806e+03 2.693e-10
  3.19756    -30.3 9.713e+03 2.344e-10
  3.21824    -29.8 1.002e+04 2.921e-10
  3.25260    -28.8 9.911e+03 2.961e-10
  3.29398    -27.7 9.780e+03 2.949e-10
  3.32133    -26.6 9.693e+03 2.759e-10
  3.33157    -26.4 9.876e+03 3.484e-10
  3.34549    -26.3 9.885e+03 3.469e-10
  3.37662    -25.2 1.009e+04 3.989e-10
  3.41809    -24.6 9.948e+03 3.702e-10
  3.44510    -23.9 9.785e+03 3.598e-10
  3.46578    -23.4 9.959e+03 4.254e-10
  3.50084    -22.2 9.764e+03 3.921e-10
  3.52452    -20.9 9.615e+03 3.538e-10
  3.54520    -21.5 9.183e+03 2.405e-10
  3.56887    -20.8 9.271e+03 2.595e-10
  3.58955    -20.2 9.404e+03 2.859e-10
  3.61451    -20.7 9.635e+03 3.539e-10
  3.63055    -21.4 9.821e+03 4.268e-10
  3.64090    -20.9 9.813e+03 4.313e-10
  3.65578    -21.6 1.012e+04 6.657e-10
  3.67647    -21.1 1.026e+04 9.332e-10
  3.69244    -20.0 1.056e+04 1.140e-09
  3.70278    -19.4 1.046e+04 1.088e-09
  3.71784    -19.3 1.071e+04 1.143e-09
  3.73455    -19.9 1.110e+04 1.212e-09
  3.74489    -20.2 1.105e+04 1.077e-09
  3.75432    -21.4 1.108e+04 1.032e-09
  3.76467    -20.8 1.119e+04 1.173e-09
  3.77990    -21.7 1.106e+04 1.085e-09
  3.80059    -23.3 1.082e+04 8.941e-10
  3.81621    -25.9 1.035e+04 7.336e-10
  3.82655    -24.6 1.150e+04 1.012e-09
  3.84196    -27.4 1.046e+04 8.071e-10
  3.86264    -29.7 9.828e+03 7.064e-10
  3.87809    -31.6 1.046e+04 6.989e-10
  3.88844    -32.1 1.136e+04 1.014e-09
  3.90402    -35.0 1.223e+04 1.207e-09
  3.92470    -37.0 1.215e+04 1.516e-09
  3.93998    -37.7 1.158e+04 1.796e-09
  3.94971    -37.1 1.233e+04 2.536e-09
  3.95512    -36.1 1.174e+04 1.843e-09
  3.96607    -35.5 1.174e+04 2.008e-09
  3.98676    -34.7 1.195e+04 2.071e-09
  4.00186    -34.5 1.193e+04 1.794e-09
  4.01221    -34.1 1.231e+04 2.057e-09
  4.02813    -35.1 1.195e+04 1.676e-09
  4.04882    -36.1 1.102e+04 1.254e-09
  4.06375    -36.4 1.025e+04 9.680e-10
  4.07409    -35.8 1.044e+04 1.022e-09
  4.09019    -35.5 9.917e+03 7.896e-10
  4.11088    -35.1 9.459e+03 5.837e-10
  4.12563    -34.9 9.136e+03 4.267e-10
  4.13598    -34.3 9.148e+03 4.276e-10
  4.16269    -34.6 8.828e+03 3.146e-10
  4.18771    -34.6 8.404e+03 2.397e-10
  4.20840    -33.2 8.413e+03 2.392e-10
  4.24553    -32.5 8.290e+03 2.165e-10
  4.28690    -31.9 8.557e+03 2.576e-10
  4.31148    -31.3 8.844e+03 3.680e-10
  4.33217    -30.1 9.042e+03 3.984e-10
  4.36543    -28.6 9.426e+03 5.826e-10
  4.38612    -27.5 9.151e+03 4.936e-10
  4.41102    -25.6 9.602e+03 6.308e-10
  4.43525    -24.8 9.845e+03 5.920e-10
  4.45594    -23.1 9.989e+03 6.778e-10
  4.49376    -22.7 9.968e+03 5.860e-10
  4.53513    -22.6 9.935e+03 5.594e-10
  4.55902    -21.9 9.882e+03 5.781e-10
  4.57971    -20.5 9.823e+03 5.151e-10
  4.61788    -19.8 9.842e+03 5.549e-10
  4.65925    -19.0 9.979e+03 6.073e-10
  4.68279    -18.1 1.011e+04 7.197e-10
  4.70348    -16.7 1.018e+04 7.697e-10
  4.74199    -15.7 1.047e+04 9.034e-10
  4.78337    -15.0 1.078e+04 1.027e-09
  4.80656    -15.4 1.130e+04 1.196e-09
  4.82725    -12.9 1.099e+04 1.065e-09
  4.85567    -14.7 1.168e+04 1.318e-09
  4.86825    -16.1 1.243e+04 1.605e-09
  4.87859    -14.6 1.206e+04 1.426e-09
  4.89694    -16.1 1.241e+04 1.862e-09
  4.91763    -16.4 1.250e+04 2.151e-09
  4.93014    -17.2 1.236e+04 2.138e-09
  4.94048    -16.2 1.221e+04 2.029e-09
  4.95900    -16.3 1.206e+04 1.811e-09
  4.97969    -16.6 1.188e+04 1.397e-09
  4.99202    -17.9 1.182e+04 1.048e-09
  5.00236    -16.7 1.193e+04 1.139e-09
  5.01661    -19.0 1.249e+04 9.616e-10
  5.02695    -17.7 1.121e+04 6.854e-10
  5.04175    -19.6 1.106e+04 5.781e-10
  5.05391    -21.4 1.172e+04 5.981e-10
  5.06425    -20.8 1.244e+04 7.169e-10
  5.08312    -22.7 1.335e+04 9.716e-10
  5.10380    -24.3 1.355e+04 1.325e-09
  5.11579    -25.0 1.372e+04 1.850e-09
  5.12613    -23.7 1.397e+04 2.282e-09
  5.14518    -24.4 1.389e+04 2.783e-09
  5.16586    -25.1 1.356e+04 3.063e-09
  5.17768    -25.5 1.307e+04 2.871e-09
  5.18802    -25.0 1.335e+04 3.223e-09
  5.20723    -25.5 1.310e+04 2.694e-09
  5.22684    -25.6 1.307e+04 2.055e-09
  5.23718    -25.1 1.297e+04 2.215e-09
  5.23956    -25.6 1.320e+04 1.652e-09
  5.24990    -25.3 1.345e+04 1.737e-09
  5.26929    -28.6 1.287e+04 1.071e-09
  5.28998    -31.2 1.185e+04 8.231e-10
  5.30144    -31.6 1.194e+04 8.827e-10
  5.31179    -31.9 1.181e+04 9.153e-10
  5.33135    -32.8 1.174e+04 1.031e-09
  5.35204    -33.2 1.203e+04 1.274e-09
  5.36333    -33.7 1.253e+04 1.651e-09
  5.37367    -33.3 1.259e+04 1.459e-09
  5.39341    -34.5 1.383e+04 1.945e-09
  5.41409    -36.3 1.545e+04 2.776e-09
  5.42521    -38.2 1.674e+04 3.961e-09
  5.43556    -39.2 1.700e+04 3.656e-09
  5.44741    -40.5 1.733e+04 4.905e-09
  5.45775    -40.7 1.858e+04 1.331e-08
  5.47615    -41.5 1.837e+04 1.489e-08
  5.48710    -41.8 1.774e+04 1.488e-08
  5.49744    -42.0 1.773e+04 1.391e-08
  5.51752    -42.1 1.692e+04 1.156e-08
  5.53821    -42.2 1.596e+04 8.350e-09
  5.54898    -42.3 1.496e+04 5.747e-09
  5.55933    -43.3 1.492e+04 5.800e-09
  5.57958    -42.6 1.419e+04 4.253e-09
  5.60027    -42.0 1.363e+04 3.101e-09
  5.61087    -41.3 1.322e+04 2.280e-09
  5.62121    -41.3 1.327e+04 2.409e-09
  5.64164    -40.8 1.302e+04 1.844e-09
  5.65764    -40.5 1.271e+04 1.468e-09
  5.66798    -40.0 1.238e+04 1.389e-09
  5.68301    -39.1 1.208e+04 1.119e-09
  5.70370    -38.3 1.177e+04 8.960e-10
  5.73482    -37.2 1.144e+04 6.963e-10
  5.77603    -35.3 1.097e+04 5.057e-10
  5.79672    -35.0 1.107e+04 4.862e-10
  5.81767    -33.0 1.083e+04 3.454e-10
  5.85904    -31.5 1.051e+04 2.659e-10
  5.89980    -30.2 1.015e+04 2.352e-10
  5.92049    -29.7 1.002e+04 1.980e-10
  5.94178    -28.5 9.716e+03 1.836e-10
  5.98315    -27.2 9.513e+03 1.899e-10
  6.02357    -25.7 9.547e+03 1.935e-10
  6.04426    -25.3 9.526e+03 1.786e-10
  6.06590    -24.0 9.458e+03 1.710e-10
  6.08863    -22.4 9.294e+03 1.532e-10
  6.10932    -21.3 9.491e+03 1.480e-10
  6.14734    -20.4 9.252e+03 1.062e-10
  6.16803    -19.8 9.124e+03 1.322e-10
  6.19001    -18.8 8.959e+03 1.094e-10
  6.23139    -18.0 8.895e+03 1.055e-10
  6.27111    -16.9 8.755e+03 1.340e-10
  6.29180    -15.5 8.740e+03 1.535e-10
  6.31413    -13.5 8.692e+03 1.888e-10
  6.35550    -11.3 8.739e+03 1.999e-10
  6.39488     -9.3 8.797e+03 1.795e-10
  6.41557     -8.8 8.725e+03 1.488e-10
  6.43825     -7.3 8.732e+03 1.293e-10
  6.47962     -6.2 8.595e+03 1.179e-10
  6.50909     -4.9 8.658e+03 1.256e-10
  6.52744     -5.2 8.813e+03 1.182e-10
  6.53934     -4.1 8.663e+03 1.106e-10
  6.56236     -3.6 8.921e+03 1.438e-10
  6.60373     -2.4 8.861e+03 2.237e-10
  6.64242     -0.5 9.071e+03 3.032e-10
  6.66311     -0.1 9.259e+03 2.543e-10
  6.68648      0.1 9.675e+03 3.335e-10
  6.72785     -0.5 1.009e+04 4.811e-10
  6.76619     -1.0 1.056e+04 7.376e-10
  6.78688      0.1 1.050e+04 6.980e-10
  6.81059      0.1 1.086e+04 8.864e-10
  6.85197     -0.1 1.077e+04 8.499e-10
  6.88996      1.0 1.027e+04 5.600e-10
  6.91065      1.5 1.020e+04 5.745e-10
  6.92955      2.1 9.895e+03 2.991e-10
  6.95024      1.2 9.888e+03 2.355e-10
  6.97608     -0.4 9.735e+03 1.561e-10
  7.01373     -1.1 9.458e+03 1.720e-10
  7.03441     -0.7 9.661e+03 2.186e-10
  7.05883     -1.1 9.718e+03 3.352e-10
  7.10020     -0.8 9.975e+03 4.712e-10
  7.13750     -0.6 1.032e+04 6.355e-10
  7.15818     -0.7 1.074e+04 7.281e-10
  7.18294     -1.4 1.098e+04 8.386e-10
  7.22431     -2.5 1.115e+04 9.956e-10
  7.26127     -4.4 1.156e+04 1.259e-09
  7.28195     -5.7 1.189e+04 1.140e-09
  7.29662     -7.0 1.239e+04 1.708e-09
  7.31720     -8.3 1.303e+04 2.127e-09
  7.33330     -9.9 1.318e+04 2.535e-09
  7.34364    -10.0 1.297e+04 2.322e-09
  7.35858    -10.0 1.294e+04 2.463e-09
  7.37050    -10.2 1.304e+04 2.372e-09
  7.38084     -9.1 1.318e+04 3.067e-09
  7.39519     -8.9 1.384e+04 2.683e-09
  7.40553     -8.8 1.338e+04 2.074e-09
  7.42063    -11.5 1.341e+04 1.819e-09
  7.44132    -15.6 1.317e+04 1.756e-09
  7.45707    -18.5 1.331e+04 2.275e-09
  7.46741    -18.4 1.334e+04 2.227e-09
  7.48269    -19.2 1.316e+04 2.948e-09
  7.50338    -18.9 1.314e+04 3.431e-09
  7.51896    -18.5 1.304e+04 3.450e-09
  7.52930    -17.9 1.306e+04 3.588e-09
  7.54475    -17.6 1.323e+04 2.891e-09
  7.56544    -20.2 1.348e+04 1.877e-09
  7.58073    -24.1 1.259e+04 1.191e-09
  7.58579    -21.6 1.309e+04 1.779e-09
  7.59118    -21.4 1.373e+04 1.860e-09
  7.60681    -25.3 1.223e+04 1.171e-09
  7.62749    -27.3 1.105e+04 8.710e-10
  7.64272    -27.9 1.051e+04 7.071e-10
  7.65307    -28.3 1.043e+04 8.149e-10
  7.66887    -28.4 1.000e+04 6.609e-10
  7.68955    -28.4 9.517e+03 4.920e-10
  7.72068    -28.5 8.997e+03 3.320e-10
  7.75635    -28.6 8.188e+03 1.522e-10
  7.77703    -27.6 8.146e+03 1.466e-10
  7.79115    -27.8 7.989e+03 1.019e-10
  7.81184    -27.5 8.024e+03 9.628e-11
  7.84489    -27.5 7.946e+03 8.188e-11
  7.88012    -27.5 8.054e+03 8.308e-11
  7.90080    -27.1 8.059e+03 7.284e-11
  7.92764    -27.4 8.322e+03 9.875e-11
  7.96901    -27.5 8.478e+03 1.549e-10
  8.00389    -27.2 8.665e+03 2.123e-10
  8.02457    -26.6 8.587e+03 1.867e-10
  8.05175    -26.5 8.710e+03 2.100e-10
  8.09312    -26.5 8.721e+03 2.127e-10
  8.12766    -26.4 8.638e+03 1.919e-10
  8.14834    -25.7 8.650e+03 1.703e-10
  8.17587    -25.3 8.500e+03 1.455e-10
  8.21161    -24.7 8.418e+03 1.247e-10
  8.23229    -24.6 8.429e+03 1.308e-10
  8.25143    -23.7 8.439e+03 1.187e-10
  8.27211    -23.2 8.447e+03 1.138e-10
  8.29998    -22.1 8.409e+03 1.070e-10
  8.34136    -20.6 8.363e+03 9.908e-11
  8.37519    -18.8 8.330e+03 8.913e-11
  8.39588    -18.2 8.243e+03 7.595e-11
  8.42410    -16.4 8.238e+03 5.916e-11
  8.46547    -14.5 8.247e+03 4.612e-11
  8.49896    -12.7 8.272e+03 3.635e-11
  8.51965    -12.6 8.049e+03 3.205e-11
  8.54822    -10.8 8.160e+03 2.802e-11
  8.58959     -9.2 8.305e+03 2.734e-11
  8.62273     -7.9 8.511e+03 3.202e-11
  8.64342     -7.6 8.539e+03 3.345e-11
  8.65275     -5.9 8.433e+03 4.915e-11
  8.67344     -5.6 8.439e+03 4.632e-11
  8.71370     -3.6 8.674e+03 7.415e-11
  8.74650     -2.7 9.259e+03 1.188e-10
  8.76719     -4.1 9.750e+03 1.859e-10
  8.79645     -4.0 1.015e+04 4.810e-10
  8.83782     -1.6 1.071e+04 1.124e-09
  8.87027      0.6 1.160e+04 1.645e-09
  8.89096      0.3 1.137e+04 1.469e-09
  8.92056      0.7 1.144e+04 1.267e-09
  8.96194     -0.4 1.129e+04 1.099e-09
  8.99404     -0.9 1.135e+04 1.055e-09
  9.01473     -2.6 1.022e+04 4.893e-10
  9.04468     -3.2 1.021e+04 4.631e-10
  9.07321     -4.0 1.004e+04 5.505e-10
  9.09389     -4.0 1.024e+04 6.911e-10
  9.11781     -2.5 1.006e+04 8.310e-10
  9.13850     -2.7 1.012e+04 8.332e-10
  9.16880     -0.8 1.043e+04 9.677e-10
  9.21017      0.1 1.067e+04 9.107e-10
  9.24158     -0.3 1.063e+04 8.075e-10
  9.26227      0.4 1.045e+04 8.761e-10
  9.29291      1.2 1.037e+04 9.081e-10
  9.33428      2.0 1.059e+04 9.739e-10
  9.36535      2.8 1.062e+04 1.051e-09
  9.38604      3.1 1.055e+04 9.184e-10
  9.41703      3.9 1.053e+04 9.756e-10
  9.45840      5.0 1.018e+04 8.181e-10
  9.48912      5.5 9.637e+03 5.806e-10
  9.50370      6.1 9.994e+03 7.731e-10
  9.51425      6.2 9.897e+03 7.541e-10
  9.53061      6.5 9.646e+03 5.614e-10
  9.55081      6.4 9.356e+03 4.977e-10
  9.56115      6.8 9.496e+03 5.499e-10
  9.57198      6.6 9.351e+03 4.114e-10
  9.59266      6.4 9.214e+03 3.898e-10
  9.61279      5.0 9.184e+03 3.018e-10
  9.63358      3.8 9.790e+03 4.425e-10
  9.66526      3.0 9.594e+03 4.799e-10
  9.70663      2.9 9.555e+03 4.146e-10
  9.73666      2.9 9.350e+03 4.064e-10
  9.75735      3.5 9.138e+03 2.761e-10
  9.78938      3.0 9.248e+03 2.366e-10
  9.83075     -0.2 1.027e+04 4.155e-10
  9.86043     -1.2 1.116e+04 1.135e-09
  9.88112     -0.9 1.090e+04 9.093e-10
  9.90305      1.0 1.120e+04 1.647e-09
  9.92212      2.8 1.166e+04 1.875e-09
  9.93246      2.3 1.192e+04 1.897e-09
  9.93461      2.5 1.357e+04 1.601e-09
  9.94496      3.1 1.350e+04 1.941e-09
  9.96501      1.5 1.467e+04 1.920e-09
  9.98400     -0.8 1.358e+04 1.918e-09
  9.99435     -0.8 1.357e+04 2.371e-09
 10.00638     -1.6 1.248e+04 2.050e-09
 10.02707     -1.5 1.240e+04 1.939e-09
 10.04589     -1.9 1.307e+04 1.881e-09
 10.05623     -2.2 1.296e+04 1.481e-09
 10.06844     -3.9 1.255e+04 1.328e-09
 10.08913     -5.6 1.208e+04 1.264e-09
 10.10777     -6.4 1.216e+04 1.376e-09
 10.11812     -6.8 1.147e+04 7.595e-10
 10.13050     -7.6 1.189e+04 8.307e-10
 10.14484     -8.5 1.241e+04 1.067e-09
 10.15519     -9.2 1.297e+04 1.142e-09
 10.16966    -10.3 1.279e+04 1.411e-09
 10.18000    -10.1 1.225e+04 1.001e-09
 10.19256    -10.1 1.233e+04 1.264e-09
 10.21324    -10.0 1.209e+04 1.463e-09
 10.23154     -9.0 1.191e+04 1.564e-09
 10.24189     -8.7 1.151e+04 9.450e-10
 10.25462     -8.2 1.141e+04 9.186e-10
 10.27530     -7.4 1.143e+04 8.482e-10
 10.29343     -7.3 1.153e+04 7.414e-10
 10.30377     -7.5 1.108e+04 5.849e-10
 10.31667     -8.4 1.120e+04 5.135e-10
 10.33736     -9.1 1.124e+04 5.101e-10
 10.35507     -9.5 1.133e+04 5.696e-10
 10.36268     -9.7 1.075e+04 4.752e-10
 10.37610     -8.8 1.021e+04 3.666e-10
 10.40996     -7.8 1.041e+04 5.456e-10
 10.45133     -6.3 1.096e+04 6.776e-10
 10.47918     -5.8 1.135e+04 6.324e-10
 10.48943     -5.9 1.123e+04 6.649e-10
 10.50285     -6.2 1.136e+04 6.780e-10
 10.52353     -6.4 1.178e+04 7.215e-10
 10.54097     -7.5 1.194e+04 8.471e-10
 10.55131     -7.1 1.201e+04 9.337e-10
 10.56491     -7.9 1.231e+04 1.205e-09
 10.57564     -8.7 1.263e+04 1.576e-09
 10.58599     -8.7 1.292e+04 1.798e-09
 10.60285     -9.3 1.317e+04 2.109e-09
 10.61320    -10.0 1.339e+04 2.322e-09
 10.62696    -10.4 1.350e+04 2.536e-09
 10.64765    -11.1 1.373e+04 2.599e-09
 10.66474    -13.4 1.455e+04 2.632e-09
 10.67508    -13.3 1.417e+04 2.547e-09
 10.68902    -17.2 1.543e+04 2.575e-09
 10.70971    -21.3 1.612e+04 3.042e-09
 10.72662    -24.2 1.579e+04 3.741e-09
 10.73697    -23.6 1.518e+04 2.901e-09
 10.75108    -25.4 1.463e+04 3.154e-09
 10.77176    -26.7 1.408e+04 3.067e-09
 10.78587    -27.7 1.358e+04 2.611e-09
 10.79227    -25.7 1.358e+04 2.207e-09
 10.79885    -25.4 1.326e+04 1.847e-09
 10.82358    -26.2 1.283e+04 1.701e-09
 10.85059    -26.7 1.207e+04 1.435e-09
 10.87127    -25.3 1.188e+04 1.339e-09
 10.90642    -25.1 1.146e+04 1.156e-09
 10.94779    -24.7 1.088e+04 7.870e-10
 10.97436    -24.4 1.017e+04 4.615e-10
 10.99504    -23.9 1.052e+04 6.184e-10
 11.03054    -23.7 9.956e+03 4.178e-10
 11.07191    -23.0 9.728e+03 3.613e-10
 11.09813    -22.2 9.644e+03 3.526e-10
 11.11881    -21.7 9.780e+03 4.069e-10
 11.15465    -20.8 9.723e+03 4.107e-10
 11.19602    -19.7 9.728e+03 4.267e-10
 11.22190    -18.7 9.679e+03 4.237e-10
 11.24258    -18.1 9.679e+03 3.697e-10
 11.27877    -16.7 9.472e+03 3.150e-10
 11.32014    -15.4 9.241e+03 2.577e-10
 11.34567    -14.2 9.145e+03 2.249e-10
 11.36635    -13.8 9.300e+03 2.277e-10
 11.40288    -13.1 9.356e+03 2.256e-10
