# Columns:
#   distance along LOS (in CHIMPs)
#   peculiar velocity  (in km/s)
#   temperature (K)
#   HI number density
# pos=(11.7154,255.947,159.801), angles=(1.41644,4.69798)
  0.00575    -20.7 1.165e+04 1.160e-09
  0.02139    -20.5 1.160e+04 1.114e-09
  0.04116    -20.3 1.139e+04 1.043e-09
  0.06092    -20.2 1.141e+04 1.014e-09
  0.07332    -20.2 1.137e+04 9.659e-10
  0.08320    -20.2 1.095e+04 7.191e-10
  0.10046    -19.8 1.094e+04 7.252e-10
  0.12023    -19.4 1.095e+04 7.368e-10
  0.14000    -18.7 1.093e+04 7.438e-10
  0.15977    -18.0 1.092e+04 7.379e-10
  0.17953    -17.4 1.091e+04 7.215e-10
  0.19614    -16.7 1.086e+04 6.895e-10
  0.20602    -16.5 1.075e+04 6.425e-10
  0.21907    -15.8 1.068e+04 6.195e-10
  0.23884    -15.0 1.059e+04 5.847e-10
  0.25861    -14.1 1.050e+04 5.492e-10
  0.28836    -13.3 1.050e+04 5.397e-10
  0.32799    -11.2 1.044e+04 5.222e-10
  0.35755     -9.1 1.044e+04 5.383e-10
  0.37722     -8.1 1.048e+04 5.443e-10
  0.39699     -7.0 1.052e+04 5.627e-10
  0.41675     -5.9 1.048e+04 5.664e-10
  0.43652     -4.6 1.043e+04 5.676e-10
  0.45167     -3.8 1.061e+04 6.094e-10
  0.46156     -4.1 1.069e+04 6.766e-10
  0.47606     -7.0 1.247e+04 9.759e-10
  0.49583    -12.5 1.643e+04 2.517e-09
  0.51560    -16.7 1.875e+04 7.318e-09
  0.53536    -19.2 2.018e+04 1.678e-08
  0.55014    -20.7 2.075e+04 2.465e-08
  0.55998    -21.5 2.083e+04 2.505e-08
  0.56986    -22.4 2.053e+04 2.225e-08
  0.57934    -23.2 2.030e+04 1.832e-08
  0.58433    -22.6 1.993e+04 1.660e-08
  0.58968    -25.8 1.825e+04 1.040e-08
  0.59951    -26.5 1.761e+04 7.968e-09
  0.60940    -32.1 1.481e+04 4.177e-09
  0.61928    -34.4 1.391e+04 3.176e-09
  0.62917    -37.1 1.317e+04 2.389e-09
  0.63905    -37.6 1.331e+04 2.337e-09
  0.65392    -39.7 1.403e+04 2.028e-09
  0.67374    -41.7 1.417e+04 1.638e-09
  0.69351    -42.7 1.436e+04 1.502e-09
  0.70720    -43.2 1.468e+04 1.517e-09
  0.71709    -42.0 1.113e+04 7.086e-10
  0.73305    -41.9 1.135e+04 7.087e-10
  0.75281    -41.8 1.133e+04 7.326e-10
  0.77258    -42.0 1.180e+04 8.779e-10
  0.79235    -42.3 1.282e+04 1.198e-09
  0.81212    -42.6 1.392e+04 1.835e-09
  0.83003    -42.8 1.510e+04 3.010e-09
  0.83991    -43.2 1.408e+04 2.381e-09
  0.85166    -43.2 1.573e+04 4.076e-09
  0.87142    -42.3 1.704e+04 6.442e-09
  0.88620    -40.8 1.766e+04 7.862e-09
  0.89604    -40.9 1.796e+04 8.528e-09
  0.90123    -40.8 1.892e+04 1.094e-08
  0.90617    -40.8 1.803e+04 8.829e-09
  0.91581    -41.2 1.872e+04 1.023e-08
  0.92569    -41.3 1.948e+04 1.199e-08
  0.93557    -41.4 2.020e+04 1.367e-08
  0.94546    -41.4 2.093e+04 1.527e-08
  0.95534    -41.4 2.142e+04 1.603e-08
  0.96264    -41.5 2.169e+04 1.557e-08
  0.97257    -43.4 1.990e+04 9.344e-09
  0.98596    -43.3 1.900e+04 7.365e-09
  0.99585    -41.9 1.787e+04 5.936e-09
  1.00980    -42.2 1.713e+04 4.401e-09
  1.02957    -42.1 1.623e+04 3.214e-09
  1.04934    -42.1 1.512e+04 2.126e-09
  1.06911    -42.1 1.406e+04 1.393e-09
  1.08556    -42.1 1.303e+04 9.291e-10
  1.09544    -44.0 1.072e+04 4.928e-10
  1.10864    -43.5 1.042e+04 4.244e-10
  1.12841    -42.7 1.019e+04 3.815e-10
  1.14818    -41.7 1.003e+04 3.520e-10
  1.16795    -40.4 9.954e+03 3.330e-10
  1.18772    -39.0 9.980e+03 3.213e-10
  1.20749    -37.7 1.007e+04 3.159e-10
  1.21836    -36.4 1.025e+04 3.058e-10
  1.23823    -36.6 9.769e+03 2.593e-10
  1.27687    -33.7 9.612e+03 2.142e-10
  1.31641    -30.9 9.530e+03 1.791e-10
  1.35594    -28.1 9.489e+03 1.559e-10
  1.39548    -25.4 9.501e+03 1.514e-10
  1.43502    -23.0 9.658e+03 1.579e-10
  1.46411    -21.0 9.872e+03 1.944e-10
  1.48388    -22.0 1.005e+04 2.315e-10
  1.51409    -20.0 1.037e+04 2.934e-10
  1.54364    -17.4 1.052e+04 3.412e-10
  1.56332    -17.3 1.076e+04 4.010e-10
  1.58308    -16.3 1.120e+04 5.442e-10
  1.59662    -15.9 1.147e+04 6.425e-10
  1.60651    -17.4 1.198e+04 7.601e-10
  1.62262    -16.6 1.252e+04 9.722e-10
  1.64239    -16.5 1.279e+04 1.158e-09
  1.66216    -16.0 1.316e+04 1.408e-09
  1.68193    -15.8 1.335e+04 1.600e-09
  1.70169    -15.5 1.351e+04 1.824e-09
  1.71944    -15.3 1.360e+04 1.998e-09
  1.72933    -15.8 1.291e+04 1.624e-09
  1.74123    -15.0 1.284e+04 1.607e-09
  1.76100    -14.2 1.281e+04 1.559e-09
  1.78077    -13.3 1.283e+04 1.478e-09
  1.80054    -12.4 1.287e+04 1.341e-09
  1.82030    -11.6 1.290e+04 1.152e-09
  1.84007    -11.0 1.294e+04 9.542e-10
  1.85215    -10.7 1.284e+04 7.662e-10
  1.86204    -12.9 1.217e+04 2.549e-10
  1.87961    -12.6 1.162e+04 2.533e-10
  1.89938    -12.1 1.123e+04 2.878e-10
  1.91915    -11.4 1.119e+04 3.455e-10
  1.93891    -10.8 1.159e+04 4.348e-10
  1.95868    -10.3 1.229e+04 5.936e-10
  1.97498    -10.3 1.324e+04 9.327e-10
  1.98486    -10.4 1.134e+04 6.198e-10
  1.99822     -9.8 1.246e+04 9.337e-10
  2.01799     -9.3 1.435e+04 1.440e-09
  2.03776     -8.5 1.647e+04 2.097e-09
  2.05752     -7.7 1.784e+04 2.703e-09
  2.07729     -7.3 1.812e+04 3.047e-09
  2.09706     -7.1 1.768e+04 3.322e-09
  2.10768     -6.6 1.676e+04 3.291e-09
  2.11757     -7.3 1.352e+04 1.623e-09
  2.13660     -6.4 1.372e+04 1.709e-09
  2.15636     -5.5 1.394e+04 1.787e-09
  2.17613     -4.6 1.415e+04 1.848e-09
  2.19590     -3.7 1.452e+04 1.956e-09
  2.21567     -3.0 1.507e+04 2.137e-09
  2.23051     -2.4 1.587e+04 2.432e-09
  2.24039     -2.2 1.389e+04 1.720e-09
  2.25521     -1.5 1.431e+04 1.932e-09
  2.27497     -0.7 1.504e+04 2.254e-09
  2.29474     -0.3 1.650e+04 2.801e-09
  2.31451     -0.5 1.868e+04 3.830e-09
  2.33428     -1.3 2.108e+04 5.979e-09
  2.35333     -2.6 2.230e+04 1.036e-08
  2.36284     -0.1 2.115e+04 4.565e-09
  2.36355      2.3 2.086e+04 3.943e-09
  2.37382     -0.3 2.447e+04 7.747e-09
  2.38859     -3.4 2.309e+04 1.855e-08
  2.39843     -3.0 2.236e+04 2.820e-08
  2.40831     -2.5 2.149e+04 3.946e-08
  2.41820     -2.0 2.092e+04 4.803e-08
  2.42453     -1.3 2.066e+04 5.483e-08
  2.42947     -2.1 2.029e+04 5.414e-08
  2.43797     -1.0 2.021e+04 6.141e-08
  2.44785     -0.2 2.006e+04 6.134e-08
  2.45773      1.0 2.025e+04 5.569e-08
  2.46762      2.0 2.087e+04 4.300e-08
  2.47750      2.7 2.168e+04 3.185e-08
  2.48594      3.1 2.322e+04 2.110e-08
  2.49088      3.4 2.061e+04 3.108e-08
  2.49727      4.0 2.206e+04 2.115e-08
  2.50715      3.2 2.468e+04 1.173e-08
  2.51704      2.7 2.573e+04 6.579e-09
  2.53191      2.3 2.487e+04 5.268e-09
  2.55173     -2.7 1.895e+04 1.700e-09
  2.57150     -7.0 1.246e+04 9.721e-10
  2.59127     -7.2 1.197e+04 8.284e-10
  2.60886     -7.8 1.200e+04 7.688e-10
  2.61875     -8.2 1.216e+04 7.502e-10
  2.63080     -9.3 1.246e+04 7.231e-10
  2.65057    -10.9 1.263e+04 7.305e-10
  2.67034    -12.1 1.267e+04 7.437e-10
  2.69011    -12.7 1.267e+04 8.063e-10
  2.70988    -13.3 1.299e+04 9.300e-10
  2.72965    -14.0 1.299e+04 1.056e-09
  2.74157    -15.1 1.371e+04 1.342e-09
  2.75145    -17.6 1.590e+04 2.502e-09
  2.76918    -17.9 1.544e+04 2.743e-09
  2.78895    -17.6 1.531e+04 2.897e-09
  2.80872    -17.4 1.512e+04 2.837e-09
  2.82849    -18.2 1.491e+04 2.460e-09
  2.84826    -19.8 1.467e+04 2.261e-09
  2.86439    -21.1 1.439e+04 2.229e-09
  2.87428    -20.9 1.594e+04 3.052e-09
  2.88779    -21.6 1.588e+04 2.960e-09
  2.90756    -22.4 1.620e+04 3.049e-09
  2.92733    -26.4 1.851e+04 3.794e-09
  2.94211    -38.0 2.377e+04 7.277e-09
  2.95194    -42.3 2.667e+04 1.062e-08
  2.96183    -45.9 3.237e+04 2.016e-08
  2.97171    -54.0 3.296e+04 4.785e-08
  2.98159    -60.5 2.933e+04 1.049e-07
  2.99148    -64.7 2.671e+04 1.509e-07
  2.99700    -66.8 2.466e+04 1.629e-07
  3.00195    -70.8 2.282e+04 2.269e-07
  3.01125    -71.9 2.362e+04 8.875e-08
  3.02113    -73.8 2.365e+04 3.809e-08
  3.03101    -76.0 2.202e+04 1.953e-08
  3.04090    -78.0 1.983e+04 1.167e-08
  3.04731    -79.1 1.847e+04 7.723e-09
  3.05225    -79.9 1.851e+04 6.811e-09
  3.05842    -80.6 1.798e+04 4.800e-09
  3.06336    -82.6 1.866e+04 4.230e-09
  3.07055    -82.2 1.797e+04 3.464e-09
  3.08543    -81.7 1.666e+04 2.750e-09
  3.10524    -82.1 1.417e+04 1.775e-09
  3.11993    -81.5 1.367e+04 1.526e-09
  3.12981    -86.6 1.900e+04 2.113e-09
  3.14478    -85.4 1.972e+04 2.642e-09
  3.16455    -84.1 2.037e+04 3.617e-09
  3.18432    -82.8 2.094e+04 5.079e-09
  3.20409    -81.6 2.148e+04 7.148e-09
  3.22385    -80.9 2.210e+04 1.081e-08
  3.23863    -81.5 2.224e+04 2.283e-08
  3.24759    -81.0 2.221e+04 2.912e-08
  3.25254    -81.6 2.202e+04 4.363e-08
  3.25835    -81.1 2.217e+04 5.308e-08
  3.26823    -80.8 2.228e+04 6.412e-08
  3.27812    -80.6 2.227e+04 7.692e-08
  3.28800    -80.0 2.233e+04 9.322e-08
  3.29789    -79.2 2.254e+04 1.060e-07
  3.30777    -78.8 2.269e+04 1.069e-07
  3.31395    -78.2 2.289e+04 9.506e-08
  3.31889    -78.2 2.321e+04 4.530e-08
  3.32754    -77.8 2.363e+04 3.340e-08
  3.33742    -77.6 2.402e+04 2.359e-08
  3.34731    -77.8 2.414e+04 1.624e-08
  3.35719    -78.6 2.362e+04 1.097e-08
  3.36708    -79.9 2.245e+04 7.844e-09
  3.37536    -81.6 2.063e+04 5.475e-09
  3.38529    -84.5 1.686e+04 3.302e-09
  3.40177    -86.3 1.438e+04 2.084e-09
  3.42154    -87.2 1.286e+04 1.526e-09
  3.44131    -87.4 1.194e+04 1.185e-09
  3.46107    -87.3 1.136e+04 9.907e-10
  3.48084    -86.7 1.123e+04 9.102e-10
  3.49828    -85.9 1.120e+04 8.798e-10
  3.50816    -85.9 1.183e+04 1.169e-09
  3.52038    -85.2 1.170e+04 1.120e-09
  3.54015    -84.4 1.156e+04 1.067e-09
  3.55991    -83.5 1.140e+04 1.006e-09
  3.57968    -82.6 1.122e+04 9.346e-10
  3.59945    -81.6 1.103e+04 8.503e-10
  3.61922    -80.5 1.079e+04 7.550e-10
  3.63099    -79.5 1.053e+04 6.572e-10
  3.64087    -79.9 1.073e+04 7.466e-10
  3.65876    -78.9 1.045e+04 6.308e-10
  3.67852    -77.9 1.020e+04 5.376e-10
  3.69829    -77.2 9.972e+03 4.677e-10
  3.72804    -76.6 9.679e+03 4.103e-10
  3.75401    -74.6 9.239e+03 3.293e-10
  3.77378    -76.1 9.612e+03 4.032e-10
  3.80721    -74.7 9.617e+03 4.123e-10
  3.84675    -74.6 1.078e+04 6.115e-10
  3.88629    -74.8 1.173e+04 8.911e-10
  3.92582    -75.3 1.239e+04 1.255e-09
  3.96536    -76.3 1.278e+04 1.585e-09
  3.99492    -78.2 1.293e+04 1.677e-09
  4.00934    -78.5 1.283e+04 1.635e-09
  4.01923    -79.4 1.210e+04 1.287e-09
  4.03435    -80.3 1.157e+04 1.021e-09
  4.05412    -81.1 1.114e+04 8.077e-10
  4.07389    -82.1 1.071e+04 6.391e-10
  4.09366    -83.1 1.038e+04 5.211e-10
  4.11343    -84.1 1.017e+04 4.510e-10
  4.13217    -84.9 1.008e+04 4.210e-10
  4.14205    -84.9 9.880e+03 3.689e-10
  4.15296    -85.3 9.884e+03 3.680e-10
  4.17273    -85.6 9.936e+03 3.788e-10
  4.19250    -85.6 9.997e+03 3.918e-10
  4.21227    -85.5 1.004e+04 3.981e-10
  4.23204    -85.1 1.005e+04 3.985e-10
  4.25181    -84.6 1.005e+04 3.887e-10
  4.26487    -83.8 1.006e+04 3.732e-10
  4.28474    -82.7 1.004e+04 3.457e-10
  4.32119    -81.6 1.012e+04 3.385e-10
  4.36073    -80.6 1.017e+04 3.338e-10
  4.40026    -79.3 1.027e+04 3.349e-10
  4.42982    -78.0 1.034e+04 3.321e-10
  4.44949    -77.8 1.040e+04 3.412e-10
  4.46926    -77.0 1.056e+04 3.662e-10
  4.48903    -76.3 1.060e+04 3.848e-10
  4.50879    -75.6 1.068e+04 4.076e-10
  4.52041    -75.3 1.083e+04 4.393e-10
  4.53029    -74.9 1.077e+04 4.292e-10
  4.54833    -75.3 1.111e+04 5.261e-10
  4.56810    -78.2 1.290e+04 9.200e-10
  4.58787    -81.8 1.513e+04 2.137e-09
  4.60764    -83.9 1.655e+04 4.858e-09
  4.62740    -84.8 1.749e+04 8.943e-09
  4.64323    -85.3 1.840e+04 1.304e-08
  4.65311    -84.9 1.792e+04 9.765e-09
  4.66694    -87.5 1.885e+04 1.261e-08
  4.68671    -92.9 2.026e+04 1.383e-08
  4.70149    -98.5 2.128e+04 1.347e-08
  4.70949   -103.5 2.437e+04 1.423e-08
  4.71443   -100.1 2.182e+04 1.315e-08
  4.72121   -106.8 2.473e+04 1.345e-08
  4.73109   -112.9 2.735e+04 1.823e-08
  4.74097   -119.7 2.641e+04 2.503e-08
  4.75086   -124.3 2.530e+04 2.874e-08
  4.76074   -127.4 2.264e+04 3.094e-08
  4.77063   -128.9 2.065e+04 2.983e-08
  4.77584   -129.4 1.960e+04 2.590e-08
  4.78078   -128.6 2.010e+04 1.990e-08
  4.79039   -129.2 1.923e+04 1.734e-08
  4.80028   -129.7 1.883e+04 1.424e-08
  4.81016   -130.4 1.856e+04 1.089e-08
  4.82005   -131.7 1.810e+04 8.052e-09
  4.82993   -133.1 1.725e+04 5.954e-09
  4.84481   -134.0 1.626e+04 4.610e-09
  4.86462   -134.3 1.535e+04 3.535e-09
  4.88439   -134.6 1.391e+04 2.362e-09
  4.89876   -134.6 1.268e+04 1.644e-09
  4.90865   -133.3 1.235e+04 1.313e-09
  4.92393   -133.2 1.164e+04 9.500e-10
  4.94370   -132.7 1.114e+04 7.238e-10
  4.96346   -131.9 1.074e+04 5.714e-10
  4.98323   -131.4 1.050e+04 4.807e-10
  5.00300   -131.1 1.047e+04 4.586e-10
  5.02168   -131.0 1.055e+04 4.929e-10
  5.04155   -130.1 9.646e+03 3.127e-10
  5.07239   -127.9 9.567e+03 3.161e-10
  5.09917   -126.3 9.630e+03 3.568e-10
  5.11894   -125.0 9.643e+03 3.488e-10
  5.15146   -123.7 9.778e+03 4.068e-10
  5.19100   -122.6 9.913e+03 4.640e-10
  5.23053   -121.8 9.985e+03 4.921e-10
  5.26743   -121.3 1.000e+04 4.973e-10
  5.28720   -119.6 9.575e+03 3.772e-10
  5.30961   -119.2 9.560e+03 3.696e-10
  5.34914   -118.7 9.501e+03 3.446e-10
  5.38868   -118.2 9.484e+03 3.324e-10
  5.42822   -117.6 9.516e+03 3.324e-10
  5.46775   -116.9 9.640e+03 3.470e-10
  5.50729   -116.0 9.682e+03 3.556e-10
  5.53284   -114.9 9.669e+03 3.606e-10
  5.55261   -113.4 9.078e+03 2.492e-10
  5.58636   -112.1 9.091e+03 2.522e-10
  5.62590   -110.7 9.102e+03 2.557e-10
  5.66544   -109.3 9.299e+03 2.676e-10
  5.70497   -108.2 9.654e+03 3.170e-10
  5.74451   -107.0 1.012e+04 4.351e-10
  5.77406   -105.9 1.043e+04 5.445e-10
  5.78818   -105.5 1.076e+04 7.147e-10
  5.79816   -104.7 1.036e+04 4.965e-10
  5.81360   -104.3 1.086e+04 7.634e-10
  5.83327   -103.6 1.119e+04 9.889e-10
  5.85304   -102.6 1.150e+04 1.189e-09
  5.87281   -101.8 1.175e+04 1.322e-09
  5.89258   -101.0 1.190e+04 1.397e-09
  5.91100   -100.2 1.195e+04 1.418e-09
  5.92089    -99.7 1.201e+04 1.367e-09
  5.93211    -98.9 1.204e+04 1.385e-09
  5.95188    -98.0 1.203e+04 1.368e-09
  5.97165    -97.0 1.195e+04 1.289e-09
  5.99142    -96.0 1.181e+04 1.180e-09
  6.01119    -95.0 1.162e+04 1.070e-09
  6.03095    -93.8 1.146e+04 9.755e-10
  6.04371    -92.8 1.134e+04 8.840e-10
  6.05359    -92.3 1.125e+04 9.427e-10
  6.07049    -91.3 1.117e+04 9.056e-10
  6.09026    -90.2 1.108e+04 8.851e-10
  6.11003    -89.0 1.105e+04 8.803e-10
  6.12980    -87.9 1.104e+04 8.814e-10
  6.14956    -86.5 1.112e+04 8.983e-10
  6.17931    -84.9 1.126e+04 9.139e-10
  6.21895    -82.3 1.139e+04 9.015e-10
  6.25848    -80.0 1.144e+04 8.006e-10
  6.28804    -78.2 1.176e+04 8.181e-10
  6.29924    -77.3 1.170e+04 6.830e-10
  6.30913    -76.2 1.184e+04 1.195e-09
  6.32748    -75.3 1.175e+04 1.097e-09
  6.34725    -74.5 1.164e+04 1.000e-09
  6.36702    -73.7 1.156e+04 9.159e-10
  6.38678    -72.8 1.159e+04 8.753e-10
  6.41653    -71.6 1.186e+04 9.009e-10
  6.45617    -70.6 1.156e+04 7.403e-10
  6.49570    -71.0 1.137e+04 5.907e-10
  6.53520    -74.1 1.144e+04 5.614e-10
  6.56476    -77.5 1.214e+04 8.590e-10
  6.58447    -79.8 1.236e+04 1.224e-09
  6.60423    -81.0 1.248e+04 1.680e-09
  6.62400    -81.5 1.255e+04 1.998e-09
  6.64377    -81.9 1.256e+04 2.077e-09
  6.66354    -82.1 1.253e+04 2.019e-09
  6.67760    -82.4 1.223e+04 1.590e-09
  6.68748    -83.0 1.234e+04 1.742e-09
  6.70308    -83.9 1.172e+04 1.275e-09
  6.72284    -84.8 1.113e+04 9.639e-10
  6.74261    -85.4 1.068e+04 8.056e-10
  6.76238    -85.6 1.050e+04 7.605e-10
  6.78215    -85.4 1.045e+04 7.542e-10
  6.80042    -85.0 1.046e+04 7.769e-10
  6.82029    -85.4 1.041e+04 6.673e-10
  6.85153    -83.9 1.053e+04 7.506e-10
  6.89107    -82.8 1.072e+04 8.461e-10
  6.93061    -82.0 1.090e+04 9.356e-10
  6.97014    -81.1 1.108e+04 1.038e-09
  7.00968    -80.2 1.122e+04 1.115e-09
  7.04626    -79.4 1.127e+04 1.131e-09
  7.06603    -78.7 1.163e+04 1.241e-09
  7.08875    -78.0 1.160e+04 1.226e-09
  7.12829    -77.0 1.114e+04 9.263e-10
  7.16783    -76.1 1.043e+04 5.876e-10
  7.20736    -75.4 9.921e+03 4.194e-10
  7.24690    -74.3 9.767e+03 3.841e-10
  7.28644    -72.7 9.761e+03 3.851e-10
  7.31168    -70.9 9.832e+03 4.089e-10
  7.33145    -69.8 9.709e+03 3.521e-10
  7.36551    -68.2 9.954e+03 4.034e-10
  7.40505    -66.7 1.028e+04 4.942e-10
  7.44458    -65.4 1.067e+04 6.113e-10
  7.48412    -64.2 1.113e+04 7.846e-10
  7.52366    -63.3 1.158e+04 1.019e-09
  7.55733    -62.5 1.194e+04 1.256e-09
  7.57709    -61.1 1.189e+04 1.214e-09
  7.60273    -60.6 1.226e+04 1.484e-09
  7.64227    -60.2 1.246e+04 1.649e-09
  7.68180    -60.0 1.247e+04 1.655e-09
  7.72134    -59.7 1.226e+04 1.416e-09
  7.75089    -58.8 1.158e+04 9.142e-10
  7.77057    -58.5 1.139e+04 8.334e-10
  7.79033    -58.0 1.085e+04 5.908e-10
  7.81010    -57.9 1.056e+04 4.360e-10
  7.82255    -57.8 1.035e+04 3.417e-10
  7.83243    -57.4 1.048e+04 3.726e-10
  7.84427    -57.5 1.044e+04 3.292e-10
  7.85416    -56.7 1.016e+04 2.613e-10
  7.86941    -56.7 1.013e+04 2.384e-10
  7.88917    -56.8 1.014e+04 2.368e-10
  7.90894    -57.1 1.031e+04 2.503e-10
  7.92871    -57.5 1.046e+04 3.109e-10
  7.94537    -57.8 1.057e+04 4.102e-10
  7.95525    -58.4 1.102e+04 4.942e-10
  7.96825    -58.0 1.111e+04 6.436e-10
  7.98802    -57.2 1.128e+04 8.016e-10
  8.00778    -56.4 1.144e+04 9.244e-10
  8.02755    -55.5 1.152e+04 9.752e-10
  8.04732    -54.5 1.150e+04 9.449e-10
  8.06709    -53.8 1.129e+04 8.479e-10
  8.07808    -53.2 1.108e+04 7.662e-10
  8.08796    -53.2 1.127e+04 8.259e-10
  8.10663    -52.6 1.095e+04 7.044e-10
  8.12639    -51.9 1.064e+04 6.081e-10
  8.14616    -51.1 1.043e+04 5.472e-10
  8.16593    -50.2 1.029e+04 5.123e-10
  8.18570    -49.4 1.020e+04 4.939e-10
  8.20090    -48.3 1.017e+04 4.900e-10
  8.21079    -48.3 1.005e+04 4.467e-10
  8.22524    -47.2 1.005e+04 4.504e-10
  8.24500    -46.1 1.009e+04 4.761e-10
  8.26477    -45.0 1.016e+04 5.194e-10
  8.28454    -43.8 1.025e+04 5.661e-10
  8.30431    -42.5 1.038e+04 6.207e-10
  8.32372    -41.2 1.046e+04 6.605e-10
  8.33371    -41.9 1.019e+04 5.348e-10
  8.35393    -39.2 1.041e+04 6.481e-10
  8.39346    -36.4 1.058e+04 7.340e-10
  8.43300    -33.6 1.070e+04 7.878e-10
  8.47254    -31.0 1.074e+04 8.084e-10
  8.51207    -28.5 1.070e+04 8.071e-10
  8.55161    -25.9 1.054e+04 7.657e-10
  8.57945    -23.4 1.030e+04 6.713e-10
  8.59922    -22.9 1.001e+04 5.175e-10
  8.63068    -20.7 9.755e+03 4.539e-10
  8.67022    -18.4 9.533e+03 4.168e-10
  8.70976    -15.8 9.395e+03 3.962e-10
  8.74929    -13.0 9.268e+03 3.718e-10
  8.78883    -10.1 9.105e+03 3.165e-10
  8.82510     -7.6 8.842e+03 2.405e-10
  8.84487     -7.0 9.164e+03 3.359e-10
  8.86790     -4.8 9.018e+03 2.825e-10
  8.90744     -2.6 8.877e+03 2.514e-10
  8.94697     -0.4 8.712e+03 2.280e-10
  8.98651      2.1 8.546e+03 2.111e-10
  9.02605      4.7 8.328e+03 1.871e-10
  9.06558      7.3 8.162e+03 1.488e-10
  9.09051      9.1 8.017e+03 1.155e-10
  9.11028     10.3 8.196e+03 1.420e-10
  9.14466     12.3 8.071e+03 1.302e-10
  9.18419     14.2 8.136e+03 1.403e-10
  9.22373     16.5 8.270e+03 1.695e-10
  9.26327     18.9 8.496e+03 2.069e-10
  9.30280     21.2 8.749e+03 2.417e-10
  9.33616     22.9 9.077e+03 2.966e-10
  9.35593     24.2 9.875e+03 5.425e-10
  9.38188     25.9 1.032e+04 6.775e-10
  9.42141     27.4 1.044e+04 7.246e-10
  9.46095     28.9 1.033e+04 6.824e-10
  9.50049     30.5 9.971e+03 5.734e-10
  9.54002     32.1 9.519e+03 4.314e-10
  9.57956     33.3 9.044e+03 3.123e-10
  9.60158     34.2 8.828e+03 2.641e-10
  9.62135     34.3 8.774e+03 2.636e-10
  9.65863     35.3 8.796e+03 2.727e-10
  9.69817     35.6 9.200e+03 3.352e-10
  9.72430     33.2 1.048e+04 5.084e-10
  9.73409     34.4 9.460e+03 4.380e-10
  9.74740     34.2 1.006e+04 5.513e-10
  9.76716     35.7 1.079e+04 6.757e-10
  9.78693     35.2 1.281e+04 9.578e-10
  9.80670     33.2 1.613e+04 1.693e-09
  9.82647     29.9 1.841e+04 3.763e-09
  9.84624     28.1 1.853e+04 7.384e-09
  9.85691     28.1 1.827e+04 1.048e-08
  9.86680     28.5 1.808e+04 7.580e-09
  9.88577     29.2 1.776e+04 9.835e-09
  9.90554     29.9 1.764e+04 1.021e-08
  9.92531     30.4 1.739e+04 9.301e-09
  9.94508     31.0 1.686e+04 7.905e-09
  9.96485     31.6 1.636e+04 5.898e-09
  9.97974     32.0 1.558e+04 3.848e-09
  9.98962     32.0 1.558e+04 5.145e-09
 10.00438     32.4 1.505e+04 3.800e-09
