# Columns:
#   distance along LOS (in CHIMPs)
#   peculiar velocity  (in km/s)
#   temperature (K)
#   HI number density
# pos=(126.389,66.5689,40.7114), angles=(1.52684,3.18876)
  0.01106     13.3 9.698e+03 2.598e-10
  0.04169     13.8 1.005e+04 3.266e-10
  0.08084     14.0 1.038e+04 4.027e-10
  0.11906     14.2 1.050e+04 5.133e-10
  0.13863     13.2 1.043e+04 5.761e-10
  0.15913     14.3 1.023e+04 5.196e-10
  0.19827     14.8 9.982e+03 3.966e-10
  0.22332     14.6 9.863e+03 3.530e-10
  0.24289     14.6 9.788e+03 3.197e-10
  0.27656     14.1 9.877e+03 3.679e-10
  0.31570     14.5 1.010e+04 4.802e-10
  0.35484     15.3 1.026e+04 5.409e-10
  0.39399     16.1 9.996e+03 4.459e-10
  0.43313     16.0 9.734e+03 3.182e-10
  0.47228     15.6 9.611e+03 2.661e-10
  0.51142     14.6 9.863e+03 3.217e-10
  0.55056     13.9 1.051e+04 5.937e-10
  0.58971     14.1 1.144e+04 1.149e-09
  0.62885     14.2 1.202e+04 1.520e-09
  0.65811     12.1 1.280e+04 1.918e-09
  0.67759     11.1 1.310e+04 2.140e-09
  0.69716     10.3 1.337e+04 2.517e-09
  0.71673      9.9 1.329e+04 2.519e-09
  0.73630      9.0 1.338e+04 2.410e-09
  0.75587      7.5 1.346e+04 2.202e-09
  0.77545      5.7 1.338e+04 2.164e-09
  0.79502      4.5 1.326e+04 2.188e-09
  0.81459      3.7 1.327e+04 2.285e-09
  0.83416      2.1 1.381e+04 2.480e-09
  0.85373     -0.7 1.495e+04 2.918e-09
  0.87330     -3.2 1.477e+04 3.041e-09
  0.89288     -3.1 1.362e+04 3.984e-09
  0.91245     -1.4 1.338e+04 3.314e-09
  0.93202     -1.4 1.361e+04 2.022e-09
  0.95159     -3.6 1.303e+04 1.354e-09
  0.98105     -5.6 1.194e+04 9.143e-10
  1.01371     -7.1 1.093e+04 6.199e-10
  1.03329     -7.8 1.060e+04 4.863e-10
  1.04884     -7.8 1.048e+04 4.364e-10
  1.06841     -9.0 1.031e+04 4.057e-10
  1.09858     -8.4 1.013e+04 3.394e-10
  1.13772     -7.9 1.009e+04 2.865e-10
  1.17686     -7.1 1.001e+04 2.802e-10
  1.21601     -6.2 9.993e+03 3.005e-10
  1.25515     -5.0 1.004e+04 3.135e-10
  1.29430     -3.8 1.004e+04 3.169e-10
  1.33344     -2.6 1.011e+04 3.087e-10
  1.37258     -1.9 1.043e+04 2.875e-10
  1.41173     -1.6 1.047e+04 2.927e-10
  1.45087     -0.6 1.017e+04 3.142e-10
  1.49002      1.7 9.771e+03 2.588e-10
  1.52916      3.9 9.355e+03 1.553e-10
  1.56830      5.1 9.235e+03 8.190e-11
  1.60745      5.2 9.198e+03 5.288e-11
  1.64659      5.9 9.181e+03 5.422e-11
  1.68573      5.9 9.299e+03 7.113e-11
  1.72488      6.6 9.354e+03 1.176e-10
  1.76402      7.8 9.539e+03 1.896e-10
  1.80317      9.0 9.738e+03 2.595e-10
  1.84231     10.1 9.756e+03 2.869e-10
  1.87455     10.8 9.838e+03 3.179e-10
  1.89412     10.5 9.775e+03 2.977e-10
  1.90837     11.0 9.948e+03 3.540e-10
  1.92794     10.4 9.707e+03 3.227e-10
  1.95974     11.6 9.815e+03 3.603e-10
  1.99888     13.0 9.869e+03 3.659e-10
  2.03803     14.3 9.869e+03 3.505e-10
  2.07717     15.3 9.942e+03 3.486e-10
  2.11632     15.7 1.010e+04 3.965e-10
  2.14558     16.2 1.022e+04 4.582e-10
  2.16505     16.7 1.035e+04 5.392e-10
  2.18462     17.3 1.048e+04 6.239e-10
  2.20419     18.0 1.058e+04 6.826e-10
  2.22377     18.7 1.070e+04 7.242e-10
  2.24334     19.4 1.072e+04 7.526e-10
  2.26291     20.1 1.079e+04 7.484e-10
  2.28248     20.5 1.082e+04 7.331e-10
  2.29695     20.9 1.085e+04 7.273e-10
  2.30674     20.8 1.077e+04 6.731e-10
  2.32163     21.2 1.084e+04 6.878e-10
  2.34120     21.6 1.091e+04 7.172e-10
  2.35550     22.1 1.101e+04 7.697e-10
  2.36529     22.0 1.081e+04 7.246e-10
  2.38034     22.6 1.092e+04 7.865e-10
  2.39991     23.2 1.103e+04 8.672e-10
  2.41949     23.9 1.121e+04 9.928e-10
  2.43906     24.5 1.145e+04 1.172e-09
  2.45863     25.3 1.171e+04 1.385e-09
  2.47820     26.2 1.209e+04 1.658e-09
  2.49777     27.1 1.257e+04 2.013e-09
  2.51734     27.9 1.304e+04 2.454e-09
  2.53692     28.5 1.373e+04 3.120e-09
  2.55649     28.3 1.479e+04 4.346e-09
  2.57606     27.7 1.642e+04 7.216e-09
  2.59563     27.3 1.845e+04 1.381e-08
  2.61026     26.0 2.019e+04 2.327e-08
  2.62000     25.0 2.101e+04 3.618e-08
  2.62979     25.2 2.143e+04 5.832e-08
  2.63957     25.9 2.205e+04 9.301e-08
  2.64936     25.6 2.253e+04 1.231e-07
  2.65914     24.7 2.250e+04 1.222e-07
  2.66893     24.3 2.225e+04 1.086e-07
  2.67872     24.3 2.174e+04 8.494e-08
  2.68850     24.4 2.162e+04 6.576e-08
  2.69829     23.7 2.201e+04 5.284e-08
  2.70807     22.2 2.232e+04 4.399e-08
  2.71455     20.5 2.246e+04 3.845e-08
  2.71945     20.9 2.235e+04 3.406e-08
  2.72764     18.1 2.256e+04 3.417e-08
  2.73743     15.7 2.229e+04 3.384e-08
  2.74722     13.2 2.238e+04 3.657e-08
  2.75700     10.7 2.275e+04 4.214e-08
  2.76679      8.5 2.272e+04 4.676e-08
  2.77657      7.0 2.247e+04 4.749e-08
  2.78636      6.3 2.209e+04 4.432e-08
  2.79615      5.5 2.159e+04 3.786e-08
  2.80273      5.2 2.087e+04 2.849e-08
  2.80762      5.7 2.117e+04 3.530e-08
  2.81572      5.3 2.026e+04 2.289e-08
  2.83045      5.5 1.910e+04 1.275e-08
  2.85007      3.4 1.684e+04 4.439e-09
  2.86964      0.1 1.371e+04 1.724e-09
  2.88921     -1.6 1.220e+04 8.588e-10
  2.90878     -1.3 1.163e+04 6.398e-10
  2.93824     -0.2 1.118e+04 4.487e-10
  2.97748      1.5 1.071e+04 3.527e-10
  3.01662      4.0 1.049e+04 2.957e-10
  3.05577      6.7 1.044e+04 2.467e-10
  3.09491      9.2 1.043e+04 2.106e-10
  3.13405     11.9 1.036e+04 2.035e-10
  3.17320     14.4 1.035e+04 2.133e-10
  3.21234     17.1 1.043e+04 2.540e-10
  3.25149     19.9 1.075e+04 3.330e-10
  3.28075     21.7 1.085e+04 3.925e-10
  3.30022     22.2 1.093e+04 4.192e-10
  3.31979     23.5 1.123e+04 5.504e-10
  3.33936     24.1 1.145e+04 6.399e-10
  3.35894     24.6 1.193e+04 9.021e-10
  3.37851     24.8 1.231e+04 1.173e-09
  3.39808     24.8 1.289e+04 1.739e-09
  3.41765     25.0 1.326e+04 2.211e-09
  3.43722     25.2 1.361e+04 2.862e-09
  3.45680     25.7 1.375e+04 2.943e-09
  3.47637     25.9 1.376e+04 2.623e-09
  3.49594     25.3 1.421e+04 2.038e-09
  3.51551     22.2 1.496e+04 2.017e-09
  3.53508     18.3 1.540e+04 2.337e-09
  3.54516     16.1 1.508e+04 2.847e-09
  3.55495     18.1 1.522e+04 3.101e-09
  3.57423     17.2 1.484e+04 3.205e-09
  3.59380     17.5 1.434e+04 2.949e-09
  3.61337     17.5 1.384e+04 2.326e-09
  3.63294     18.0 1.289e+04 1.517e-09
  3.65251     17.5 1.215e+04 9.963e-10
  3.67209     17.9 1.150e+04 5.803e-10
  3.68770     17.6 1.124e+04 3.570e-10
  3.69748     16.4 1.132e+04 3.516e-10
  3.72111     16.5 1.134e+04 2.573e-10
  3.76036     15.7 1.124e+04 1.992e-10
  3.79950     15.8 1.127e+04 2.619e-10
  3.83864     17.0 1.113e+04 3.821e-10
  3.87779     19.0 1.098e+04 4.571e-10
  3.91693     20.9 1.090e+04 4.249e-10
  3.95607     22.1 1.097e+04 3.795e-10
  3.99522     23.2 1.116e+04 3.586e-10
  4.03436     24.3 1.127e+04 3.497e-10
  4.06362     25.8 1.127e+04 3.433e-10
  4.08310     26.3 1.137e+04 3.525e-10
  4.10267     26.7 1.152e+04 3.746e-10
  4.12224     27.1 1.169e+04 4.305e-10
  4.13503     27.6 1.182e+04 5.294e-10
  4.14481     26.7 1.178e+04 5.333e-10
  4.16138     27.3 1.202e+04 6.886e-10
  4.18096     27.3 1.244e+04 9.487e-10
  4.20053     27.2 1.303e+04 1.407e-09
  4.22010     27.3 1.343e+04 2.198e-09
  4.23967     28.2 1.369e+04 3.011e-09
  4.25924     29.5 1.367e+04 3.021e-09
  4.27882     30.9 1.366e+04 2.725e-09
  4.29839     31.8 1.358e+04 2.002e-09
  4.31796     31.4 1.338e+04 1.332e-09
  4.34742     31.4 1.282e+04 1.156e-09
  4.37097     31.5 1.185e+04 6.366e-10
  4.39054     32.1 1.194e+04 4.873e-10
  4.42580     33.0 1.117e+04 3.751e-10
  4.46494     34.4 1.089e+04 3.195e-10
  4.50409     36.0 1.091e+04 2.976e-10
  4.54323     37.8 1.093e+04 2.678e-10
  4.57276     39.4 1.093e+04 2.430e-10
  4.59233     38.8 1.120e+04 2.879e-10
  4.62152     40.4 1.127e+04 3.035e-10
  4.66066     42.2 1.115e+04 3.367e-10
  4.69981     44.3 1.089e+04 3.710e-10
  4.73895     46.5 1.073e+04 3.855e-10
  4.77809     48.8 1.074e+04 3.939e-10
  4.81724     50.9 1.093e+04 4.090e-10
  4.85638     52.8 1.121e+04 4.331e-10
  4.89553     54.7 1.140e+04 4.547e-10
  4.93467     56.5 1.148e+04 4.631e-10
  4.97381     58.3 1.149e+04 4.456e-10
  5.01296     60.1 1.149e+04 4.178e-10
  5.05210     61.7 1.140e+04 4.046e-10
  5.09125     63.4 1.122e+04 3.664e-10
  5.13039     65.0 1.099e+04 3.221e-10
  5.16953     66.6 1.081e+04 2.858e-10
  5.19659     68.1 1.060e+04 2.677e-10
  5.21616     68.9 1.035e+04 2.293e-10
  5.24782     70.3 1.014e+04 2.103e-10
  5.28696     71.7 9.934e+03 2.020e-10
  5.32611     73.0 9.834e+03 2.074e-10
  5.36525     74.5 9.753e+03 2.208e-10
  5.40440     76.0 9.708e+03 2.423e-10
  5.44354     77.6 9.697e+03 2.700e-10
  5.46742     79.3 9.729e+03 3.016e-10
  5.48699     78.5 9.491e+03 2.812e-10
  5.52183     80.3 9.515e+03 3.041e-10
  5.56097     82.2 9.572e+03 3.276e-10
  5.60011     84.0 9.640e+03 3.523e-10
  5.63926     85.6 9.695e+03 3.778e-10
  5.66852     86.7 9.652e+03 3.884e-10
  5.68799     87.8 9.639e+03 4.012e-10
  5.70756     89.0 9.703e+03 4.414e-10
  5.72714     90.0 9.902e+03 5.061e-10
  5.74671     90.9 1.016e+04 5.893e-10
  5.76628     91.3 1.043e+04 6.850e-10
  5.78585     91.1 1.130e+04 9.137e-10
  5.80542     90.8 1.256e+04 1.463e-09
  5.82500     90.5 1.387e+04 2.519e-09
  5.84457     90.4 1.506e+04 4.224e-09
  5.86414     90.3 1.607e+04 6.546e-09
  5.88371     90.3 1.690e+04 9.267e-09
  5.90328     90.4 1.750e+04 1.172e-08
  5.91455     90.4 1.765e+04 1.238e-08
  5.92434     89.8 1.758e+04 1.223e-08
  5.94243     90.1 1.716e+04 1.003e-08
  5.95706     90.6 1.687e+04 8.717e-09
  5.96679     90.9 1.650e+04 7.265e-09
  5.98152     90.7 1.581e+04 4.713e-09
  6.00114     90.2 1.495e+04 2.697e-09
  6.02072     88.5 1.371e+04 1.408e-09
  6.03179     86.0 1.191e+04 7.976e-10
  6.04158     88.2 1.332e+04 1.223e-09
  6.05986     85.8 1.153e+04 7.703e-10
  6.07943     84.5 1.080e+04 6.992e-10
  6.09900     84.2 1.079e+04 7.377e-10
  6.11857     84.1 1.092e+04 8.455e-10
  6.13815     84.1 1.115e+04 1.002e-09
  6.15772     84.2 1.137e+04 1.191e-09
  6.17729     84.6 1.154e+04 1.341e-09
  6.19686     85.0 1.163e+04 1.388e-09
  6.21643     85.3 1.163e+04 1.346e-09
  6.23601     85.4 1.158e+04 1.234e-09
  6.25558     85.2 1.147e+04 1.103e-09
  6.27515     84.9 1.136e+04 1.017e-09
  6.29472     84.4 1.132e+04 1.005e-09
  6.31429     84.1 1.134e+04 1.023e-09
  6.33387     83.9 1.143e+04 1.086e-09
  6.35209     83.9 1.155e+04 1.168e-09
  6.36188     83.2 1.129e+04 1.063e-09
  6.37301     83.5 1.139e+04 1.106e-09
  6.39258     83.7 1.139e+04 1.102e-09
  6.41215     84.0 1.134e+04 1.077e-09
  6.43173     84.3 1.119e+04 1.012e-09
  6.44460     84.6 1.100e+04 9.306e-10
  6.45439     84.4 1.120e+04 1.029e-09
  6.47087     84.7 1.101e+04 9.408e-10
  6.49044     85.2 1.088e+04 8.789e-10
  6.51001     85.7 1.082e+04 8.342e-10
  6.52958     86.5 1.079e+04 7.880e-10
  6.54916     87.2 1.076e+04 7.293e-10
  6.56873     87.9 1.071e+04 6.650e-10
  6.58830     88.3 1.062e+04 6.134e-10
  6.60787     88.4 1.052e+04 5.905e-10
  6.62744     88.5 1.051e+04 5.957e-10
  6.64702     88.4 1.056e+04 6.340e-10
  6.66659     88.4 1.073e+04 7.256e-10
  6.68616     88.4 1.095e+04 8.408e-10
  6.70573     88.5 1.118e+04 9.529e-10
  6.72530     88.5 1.135e+04 1.001e-09
  6.74488     88.4 1.137e+04 9.949e-10
  6.76445     88.2 1.129e+04 9.409e-10
  6.78402     88.0 1.109e+04 8.153e-10
  6.79942     87.7 1.081e+04 6.567e-10
  6.80920     87.5 1.076e+04 6.316e-10
  6.82316     86.8 1.052e+04 4.828e-10
  6.84274     86.0 1.019e+04 3.464e-10
  6.85741     85.6 1.011e+04 3.217e-10
  6.86729     85.7 1.024e+04 3.759e-10
  6.89186     85.6 9.799e+03 2.576e-10
  6.93100     85.8 9.512e+03 2.170e-10
  6.97015     86.3 9.512e+03 2.187e-10
  7.00929     87.0 9.604e+03 2.372e-10
  7.04844     87.8 9.856e+03 2.936e-10
  7.08758     88.8 1.016e+04 3.770e-10
  7.12672     90.0 1.045e+04 4.475e-10
  7.16587     91.2 1.057e+04 4.560e-10
  7.20501     92.7 1.058e+04 4.475e-10
  7.23716     94.4 1.057e+04 4.193e-10
  7.25673     95.1 1.086e+04 5.396e-10
  7.28330     96.9 1.091e+04 5.266e-10
  7.32244     98.8 1.100e+04 5.300e-10
  7.36159    100.8 1.108e+04 5.452e-10
  7.40073    103.0 1.119e+04 5.746e-10
  7.43987    105.4 1.151e+04 6.319e-10
  7.47902    107.9 1.172e+04 6.654e-10
  7.50828    108.9 1.167e+04 5.953e-10
  7.52775    109.7 1.189e+04 6.581e-10
  7.54732    110.5 1.218e+04 8.181e-10
  7.56690    111.4 1.243e+04 9.875e-10
  7.58647    112.4 1.268e+04 1.147e-09
  7.60604    113.3 1.296e+04 1.299e-09
  7.62561    114.1 1.327e+04 1.449e-09
  7.64518    114.8 1.359e+04 1.603e-09
  7.66475    115.3 1.386e+04 1.767e-09
  7.68302    115.7 1.407e+04 1.940e-09
  7.69277    116.3 1.484e+04 2.942e-09
  7.70386    116.1 1.513e+04 3.879e-09
  7.72347    116.5 1.508e+04 3.638e-09
  7.74304    117.0 1.492e+04 3.298e-09
  7.76261    117.4 1.465e+04 2.960e-09
  7.78219    117.9 1.420e+04 2.479e-09
  7.80176    118.5 1.364e+04 2.001e-09
  7.82133    119.0 1.306e+04 1.597e-09
  7.84090    119.4 1.252e+04 1.288e-09
  7.86047    119.9 1.208e+04 1.077e-09
  7.88005    120.4 1.174e+04 9.484e-10
  7.89962    120.9 1.154e+04 8.944e-10
  7.91919    121.5 1.151e+04 8.943e-10
  7.93876    121.6 1.152e+04 8.993e-10
  7.95833    121.5 1.157e+04 9.180e-10
  7.97791    121.0 1.175e+04 9.869e-10
  7.99748    119.4 1.230e+04 1.223e-09
  8.01705    116.7 1.326e+04 1.783e-09
  8.03662    113.7 1.424e+04 2.800e-09
  8.05619    110.9 1.501e+04 4.090e-09
  8.07576    108.8 1.567e+04 4.945e-09
  8.09534    107.4 1.554e+04 4.875e-09
  8.10562    105.0 1.597e+04 4.623e-09
  8.11540    107.3 1.509e+04 4.029e-09
  8.13161    103.8 1.583e+04 3.977e-09
  8.14140    107.2 1.401e+04 2.594e-09
  8.15405    103.3 1.465e+04 2.598e-09
  8.17362     98.8 1.505e+04 2.818e-09
  8.19320     95.1 1.501e+04 3.341e-09
  8.21277     92.8 1.488e+04 4.061e-09
  8.23234     91.8 1.492e+04 4.799e-09
  8.25191     91.4 1.512e+04 5.315e-09
  8.27148     91.0 1.534e+04 5.591e-09
  8.29106     90.1 1.552e+04 5.699e-09
  8.31063     88.9 1.574e+04 5.883e-09
  8.33020     87.7 1.592e+04 6.085e-09
  8.34977     86.4 1.586e+04 6.017e-09
  8.36934     85.4 1.567e+04 5.784e-09
  8.38892     84.6 1.530e+04 5.260e-09
  8.40849     84.0 1.478e+04 4.317e-09
  8.42806     83.3 1.413e+04 3.157e-09
  8.44763     82.0 1.349e+04 2.161e-09
  8.46720     79.9 1.292e+04 1.499e-09
  8.48677     77.4 1.237e+04 1.158e-09
  8.50635     75.3 1.185e+04 1.064e-09
  8.51843     73.9 1.173e+04 1.069e-09
  8.52821     73.1 1.120e+04 8.086e-10
  8.54549     72.2 1.122e+04 9.003e-10
  8.56506     71.5 1.145e+04 1.073e-09
  8.57894     70.9 1.189e+04 1.323e-09
  8.58873     71.6 1.157e+04 1.140e-09
  8.61409     69.6 1.191e+04 1.244e-09
  8.65333     68.5 1.167e+04 1.106e-09
  8.69248     67.7 1.105e+04 7.787e-10
  8.73162     67.0 1.028e+04 4.455e-10
  8.77076     66.2 9.534e+03 2.197e-10
  8.80991     65.1 8.875e+03 1.156e-10
  8.84905     64.6 8.649e+03 1.055e-10
  8.88819     64.3 8.696e+03 1.143e-10
  8.92734     63.4 9.097e+03 1.662e-10
  8.96648     61.6 9.827e+03 2.812e-10
  8.99574     59.3 1.086e+04 6.585e-10
  9.01522     59.4 1.126e+04 9.655e-10
  9.02627     59.2 1.167e+04 1.126e-09
  9.03606     59.4 1.161e+04 1.065e-09
  9.05436     59.1 1.173e+04 1.122e-09
  9.08382     58.3 1.179e+04 1.070e-09
  9.12306     56.0 1.192e+04 1.012e-09
  9.16220     53.9 1.221e+04 1.081e-09
  9.19146     50.9 1.295e+04 1.405e-09
  9.21094     49.5 1.356e+04 2.107e-09
  9.23051     49.5 1.414e+04 3.122e-09
  9.25008     49.4 1.486e+04 4.175e-09
  9.26965     48.4 1.606e+04 5.479e-09
  9.28922     46.4 1.754e+04 7.619e-09
  9.30879     44.3 1.859e+04 1.092e-08
  9.32837     42.7 1.926e+04 1.398e-08
  9.34404     41.2 2.020e+04 1.644e-08
  9.35383     38.8 1.994e+04 1.414e-08
  9.36751     36.1 1.977e+04 1.398e-08
  9.38708     33.7 1.869e+04 1.280e-08
  9.40665     32.8 1.735e+04 1.071e-08
  9.42623     32.8 1.641e+04 8.617e-09
  9.44580     32.8 1.593e+04 6.714e-09
  9.46381     32.1 1.612e+04 5.086e-09
  9.47360     30.8 1.678e+04 5.945e-09
  9.48494     27.2 1.731e+04 6.006e-09
  9.50451     23.8 1.685e+04 5.959e-09
  9.52409     21.9 1.591e+04 5.850e-09
  9.54366     18.5 1.775e+04 6.143e-09
  9.56323      9.1 2.332e+04 8.310e-09
  9.58280      0.5 2.106e+04 8.671e-09
  9.59743     -4.1 1.875e+04 8.253e-09
  9.60717     -6.1 1.696e+04 6.569e-09
  9.62190     -8.0 1.545e+04 4.491e-09
  9.64152    -11.1 1.375e+04 2.472e-09
  9.66109    -16.6 1.307e+04 1.420e-09
  9.68066    -23.4 1.237e+04 1.120e-09
  9.70023    -27.9 1.212e+04 1.259e-09
  9.71980    -29.7 1.231e+04 1.897e-09
  9.73938    -29.7 1.274e+04 2.536e-09
  9.75685    -28.7 1.310e+04 2.841e-09
  9.76664    -28.9 1.329e+04 3.001e-09
  9.77852    -28.2 1.339e+04 2.979e-09
  9.79809    -28.0 1.291e+04 1.968e-09
  9.81766    -30.7 1.200e+04 1.250e-09
  9.83724    -32.8 1.098e+04 8.568e-10
  9.85681    -33.6 1.050e+04 6.903e-10
  9.87638    -33.9 1.025e+04 6.097e-10
  9.89595    -34.0 1.011e+04 5.813e-10
  9.91114    -34.0 1.009e+04 5.806e-10
  9.92092    -33.6 1.005e+04 5.537e-10
  9.93510    -33.8 1.026e+04 6.303e-10
  9.95467    -34.2 1.073e+04 7.812e-10
  9.97424    -34.9 1.141e+04 1.060e-09
  9.99381    -35.7 1.204e+04 1.480e-09
 10.01338    -35.7 1.268e+04 2.031e-09
 10.03296    -35.6 1.316e+04 2.519e-09
 10.05253    -35.3 1.341e+04 2.742e-09
 10.07210    -35.4 1.342e+04 2.733e-09
 10.09167    -35.4 1.322e+04 2.367e-09
 10.11124    -36.2 1.281e+04 1.912e-09
 10.13081    -37.1 1.237e+04 1.605e-09
 10.15039    -37.9 1.206e+04 1.459e-09
 10.16966    -38.5 1.197e+04 1.426e-09
 10.17944    -37.4 1.215e+04 1.520e-09
 10.18953    -37.9 1.211e+04 1.520e-09
 10.20910    -38.3 1.212e+04 1.622e-09
 10.22867    -38.7 1.217e+04 1.719e-09
 10.24825    -39.2 1.221e+04 1.753e-09
 10.26782    -40.5 1.259e+04 1.784e-09
 10.28739    -55.8 3.312e+04 1.723e-09
 10.30202    -75.4 4.253e+04 2.953e-09
 10.31176    -86.4 3.369e+04 1.376e-08
 10.32154    -92.8 2.675e+04 5.555e-08
 10.33133    -97.4 2.361e+04 1.201e-07
 10.34111   -100.3 2.343e+04 1.407e-07
 10.35090   -104.5 2.478e+04 1.135e-07
 10.35837   -113.1 2.725e+04 3.081e-08
 10.36326   -108.3 2.620e+04 5.381e-08
 10.37047   -122.0 2.654e+04 7.215e-09
 10.38026   -139.2 1.712e+04 1.520e-09
 10.38575   -146.3 1.353e+04 1.170e-09
 10.39064   -146.3 1.401e+04 1.227e-09
 10.40477   -149.6 1.436e+04 1.375e-09
 10.42439   -154.0 1.555e+04 1.986e-09
 10.44397   -157.8 1.698e+04 4.209e-09
 10.46354   -159.0 1.791e+04 7.705e-09
 10.48311   -159.4 1.844e+04 1.086e-08
 10.50268   -160.1 1.848e+04 1.163e-08
 10.52225   -161.2 1.811e+04 1.048e-08
 10.54182   -162.7 1.744e+04 8.390e-09
 10.56140   -164.3 1.661e+04 6.616e-09
 10.58097   -165.4 1.580e+04 5.382e-09
 10.59225   -165.8 1.515e+04 4.566e-09
 10.60204   -165.6 1.542e+04 4.937e-09
 10.62011   -165.9 1.480e+04 4.070e-09
 10.63968   -166.0 1.423e+04 3.306e-09
 10.65926   -165.8 1.359e+04 2.589e-09
 10.67883   -165.3 1.293e+04 1.978e-09
 10.69840   -164.7 1.237e+04 1.526e-09
 10.71797   -164.3 1.191e+04 1.207e-09
 10.73754   -164.0 1.150e+04 9.853e-10
 10.75712   -163.8 1.115e+04 8.405e-10
 10.77669   -163.7 1.087e+04 7.547e-10
 10.79601   -163.6 1.067e+04 7.101e-10
 10.80579   -164.0 1.044e+04 6.209e-10
 10.81583   -163.8 1.041e+04 6.217e-10
 10.83540   -163.6 1.040e+04 6.526e-10
 10.85498   -163.5 1.047e+04 6.956e-10
 10.87455   -163.5 1.053e+04 7.163e-10
 10.89412   -163.5 1.054e+04 7.183e-10
 10.91369   -163.6 1.047e+04 7.062e-10
 10.93326   -163.6 1.032e+04 6.576e-10
 10.95283   -163.6 1.014e+04 5.961e-10
 10.97241   -163.6 9.971e+03 5.403e-10
 10.99198   -163.6 9.837e+03 4.976e-10
 11.00506   -163.6 9.757e+03 4.716e-10
 11.01485   -163.9 9.743e+03 4.730e-10
 11.03112   -163.9 9.722e+03 4.666e-10
 11.05069   -164.0 9.730e+03 4.674e-10
 11.07027   -164.2 9.855e+03 4.915e-10
 11.08984   -164.7 1.018e+04 5.770e-10
 11.10941   -165.2 1.053e+04 7.116e-10
 11.12898   -165.6 1.083e+04 8.548e-10
 11.14855   -165.9 1.103e+04 9.756e-10
 11.16813   -166.1 1.113e+04 1.048e-09
 11.18770   -166.2 1.116e+04 1.079e-09
 11.20727   -166.4 1.122e+04 1.099e-09
 11.22684   -168.1 1.152e+04 1.160e-09
 11.24333   -171.8 1.284e+04 1.465e-09
 11.25312   -173.0 1.331e+04 1.551e-09
 11.26599   -177.1 1.497e+04 2.637e-09
