# Columns:
#   distance along LOS (in CHIMPs)
#   peculiar velocity  (in km/s)
#   temperature (K)
#   HI number density
# pos=(253.841,74.6744,200.665), angles=(1.6718,4.62245)
  0.00395     69.7 4.212e+04 5.741e-09
  0.01282     49.6 4.090e+04 6.221e-09
  0.02267     36.6 4.231e+04 6.175e-09
  0.03253     16.9 4.539e+04 7.220e-09
  0.04239      5.8 4.169e+04 7.925e-09
  0.04829     -6.2 3.696e+04 1.153e-08
  0.05322     -1.5 3.871e+04 1.037e-08
  0.05999     -7.9 3.370e+04 1.431e-08
  0.06491    -19.0 3.410e+04 2.552e-08
  0.07195    -23.1 3.534e+04 2.855e-08
  0.08181    -25.8 3.734e+04 2.468e-08
  0.09166    -28.0 3.729e+04 2.102e-08
  0.10152    -30.3 3.834e+04 1.716e-08
  0.11137    -30.8 3.884e+04 1.187e-08
  0.12123    -31.7 3.680e+04 9.901e-09
  0.13606    -40.8 2.883e+04 7.196e-09
  0.15231    -38.3 2.434e+04 6.279e-09
  0.16216    -37.7 2.404e+04 5.008e-09
  0.17553    -34.1 2.227e+04 4.361e-09
  0.19524    -29.9 2.190e+04 3.900e-09
  0.21495    -25.9 2.121e+04 3.490e-09
  0.23467    -22.3 2.029e+04 3.096e-09
  0.25056    -18.9 1.936e+04 2.775e-09
  0.26041    -22.9 1.879e+04 2.289e-09
  0.27409    -18.8 1.836e+04 2.207e-09
  0.29380    -14.8 1.790e+04 2.091e-09
  0.31351    -10.9 1.748e+04 1.946e-09
  0.33322     -7.1 1.711e+04 1.798e-09
  0.35293     -3.5 1.680e+04 1.673e-09
  0.37000     -0.2 1.660e+04 1.565e-09
  0.37985     -1.6 1.620e+04 1.376e-09
  0.39235      1.1 1.598e+04 1.240e-09
  0.41206      3.3 1.581e+04 1.123e-09
  0.43177      4.8 1.580e+04 1.056e-09
  0.44596      5.8 1.613e+04 1.081e-09
  0.45581      5.7 1.471e+04 7.261e-10
  0.47120      6.5 1.499e+04 7.562e-10
  0.49091      6.3 1.568e+04 8.513e-10
  0.51062      5.4 1.658e+04 1.042e-09
  0.53033      3.7 1.704e+04 1.273e-09
  0.55004      1.4 1.717e+04 1.458e-09
  0.56975     -2.5 1.732e+04 1.718e-09
  0.58769     -7.6 1.787e+04 2.023e-09
  0.59754     -8.1 1.674e+04 1.538e-09
  0.60917    -13.2 1.666e+04 1.645e-09
  0.62888    -18.0 1.621e+04 1.574e-09
  0.64136    -22.5 1.547e+04 1.371e-09
  0.65121    -23.6 1.531e+04 1.198e-09
  0.66831    -27.3 1.464e+04 1.055e-09
  0.68802    -29.4 1.397e+04 8.895e-10
  0.70773    -30.8 1.368e+04 7.754e-10
  0.72744    -33.0 1.413e+04 7.712e-10
  0.74715    -38.8 1.662e+04 1.043e-09
  0.76686    -45.1 1.863e+04 1.940e-09
  0.78160    -45.8 1.897e+04 2.919e-09
  0.79140    -46.4 1.944e+04 3.323e-09
  0.80126    -48.5 2.008e+04 6.320e-09
  0.81021    -49.1 2.063e+04 8.798e-09
  0.81514    -47.0 2.021e+04 6.525e-09
  0.82097    -47.0 2.103e+04 1.097e-08
  0.83082    -47.7 2.143e+04 1.355e-08
  0.83666    -47.0 2.257e+04 1.847e-08
  0.84159    -48.2 2.389e+04 2.272e-08
  0.85054    -49.5 2.519e+04 2.607e-08
  0.86039    -50.5 2.647e+04 2.833e-08
  0.87025    -51.6 2.764e+04 2.878e-08
  0.88010    -53.9 2.843e+04 2.331e-08
  0.88996    -54.7 2.962e+04 2.044e-08
  0.89981    -58.1 2.820e+04 1.650e-08
  0.90967    -59.7 2.811e+04 1.535e-08
  0.91905    -60.8 2.620e+04 1.319e-08
  0.92398    -57.9 2.555e+04 1.211e-08
  0.92938    -58.9 2.438e+04 1.114e-08
  0.94421    -61.8 2.400e+04 1.254e-08
  0.96397    -61.6 2.350e+04 1.248e-08
  0.98368    -60.9 2.354e+04 1.284e-08
  1.00339    -60.2 2.393e+04 1.329e-08
  1.02231    -59.4 2.484e+04 1.318e-08
  1.03213    -62.2 2.532e+04 1.125e-08
  1.04278    -58.2 2.467e+04 1.152e-08
  1.06253    -57.7 2.475e+04 1.111e-08
  1.08224    -56.9 2.533e+04 1.013e-08
  1.10195    -55.9 2.619e+04 8.762e-09
  1.12166    -54.9 2.737e+04 7.116e-09
  1.14137    -54.4 2.859e+04 5.327e-09
  1.16108    -54.5 2.905e+04 3.816e-09
  1.18079    -54.9 2.798e+04 2.865e-09
  1.20050    -55.2 2.541e+04 2.437e-09
  1.21771    -55.0 2.257e+04 2.312e-09
  1.22756    -58.4 1.563e+04 2.618e-09
  1.23993    -57.1 1.567e+04 2.825e-09
  1.25062    -56.0 1.598e+04 3.005e-09
  1.26047    -53.2 1.756e+04 2.949e-09
  1.27935    -52.1 1.690e+04 3.106e-09
  1.29906    -50.8 1.648e+04 3.221e-09
  1.31877    -49.5 1.640e+04 3.315e-09
  1.33848    -48.5 1.651e+04 3.381e-09
  1.35819    -47.8 1.673e+04 3.427e-09
  1.37790    -47.5 1.693e+04 3.386e-09
  1.39761    -47.6 1.720e+04 3.355e-09
  1.41311    -49.4 1.738e+04 3.503e-09
  1.42296    -54.5 2.224e+04 4.305e-09
  1.43206    -58.1 2.535e+04 4.581e-09
  1.44187    -61.8 2.666e+04 6.739e-09
  1.45172    -64.0 2.770e+04 8.214e-09
  1.46158    -66.5 2.793e+04 1.161e-08
  1.46821    -68.5 2.758e+04 1.654e-08
  1.47314    -68.7 2.713e+04 2.045e-08
  1.48129    -70.4 2.628e+04 2.776e-08
  1.49114    -71.8 2.551e+04 3.362e-08
  1.50100    -73.1 2.515e+04 3.547e-08
  1.51071    -74.8 2.503e+04 3.400e-08
  1.51564    -77.0 2.504e+04 3.948e-08
  1.52071    -79.1 2.509e+04 3.189e-08
  1.53056    -81.2 2.492e+04 2.655e-08
  1.54042    -83.1 2.457e+04 2.279e-08
  1.55028    -84.8 2.399e+04 2.004e-08
  1.56013    -85.9 2.361e+04 1.773e-08
  1.57496    -87.3 2.331e+04 1.578e-08
  1.59472    -90.0 2.240e+04 1.341e-08
  1.60851    -91.6 2.224e+04 1.300e-08
  1.61837    -95.2 2.004e+04 8.107e-09
  1.63414    -97.1 2.011e+04 8.331e-09
  1.65386    -99.3 2.037e+04 9.185e-09
  1.66859   -101.1 2.066e+04 9.962e-09
  1.67840   -102.0 2.053e+04 1.001e-08
  1.68590   -103.3 2.017e+04 1.004e-08
  1.69083   -104.7 2.004e+04 1.004e-08
  1.69811   -105.5 1.963e+04 9.452e-09
  1.70611   -106.4 1.898e+04 8.511e-09
  1.71104   -106.7 1.836e+04 7.184e-09
  1.71782   -107.0 1.806e+04 6.331e-09
  1.72767   -108.0 1.791e+04 5.348e-09
  1.73753   -109.7 1.811e+04 4.685e-09
  1.74739   -112.1 1.827e+04 4.213e-09
  1.75724   -114.0 1.850e+04 4.099e-09
  1.77207   -120.0 1.869e+04 4.005e-09
  1.79183   -127.1 1.809e+04 3.962e-09
  1.80391   -132.4 1.738e+04 4.057e-09
  1.81377   -131.6 1.639e+04 2.890e-09
  1.83125   -133.9 1.594e+04 3.255e-09
  1.85097   -134.9 1.583e+04 3.395e-09
  1.87068   -135.3 1.532e+04 3.089e-09
  1.89039   -135.6 1.448e+04 2.244e-09
  1.90369   -136.0 1.342e+04 1.421e-09
  1.91354   -136.4 1.365e+04 1.549e-09
  1.92981   -137.1 1.240e+04 9.394e-10
  1.94952   -137.3 1.141e+04 6.178e-10
  1.96923   -137.2 1.090e+04 4.557e-10
  1.98894   -136.3 1.079e+04 3.696e-10
  1.99931   -135.5 1.091e+04 3.377e-10
  2.00917   -133.4 1.101e+04 3.734e-10
  2.02836   -133.0 1.115e+04 3.628e-10
  2.04808   -133.4 1.124e+04 3.591e-10
  2.06779   -134.0 1.127e+04 3.592e-10
  2.08750   -135.2 1.107e+04 3.501e-10
  2.10721   -135.8 1.105e+04 3.534e-10
  2.12138   -137.0 1.073e+04 3.744e-10
  2.13123   -137.0 1.076e+04 4.366e-10
  2.14663   -137.9 1.137e+04 6.587e-10
  2.16634   -138.6 1.249e+04 1.118e-09
  2.18486   -138.8 1.402e+04 1.982e-09
  2.19471   -137.3 1.324e+04 1.565e-09
  2.20576   -137.4 1.505e+04 2.913e-09
  2.22547   -137.2 1.677e+04 5.097e-09
  2.24519   -137.0 1.812e+04 7.558e-09
  2.26490   -137.4 1.892e+04 9.419e-09
  2.28461   -138.4 1.915e+04 1.005e-08
  2.30432   -139.5 1.909e+04 9.470e-09
  2.32403   -140.6 1.835e+04 6.906e-09
  2.33907   -141.9 1.720e+04 4.485e-09
  2.34893   -143.3 1.685e+04 3.798e-09
  2.36345   -144.8 1.513e+04 2.485e-09
  2.38026   -145.5 1.390e+04 1.946e-09
  2.39012   -143.9 1.468e+04 2.120e-09
  2.40287   -144.6 1.359e+04 1.669e-09
  2.42258   -144.7 1.306e+04 1.479e-09
  2.44230   -143.9 1.276e+04 1.333e-09
  2.46201   -142.9 1.259e+04 1.215e-09
  2.48172   -141.9 1.245e+04 1.092e-09
  2.50143   -140.9 1.225e+04 9.531e-10
  2.52114   -140.0 1.198e+04 8.100e-10
  2.54085   -139.0 1.168e+04 6.813e-10
  2.55676   -138.1 1.141e+04 5.728e-10
  2.56662   -139.2 1.146e+04 5.628e-10
  2.57566   -138.4 1.133e+04 4.905e-10
  2.58552   -138.2 1.096e+04 4.577e-10
  2.59998   -137.3 1.086e+04 4.052e-10
  2.61969   -136.5 1.092e+04 3.800e-10
  2.63940   -135.9 1.107e+04 3.771e-10
  2.65912   -135.7 1.144e+04 4.032e-10
  2.67883   -135.7 1.191e+04 4.701e-10
  2.69854   -136.1 1.243e+04 5.996e-10
  2.71825   -136.6 1.294e+04 8.203e-10
  2.73796   -136.9 1.341e+04 1.157e-09
  2.75767   -137.0 1.389e+04 1.611e-09
  2.77106   -136.9 1.439e+04 2.173e-09
  2.77799   -136.4 1.307e+04 1.366e-09
  2.78431   -137.3 1.376e+04 1.781e-09
  2.79709   -137.0 1.431e+04 2.301e-09
  2.81680   -136.8 1.490e+04 2.838e-09
  2.83651   -136.8 1.550e+04 3.333e-09
  2.85623   -137.0 1.607e+04 3.748e-09
  2.87594   -137.4 1.657e+04 4.091e-09
  2.89565   -137.9 1.693e+04 4.403e-09
  2.91536   -138.3 1.724e+04 4.719e-09
  2.93507   -138.7 1.743e+04 5.180e-09
  2.95478   -138.7 1.716e+04 5.716e-09
  2.96646   -138.6 1.688e+04 5.999e-09
  2.97632   -136.7 1.781e+04 5.623e-09
  2.99214   -136.4 1.778e+04 6.648e-09
  3.00200   -137.3 1.665e+04 5.778e-09
  3.01391   -136.8 1.668e+04 5.790e-09
  3.03362   -136.3 1.691e+04 5.751e-09
  3.05334   -135.9 1.754e+04 5.613e-09
  3.07305   -135.6 1.832e+04 5.351e-09
  3.08778   -134.9 1.925e+04 5.636e-09
  3.09759   -134.8 2.016e+04 5.594e-09
  3.10582   -137.3 2.214e+04 5.506e-09
  3.11075   -138.1 2.007e+04 3.952e-09
  3.11730   -141.4 2.114e+04 3.820e-09
  3.12715   -146.4 2.283e+04 3.862e-09
  3.13701   -151.7 2.399e+04 4.725e-09
  3.14687   -157.0 2.353e+04 6.549e-09
  3.15672   -161.3 2.230e+04 9.775e-09
  3.16177   -163.8 2.173e+04 1.514e-08
  3.16670   -160.3 2.628e+04 1.111e-08
  3.17643   -163.6 2.343e+04 1.609e-08
  3.18629   -165.5 2.264e+04 2.235e-08
  3.19614   -166.8 2.277e+04 2.901e-08
  3.20600   -168.0 2.295e+04 3.514e-08
  3.21466   -169.6 2.334e+04 3.899e-08
  3.21959   -168.1 2.257e+04 3.882e-08
  3.22571   -169.6 2.256e+04 3.891e-08
  3.23556   -171.4 2.310e+04 3.574e-08
  3.24542   -173.7 2.446e+04 3.322e-08
  3.25454   -176.4 2.583e+04 3.486e-08
  3.25947   -178.6 2.716e+04 5.360e-08
  3.26513   -180.7 2.617e+04 7.050e-08
  3.27499   -182.2 2.479e+04 1.023e-07
  3.28484   -183.2 2.344e+04 1.573e-07
  3.29470   -183.8 2.247e+04 2.374e-07
  3.30455   -184.6 2.195e+04 3.248e-07
  3.31441   -185.9 2.178e+04 3.745e-07
  3.32351   -187.5 2.173e+04 3.822e-07
  3.32844   -187.4 2.204e+04 3.545e-07
  3.33412   -188.4 2.171e+04 3.469e-07
  3.34397   -188.5 2.194e+04 2.975e-07
  3.35224   -188.4 2.206e+04 2.837e-07
  3.35717   -188.2 2.125e+04 2.561e-07
  3.36369   -188.2 2.138e+04 2.467e-07
  3.37354   -189.3 2.183e+04 2.436e-07
  3.38340   -192.0 2.296e+04 2.919e-07
  3.39325   -194.9 2.181e+04 5.726e-07
  3.40311   -197.9 2.086e+04 1.124e-06
  3.41048   -200.3 2.044e+04 1.471e-06
  3.41538   -201.6 2.040e+04 1.657e-06
  3.42031   -204.6 2.019e+04 1.878e-06
  3.42523   -207.2 2.015e+04 1.919e-06
  3.43016   -209.0 2.001e+04 1.721e-06
  3.43477   -209.8 2.044e+04 1.138e-06
  3.43723   -209.1 2.036e+04 1.088e-06
  3.44002   -209.7 2.090e+04 6.778e-07
  3.44494   -210.2 2.159e+04 4.225e-07
  3.44987   -210.9 2.206e+04 2.975e-07
  3.45482   -208.7 2.280e+04 2.026e-07
  3.46224   -209.2 2.466e+04 1.060e-07
  3.47210   -210.2 2.644e+04 6.874e-08
  3.48195   -211.2 2.744e+04 5.524e-08
  3.49181   -212.1 2.782e+04 4.926e-08
  3.50166   -212.9 2.783e+04 4.499e-08
  3.51152   -213.5 2.761e+04 4.077e-08
  3.52137   -213.6 2.726e+04 3.638e-08
  3.53123   -213.5 2.671e+04 3.201e-08
  3.54108   -213.1 2.598e+04 2.787e-08
  3.54613   -212.6 2.514e+04 2.402e-08
  3.54776   -212.2 2.486e+04 2.903e-08
  3.55257   -211.7 2.387e+04 1.219e-08
  3.56577   -211.7 2.210e+04 1.043e-08
  3.58553   -210.5 2.089e+04 9.545e-09
  3.60524   -209.2 1.955e+04 8.414e-09
  3.62495   -208.0 1.885e+04 7.671e-09
  3.64467   -206.9 1.825e+04 7.064e-09
  3.65507   -205.8 1.765e+04 6.520e-09
  3.66493   -206.0 1.672e+04 5.203e-09
  3.68409   -204.7 1.618e+04 4.823e-09
  3.70380   -203.4 1.587e+04 4.663e-09
  3.72351   -202.2 1.580e+04 4.637e-09
  3.73821   -201.1 1.575e+04 4.725e-09
  3.74807   -200.0 1.660e+04 5.111e-09
  3.76293   -198.9 1.656e+04 5.905e-09
  3.78264   -198.1 1.680e+04 7.241e-09
  3.80235   -198.0 1.763e+04 9.022e-09
  3.82206   -198.7 2.041e+04 1.050e-08
  3.83587   -201.0 2.244e+04 1.104e-08
  3.84074   -202.2 2.377e+04 1.125e-08
  3.84661   -206.4 2.942e+04 1.352e-08
  3.85646   -210.6 2.547e+04 6.530e-08
  3.86632   -211.5 2.199e+04 3.029e-07
  3.87266   -211.8 2.076e+04 7.996e-07
  3.87759   -211.8 2.132e+04 3.262e-07
  3.88603   -212.5 2.073e+04 6.343e-07
  3.89588   -213.3 2.067e+04 7.885e-07
  3.90325   -214.3 2.070e+04 1.009e-06
  3.90815   -214.9 2.047e+04 1.111e-06
  3.91308   -215.0 2.039e+04 1.135e-06
  3.91801   -214.8 2.057e+04 9.396e-07
  3.92294   -214.5 2.111e+04 6.608e-07
  3.92704   -214.4 2.171e+04 4.470e-07
  3.92950   -213.1 2.163e+04 4.648e-07
  3.93279   -213.3 2.202e+04 3.577e-07
  3.93593   -213.6 2.224e+04 2.943e-07
  3.93842   -214.4 2.451e+04 1.701e-07
  3.94516   -213.8 2.564e+04 8.840e-08
  3.95502   -213.6 2.681e+04 3.942e-08
  3.96487   -214.4 2.647e+04 1.661e-08
  3.97473   -217.5 2.312e+04 7.328e-09
  3.98151   -220.3 1.770e+04 3.781e-09
  3.98644   -217.3 2.120e+04 5.683e-09
  3.99444   -219.7 1.629e+04 3.130e-09
  4.00429   -220.9 1.369e+04 2.116e-09
  4.01912   -221.3 1.292e+04 1.569e-09
  4.03888   -220.7 1.194e+04 9.982e-10
  4.05860   -220.4 1.069e+04 5.792e-10
  4.07831   -220.7 9.740e+03 3.727e-10
  4.09045   -220.7 9.401e+03 2.886e-10
  4.10031   -219.3 9.621e+03 3.491e-10
  4.11773   -219.1 9.362e+03 2.798e-10
  4.12902   -218.6 9.268e+03 2.494e-10
  4.13887   -217.6 9.135e+03 2.301e-10
  4.15715   -217.0 9.038e+03 2.118e-10
  4.18681   -216.4 8.930e+03 1.949e-10
  4.22633   -215.0 8.641e+03 1.656e-10
  4.26576   -213.3 8.525e+03 1.559e-10
  4.30518   -212.2 8.518e+03 1.545e-10
  4.34460   -211.8 8.542e+03 1.845e-10
  4.38402   -212.3 9.605e+03 3.238e-10
  4.42344   -213.4 1.131e+04 6.671e-10
  4.45291   -213.5 1.211e+04 9.835e-10
  4.47253   -213.8 1.297e+04 1.473e-09
  4.49224   -214.1 1.394e+04 2.214e-09
  4.50996   -214.5 1.504e+04 3.219e-09
  4.51982   -213.8 1.376e+04 2.410e-09
  4.52583   -214.2 1.449e+04 3.025e-09
  4.53569   -213.4 1.530e+04 3.740e-09
  4.55137   -214.4 1.592e+04 4.328e-09
  4.57108   -215.8 1.606e+04 4.442e-09
  4.59079   -216.9 1.601e+04 4.170e-09
  4.61050   -217.7 1.542e+04 3.108e-09
  4.63021   -218.8 1.454e+04 2.176e-09
  4.64993   -219.9 1.374e+04 1.670e-09
  4.66964   -221.0 1.334e+04 1.517e-09
  4.68935   -221.7 1.325e+04 1.495e-09
  4.70536   -222.3 1.319e+04 1.545e-09
  4.71522   -221.0 1.252e+04 1.139e-09
  4.72877   -221.3 1.270e+04 1.257e-09
  4.74353   -221.5 1.291e+04 1.480e-09
  4.75338   -221.4 1.302e+04 1.590e-09
  4.76819   -221.5 1.309e+04 1.771e-09
  4.78790   -221.4 1.311e+04 1.866e-09
  4.80761   -221.3 1.309e+04 1.881e-09
  4.82732   -221.1 1.292e+04 1.847e-09
  4.84704   -220.8 1.263e+04 1.679e-09
  4.86675   -220.5 1.227e+04 1.435e-09
  4.88646   -220.3 1.184e+04 1.157e-09
  4.90077   -220.0 1.137e+04 8.905e-10
  4.91062   -218.1 1.244e+04 1.321e-09
  4.92588   -217.9 1.200e+04 1.061e-09
  4.94559   -217.9 1.150e+04 8.136e-10
  4.96122   -217.7 1.104e+04 6.078e-10
  4.97107   -217.7 1.096e+04 5.902e-10
  4.98501   -217.6 1.050e+04 4.409e-10
  5.00472   -217.4 1.005e+04 3.439e-10
  5.02443   -216.6 9.816e+03 2.986e-10
  5.05410   -216.0 9.617e+03 2.660e-10
  5.09362   -216.1 9.372e+03 2.384e-10
  5.13304   -215.4 9.250e+03 2.304e-10
  5.17246   -214.6 9.260e+03 2.375e-10
  5.21188   -214.0 9.690e+03 3.088e-10
  5.25131   -213.4 1.050e+04 4.485e-10
  5.28191   -213.3 1.127e+04 6.016e-10
  5.30162   -210.8 1.026e+04 3.650e-10
  5.32020   -210.4 1.055e+04 4.130e-10
  5.33981   -210.3 1.059e+04 4.471e-10
  5.35952   -210.3 1.085e+04 5.335e-10
  5.37923   -210.4 1.192e+04 6.725e-10
  5.39660   -211.2 1.396e+04 9.693e-10
  5.40645   -213.1 1.576e+04 1.388e-09
  5.41865   -214.5 1.765e+04 2.630e-09
  5.43836   -216.7 2.054e+04 4.880e-09
  5.45808   -219.7 2.473e+04 1.119e-08
  5.47281   -223.0 3.303e+04 1.648e-08
  5.48194   -224.7 3.039e+04 9.027e-08
  5.48687   -226.4 4.383e+04 1.848e-08
  5.49247   -226.8 3.025e+04 3.628e-07
  5.49984   -225.1 2.823e+04 1.100e-06
  5.50474   -221.8 1.820e+04 1.547e-05
  5.50967   -220.1 1.278e+04 1.220e-03
  5.51268   -218.5 1.004e+04 2.877e-02
  5.51390   -213.8 9.419e+03 7.966e-02
  5.51518   -217.1 9.238e+03 7.282e-02
  5.51641   -221.7 9.262e+03 7.432e-02
  5.51764   -228.1 9.217e+03 7.138e-02
  5.51887   -235.1 9.477e+03 5.873e-02
  5.52011   -242.4 9.472e+03 3.893e-02
  5.52134   -246.9 9.963e+03 2.249e-02
  5.52319   -252.9 1.151e+04 6.754e-03
  5.52566   -262.0 1.926e+04 1.107e-05
  5.52937   -266.4 2.410e+04 1.104e-06
  5.53321   -271.1 2.566e+04 2.473e-07
  5.53567   -271.7 2.394e+04 8.140e-07
  5.53924   -272.8 2.465e+04 2.065e-07
  5.54416   -272.8 2.421e+04 1.217e-07
  5.55158   -272.4 2.386e+04 9.745e-08
  5.56146   -270.1 2.310e+04 6.878e-08
  5.57132   -267.9 2.311e+04 4.650e-08
  5.57965   -266.5 2.389e+04 3.257e-08
  5.58457   -266.2 2.532e+04 2.613e-08
  5.59103   -265.5 2.560e+04 1.809e-08
  5.60088   -264.9 2.500e+04 1.317e-08
  5.61074   -264.5 2.383e+04 1.014e-08
  5.61912   -264.1 2.270e+04 8.357e-09
  5.62405   -263.7 2.265e+04 1.076e-08
  5.63045   -263.2 2.176e+04 9.161e-09
  5.64030   -262.5 2.108e+04 8.643e-09
  5.65514   -261.7 2.032e+04 8.395e-09
  5.66992   -260.7 1.907e+04 6.083e-09
  5.67735   -259.9 1.870e+04 5.872e-09
  5.68232   -260.5 1.909e+04 4.263e-09
  5.69461   -258.8 1.786e+04 3.144e-09
  5.71432   -257.3 1.687e+04 2.436e-09
  5.73403   -256.2 1.576e+04 1.845e-09
  5.75374   -255.1 1.479e+04 1.447e-09
  5.77345   -254.1 1.398e+04 1.179e-09
  5.79316   -252.9 1.334e+04 9.931e-10
  5.81287   -251.7 1.292e+04 8.648e-10
  5.83198   -250.5 1.267e+04 7.710e-10
  5.84184   -250.1 1.313e+04 1.211e-09
  5.85230   -248.9 1.287e+04 1.068e-09
  5.86792   -247.6 1.272e+04 9.536e-10
  5.87777   -247.6 1.242e+04 4.557e-10
  5.89172   -246.5 1.231e+04 4.033e-10
  5.91143   -245.4 1.225e+04 3.692e-10
  5.93114   -244.4 1.225e+04 3.622e-10
  5.95085   -243.4 1.248e+04 4.192e-10
  5.97056   -242.3 1.288e+04 5.392e-10
  6.00023   -241.3 1.344e+04 7.835e-10
  6.02979   -240.2 1.320e+04 5.134e-10
  6.04941   -239.0 1.355e+04 6.033e-10
  6.05953   -238.2 1.379e+04 6.341e-10
  6.06358   -237.4 1.400e+04 1.067e-09
  6.08313   -237.1 1.315e+04 2.654e-10
  6.11859   -236.0 1.370e+04 3.938e-10
  6.15801   -235.4 1.366e+04 6.175e-10
  6.18748   -234.7 1.410e+04 1.251e-09
  6.20709   -234.6 1.402e+04 1.383e-09
  6.22680   -234.7 1.401e+04 1.709e-09
  6.24651   -234.7 1.410e+04 1.922e-09
  6.25872   -234.8 1.427e+04 2.190e-09
  6.26858   -234.3 1.335e+04 1.372e-09
  6.27722   -234.3 1.346e+04 1.545e-09
  6.28707   -234.2 1.398e+04 2.023e-09
  6.30565   -234.1 1.425e+04 2.302e-09
  6.32536   -234.1 1.450e+04 2.583e-09
  6.34507   -234.0 1.468e+04 2.807e-09
  6.36478   -234.0 1.474e+04 2.940e-09
  6.38449   -233.9 1.474e+04 2.975e-09
  6.40420   -233.6 1.452e+04 2.928e-09
  6.42391   -233.0 1.420e+04 2.670e-09
  6.44362   -232.3 1.387e+04 2.349e-09
  6.45412   -231.5 1.359e+04 2.058e-09
  6.46398   -231.4 1.327e+04 1.624e-09
  6.48305   -230.7 1.315e+04 1.541e-09
  6.51271   -230.1 1.309e+04 1.473e-09
  6.55223   -228.8 1.299e+04 1.530e-09
  6.58170   -228.5 1.312e+04 1.899e-09
  6.60131   -228.0 1.342e+04 2.082e-09
  6.62102   -227.8 1.399e+04 2.448e-09
  6.63967   -227.7 1.463e+04 2.981e-09
  6.64952   -227.2 1.510e+04 3.281e-09
  6.66045   -227.2 1.621e+04 4.556e-09
  6.68016   -227.5 1.705e+04 5.839e-09
  6.69987   -228.6 1.744e+04 6.583e-09
  6.71260   -230.4 1.747e+04 6.696e-09
  6.72245   -231.2 1.797e+04 7.716e-09
  6.73929   -233.7 1.680e+04 5.505e-09
  6.75900   -236.1 1.554e+04 3.804e-09
  6.77871   -238.0 1.476e+04 3.000e-09
  6.79842   -239.2 1.440e+04 2.707e-09
  6.81813   -239.9 1.428e+04 2.656e-09
  6.83507   -240.2 1.421e+04 2.773e-09
  6.84492   -240.4 1.486e+04 3.347e-09
  6.85756   -240.5 1.476e+04 3.373e-09
  6.87727   -240.5 1.473e+04 3.576e-09
  6.89698   -240.1 1.480e+04 3.883e-09
  6.91669   -239.7 1.492e+04 4.154e-09
  6.93029   -239.4 1.497e+04 4.276e-09
  6.94015   -239.5 1.518e+04 4.646e-09
  6.95611   -239.1 1.503e+04 4.485e-09
  6.97582   -238.7 1.462e+04 3.829e-09
  6.99553   -238.2 1.404e+04 2.965e-09
  7.01524   -237.5 1.337e+04 2.176e-09
  7.03047   -236.9 1.267e+04 1.552e-09
  7.04033   -237.0 1.274e+04 1.568e-09
  7.05467   -236.4 1.214e+04 1.130e-09
  7.07438   -235.9 1.159e+04 8.279e-10
  7.09409   -235.3 1.113e+04 6.368e-10
  7.11380   -234.7 1.078e+04 5.239e-10
