# Columns:
#   distance along LOS (in CHIMPs)
#   peculiar velocity  (in km/s)
#   temperature (K)
#   HI number density
# pos=(237.173,8.41271,153.731), angles=(1.37457,0.0324993)
  0.00627    172.1 1.162e+04 8.819e-10
  0.01393    172.4 1.188e+04 1.055e-09
  0.02389    172.1 1.176e+04 8.994e-10
  0.04242    172.2 1.207e+04 1.090e-09
  0.06235    172.0 1.244e+04 1.334e-09
  0.08227    171.7 1.289e+04 1.679e-09
  0.10220    171.1 1.344e+04 2.196e-09
  0.11383    170.3 1.407e+04 2.958e-09
  0.12379    169.3 1.426e+04 3.118e-09
  0.14204    168.8 1.484e+04 4.100e-09
  0.16197    168.4 1.524e+04 4.762e-09
  0.18189    167.8 1.527e+04 4.777e-09
  0.20182    167.0 1.515e+04 4.537e-09
  0.21373    166.4 1.474e+04 3.770e-09
  0.22369    165.5 1.451e+04 2.874e-09
  0.24166    164.7 1.386e+04 2.141e-09
  0.26159    163.9 1.312e+04 1.575e-09
  0.28151    163.1 1.258e+04 1.220e-09
  0.30143    162.6 1.226e+04 1.035e-09
  0.31363    162.5 1.205e+04 9.216e-10
  0.32359    162.2 1.191e+04 8.837e-10
  0.34128    162.3 1.172e+04 8.134e-10
  0.36121    162.4 1.155e+04 7.395e-10
  0.38113    162.7 1.151e+04 6.348e-10
  0.40105    162.3 1.502e+04 5.544e-10
  0.41353    161.2 2.498e+04 4.566e-10
  0.42210    163.2 1.140e+04 5.555e-10
  0.42955    162.5 1.166e+04 5.597e-10
  0.44090    161.8 1.736e+04 4.654e-10
  0.46083    160.4 3.025e+04 4.136e-10
  0.48075    159.1 3.846e+04 6.486e-10
  0.50067    159.1 3.634e+04 1.417e-09
  0.51342    160.2 3.230e+04 2.640e-09
  0.52339    164.8 2.402e+04 4.771e-10
  0.54052    165.4 2.610e+04 5.455e-10
  0.56045    165.7 2.603e+04 7.154e-10
  0.58037    165.5 2.515e+04 1.333e-09
  0.60029    164.8 2.403e+04 2.509e-09
  0.61332    163.5 2.301e+04 6.999e-09
  0.62329    167.1 1.809e+04 9.453e-10
  0.64014    166.0 2.056e+04 2.226e-09
  0.66007    165.2 2.171e+04 5.846e-09
  0.67496    165.7 2.146e+04 5.912e-09
  0.68487    165.8 2.166e+04 6.941e-09
  0.69483    165.8 2.194e+04 9.735e-09
  0.70480    165.8 2.217e+04 1.442e-08
  0.71313    165.6 2.237e+04 2.084e-08
  0.71811    167.3 2.183e+04 8.978e-09
  0.72472    166.8 2.205e+04 1.353e-08
  0.73209    166.7 2.208e+04 1.922e-08
  0.73707    166.9 2.225e+04 2.121e-08
  0.74464    167.2 2.244e+04 2.733e-08
  0.75461    167.6 2.264e+04 3.308e-08
  0.76307    168.1 2.311e+04 3.753e-08
  0.76806    168.6 2.239e+04 2.890e-08
  0.77453    169.0 2.267e+04 3.612e-08
  0.78449    169.4 2.323e+04 4.136e-08
  0.79445    169.8 2.318e+04 4.771e-08
  0.80442    170.3 2.390e+04 4.790e-08
  0.81302    170.7 2.400e+04 4.496e-08
  0.81800    171.5 2.344e+04 5.706e-08
  0.82434    171.8 2.367e+04 5.550e-08
  0.83430    172.0 2.393e+04 4.980e-08
  0.84426    172.1 2.403e+04 4.082e-08
  0.85423    171.7 2.383e+04 3.124e-08
  0.86297    171.4 2.319e+04 2.340e-08
  0.86795    172.3 2.402e+04 4.093e-08
  0.87415    172.0 2.353e+04 2.787e-08
  0.88411    171.8 2.271e+04 1.934e-08
  0.89910    171.3 2.084e+04 1.183e-08
  0.91302    170.6 1.842e+04 7.538e-09
  0.92298    172.9 2.046e+04 9.996e-09
  0.93900    171.6 1.782e+04 5.833e-09
  0.95892    170.6 1.521e+04 4.512e-09
  0.97885    171.0 1.499e+04 4.530e-09
  0.99877    172.0 1.501e+04 4.582e-09
  1.01292    173.1 1.507e+04 4.778e-09
  1.02288    173.1 1.420e+04 3.358e-09
  1.03483    174.3 1.439e+04 3.651e-09
  1.04479    174.5 1.432e+04 3.818e-09
  1.05854    175.8 1.457e+04 4.145e-09
  1.07847    176.8 1.494e+04 4.628e-09
  1.09839    177.8 1.530e+04 5.275e-09
  1.11282    178.7 1.566e+04 6.081e-09
  1.12278    178.8 1.488e+04 4.273e-09
  1.13824    179.8 1.533e+04 5.147e-09
  1.15816    180.8 1.577e+04 6.059e-09
  1.17809    181.6 1.603e+04 6.437e-09
  1.19801    182.2 1.603e+04 6.391e-09
  1.21272    182.8 1.590e+04 6.000e-09
  1.22268    182.6 1.493e+04 3.619e-09
  1.23786    183.3 1.458e+04 3.103e-09
  1.25778    184.1 1.403e+04 2.428e-09
  1.27771    185.0 1.338e+04 1.791e-09
  1.29763    185.7 1.273e+04 1.288e-09
  1.31262    186.1 1.212e+04 9.298e-10
  1.32258    185.2 1.086e+04 5.791e-10
  1.33748    185.7 1.094e+04 4.993e-10
  1.35740    186.7 1.096e+04 5.025e-10
  1.37733    187.9 1.110e+04 5.196e-10
  1.39725    189.1 1.115e+04 5.402e-10
  1.41252    190.0 1.114e+04 5.539e-10
  1.42248    189.8 1.059e+04 4.128e-10
  1.43710    190.9 1.052e+04 4.087e-10
  1.45702    191.9 1.042e+04 3.995e-10
  1.47695    193.0 1.030e+04 3.875e-10
  1.49687    194.0 1.016e+04 3.810e-10
  1.51241    195.0 1.012e+04 3.823e-10
  1.52238    195.4 9.708e+03 3.177e-10
  1.53672    196.5 9.712e+03 3.191e-10
  1.55664    197.6 9.737e+03 3.263e-10
  1.57656    198.8 9.805e+03 3.416e-10
  1.59649    199.9 9.901e+03 3.638e-10
  1.61231    200.9 1.000e+04 3.901e-10
  1.62227    201.5 9.855e+03 3.653e-10
  1.63634    202.7 9.921e+03 3.841e-10
  1.65007    203.8 1.000e+04 4.064e-10
  1.66003    203.1 1.003e+04 4.153e-10
  1.67618    204.2 1.010e+04 4.356e-10
  1.69611    205.2 1.017e+04 4.506e-10
  1.71221    206.0 1.019e+04 4.540e-10
  1.72217    206.8 1.026e+04 4.756e-10
  1.73596    207.6 1.033e+04 4.833e-10
  1.75588    208.2 1.033e+04 4.810e-10
  1.77580    208.9 1.030e+04 4.678e-10
  1.79573    209.4 1.023e+04 4.434e-10
  1.81211    209.9 1.012e+04 4.079e-10
  1.82207    209.9 1.078e+04 5.598e-10
  1.83558    210.2 1.069e+04 5.060e-10
  1.85550    210.5 1.048e+04 4.067e-10
  1.87542    210.6 1.027e+04 3.372e-10
  1.89535    210.7 9.953e+03 2.736e-10
  1.91201    210.8 9.656e+03 2.346e-10
  1.92197    210.7 1.085e+04 3.519e-10
  1.94525    210.6 9.893e+03 2.497e-10
  1.98520    210.8 9.864e+03 2.574e-10
  2.01210    210.6 9.953e+03 3.112e-10
  2.02197    209.8 1.162e+04 5.996e-10
  2.03481    209.8 1.158e+04 6.205e-10
  2.05474    209.6 1.153e+04 6.863e-10
  2.07466    209.4 1.149e+04 7.299e-10
  2.10465    208.8 1.214e+04 1.047e-09
  2.14459    207.5 1.196e+04 1.062e-09
  2.18444    205.6 1.171e+04 9.850e-10
  2.21190    203.5 1.148e+04 8.729e-10
  2.23183    202.5 1.120e+04 7.240e-10
  2.26413    200.7 1.095e+04 6.788e-10
  2.30398    199.6 1.083e+04 6.373e-10
  2.34383    198.9 1.063e+04 5.623e-10
  2.38368    198.2 1.035e+04 4.652e-10
  2.41170    197.6 1.003e+04 3.589e-10
  2.43162    198.3 1.070e+04 5.480e-10
  2.46337    198.2 1.027e+04 4.032e-10
  2.50322    198.3 9.807e+03 2.876e-10
  2.54307    198.5 9.421e+03 2.214e-10
  2.58292    198.9 9.216e+03 1.995e-10
  2.61150    199.9 9.166e+03 1.968e-10
  2.63142    201.1 9.301e+03 2.255e-10
  2.66261    202.3 9.296e+03 2.257e-10
  2.70246    203.6 9.300e+03 2.288e-10
  2.74231    204.9 9.295e+03 2.284e-10
  2.78216    206.1 9.269e+03 2.245e-10
  2.81130    207.2 9.222e+03 2.144e-10
  2.83122    208.3 9.423e+03 2.508e-10
  2.86082    209.2 9.325e+03 2.283e-10
  2.88075    209.2 9.310e+03 2.277e-10
  2.90170    210.1 9.200e+03 2.095e-10
  2.94155    210.9 9.108e+03 1.962e-10
  2.98140    211.7 9.083e+03 1.947e-10
  3.01109    212.4 9.097e+03 1.993e-10
  3.03102    212.9 9.101e+03 1.967e-10
  3.06109    213.5 9.138e+03 2.069e-10
  3.10094    213.8 9.291e+03 2.453e-10
  3.14079    214.0 9.557e+03 3.174e-10
  3.18063    213.9 9.866e+03 4.209e-10
  3.21089    213.7 1.015e+04 5.313e-10
  3.23081    213.2 9.886e+03 4.105e-10
  3.26033    212.5 9.936e+03 4.127e-10
  3.30018    211.4 9.911e+03 3.876e-10
  3.34003    210.0 9.698e+03 3.158e-10
  3.37987    208.5 9.358e+03 2.511e-10
  3.41069    206.9 9.105e+03 2.233e-10
  3.43061    206.0 8.552e+03 1.308e-10
  3.45957    204.7 8.575e+03 1.429e-10
  3.49942    203.4 8.755e+03 1.906e-10
  3.53926    202.4 9.156e+03 2.783e-10
  3.57911    201.1 9.543e+03 3.731e-10
  3.61049    200.2 9.826e+03 4.681e-10
  3.63041    200.9 9.823e+03 4.506e-10
  3.65881    199.9 9.965e+03 4.929e-10
  3.69866    198.8 9.968e+03 4.911e-10
  3.73850    197.9 9.932e+03 4.742e-10
  3.77835    197.3 9.779e+03 4.213e-10
  3.81028    197.0 9.504e+03 3.437e-10
  3.83021    198.1 9.428e+03 3.244e-10
  3.85805    198.2 9.149e+03 2.654e-10
  3.89789    198.3 8.925e+03 2.275e-10
  3.93774    198.6 8.899e+03 2.240e-10
  3.97759    199.3 8.927e+03 2.293e-10
  4.01008    199.9 9.114e+03 2.611e-10
  4.03001    201.3 9.099e+03 2.580e-10
  4.05729    201.6 9.394e+03 3.140e-10
  4.08707    201.4 9.580e+03 3.619e-10
  4.10107    201.5 9.793e+03 4.330e-10
  4.11103    201.3 9.821e+03 4.408e-10
  4.11975    201.8 1.019e+04 5.829e-10
  4.12971    202.3 1.011e+04 5.596e-10
  4.14675    202.8 1.054e+04 7.510e-10
  4.16667    203.1 1.097e+04 9.644e-10
  4.18660    203.2 1.132e+04 1.144e-09
  4.20652    203.2 1.158e+04 1.269e-09
  4.21965    203.1 1.176e+04 1.352e-09
  4.22961    203.3 1.201e+04 1.571e-09
  4.24637    203.0 1.225e+04 1.720e-09
  4.26629    202.5 1.250e+04 1.877e-09
  4.28622    201.8 1.284e+04 2.105e-09
  4.30614    200.8 1.333e+04 2.471e-09
  4.31955    199.6 1.398e+04 3.027e-09
  4.32951    198.9 1.465e+04 3.969e-09
  4.34599    197.4 1.542e+04 5.122e-09
  4.36591    195.8 1.600e+04 6.062e-09
  4.38584    194.1 1.613e+04 6.144e-09
  4.40576    192.2 1.609e+04 5.997e-09
  4.41944    190.5 1.584e+04 5.381e-09
  4.42941    190.0 1.601e+04 5.810e-09
  4.44561    188.7 1.546e+04 4.702e-09
  4.46553    187.2 1.484e+04 3.686e-09
  4.48545    185.9 1.423e+04 2.868e-09
  4.50538    184.7 1.369e+04 2.272e-09
  4.53536    183.2 1.325e+04 1.736e-09
  4.57531    181.6 1.264e+04 1.268e-09
  4.60948    181.0 1.207e+04 9.333e-10
  4.62940    179.6 1.225e+04 1.081e-09
  4.65500    179.5 1.183e+04 8.597e-10
  4.69485    179.7 1.140e+04 6.827e-10
  4.73470    180.4 1.106e+04 5.552e-10
  4.77455    181.4 1.089e+04 4.885e-10
  4.80927    182.5 1.085e+04 4.786e-10
  4.82920    180.9 1.056e+04 3.211e-10
  4.85424    181.8 1.043e+04 3.054e-10
  4.89409    182.8 1.043e+04 3.069e-10
  4.93394    183.6 1.042e+04 3.181e-10
  4.97379    184.3 1.046e+04 3.585e-10
  5.00907    185.1 1.066e+04 4.348e-10
  5.02899    183.7 1.026e+04 3.075e-10
  5.05348    184.7 1.047e+04 3.811e-10
  5.09333    185.9 1.061e+04 4.489e-10
  5.13318    186.7 1.076e+04 5.154e-10
  5.17302    187.7 1.084e+04 5.664e-10
  5.20887    188.8 1.102e+04 6.550e-10
  5.22879    188.1 1.074e+04 5.146e-10
  5.25272    189.1 1.089e+04 5.947e-10
  5.29257    189.8 1.135e+04 7.861e-10
  5.31863    189.3 1.173e+04 9.639e-10
  5.32783    189.4 1.160e+04 9.141e-10
  5.33155    188.4 1.136e+04 8.055e-10
  5.34218    188.2 1.175e+04 9.880e-10
  5.36211    187.9 1.234e+04 1.299e-09
  5.38203    187.2 1.303e+04 1.832e-09
  5.40195    186.4 1.354e+04 2.451e-09
  5.41843    185.5 1.372e+04 2.795e-09
  5.42849    186.2 1.281e+04 1.767e-09
  5.45196    184.1 1.285e+04 1.809e-09
  5.49181    181.6 1.251e+04 1.542e-09
  5.53166    179.3 1.160e+04 1.019e-09
  5.57150    177.7 1.033e+04 6.126e-10
  5.60846    177.0 9.739e+03 5.023e-10
  5.62839    178.3 9.562e+03 4.313e-10
  5.65120    178.5 9.581e+03 4.424e-10
  5.69105    178.6 9.800e+03 5.150e-10
  5.73089    178.9 1.027e+04 6.688e-10
  5.77074    179.2 1.059e+04 7.762e-10
  5.80826    179.3 1.060e+04 7.665e-10
  5.82819    180.6 1.090e+04 8.816e-10
  5.85044    180.7 1.079e+04 8.171e-10
  5.89029    181.3 1.034e+04 6.124e-10
  5.93013    182.0 9.620e+03 3.877e-10
  5.96998    182.8 8.810e+03 2.378e-10
  6.00806    183.8 8.292e+03 1.700e-10
  6.02798    185.3 8.843e+03 2.715e-10
  6.04968    186.8 8.705e+03 2.351e-10
  6.08952    188.6 8.651e+03 2.237e-10
  6.12937    190.7 8.602e+03 2.123e-10
  6.16922    192.8 8.510e+03 1.962e-10
  6.20786    194.9 8.453e+03 1.800e-10
  6.22778    196.3 8.964e+03 2.787e-10
  6.24892    198.3 8.946e+03 2.594e-10
  6.28876    200.3 8.970e+03 2.465e-10
  6.32861    202.3 9.018e+03 2.364e-10
  6.36846    204.2 9.114e+03 2.282e-10
  6.40766    206.1 9.185e+03 2.318e-10
  6.42758    207.3 9.460e+03 2.907e-10
  6.44815    209.3 9.616e+03 2.803e-10
  6.48800    211.1 9.713e+03 2.919e-10
  6.52785    212.7 9.867e+03 3.249e-10
  6.55227    213.8 9.958e+03 3.693e-10
  6.57219    213.4 1.001e+04 4.022e-10
  6.59749    214.6 1.006e+04 4.418e-10
  6.61722    216.5 1.017e+04 5.057e-10
  6.63714    219.0 1.032e+04 5.926e-10
  6.65716    220.6 1.052e+04 6.780e-10
  6.67708    221.8 1.069e+04 7.247e-10
  6.69701    223.0 1.077e+04 7.394e-10
  6.71693    224.0 1.083e+04 7.397e-10
  6.72708    225.2 1.084e+04 7.370e-10
  6.73704    225.7 1.098e+04 8.187e-10
  6.75678    226.8 1.104e+04 8.199e-10
  6.77670    227.9 1.105e+04 8.183e-10
  6.79663    229.0 1.106e+04 8.187e-10
  6.81655    230.0 1.107e+04 8.235e-10
  6.82698    231.1 1.108e+04 8.411e-10
  6.83694    231.5 1.126e+04 9.091e-10
  6.85640    232.5 1.126e+04 9.165e-10
  6.87632    233.5 1.127e+04 9.359e-10
  6.89625    234.5 1.128e+04 9.724e-10
  6.91617    235.5 1.133e+04 1.005e-09
  6.92688    236.4 1.137e+04 1.092e-09
  6.93684    236.8 1.142e+04 1.039e-09
  6.95602    237.8 1.141e+04 1.114e-09
  6.97594    238.4 1.171e+04 1.290e-09
  6.99587    238.6 1.244e+04 1.624e-09
  7.01579    238.8 1.338e+04 2.175e-09
  7.02678    238.9 1.414e+04 2.754e-09
  7.03674    240.5 1.365e+04 2.290e-09
  7.05061    240.1 1.416e+04 2.653e-09
  7.06052    239.6 1.508e+04 3.143e-09
  7.07048    238.4 1.716e+04 4.327e-09
  7.07663    236.6 1.959e+04 6.912e-09
  7.08161    238.4 1.864e+04 5.182e-09
  7.09041    236.5 2.100e+04 8.742e-09
  7.10037    234.7 2.241e+04 1.568e-08
  7.11033    233.2 2.298e+04 2.863e-08
  7.12029    231.9 2.313e+04 5.165e-08
  7.12658    230.6 2.324e+04 8.823e-08
  7.13156    232.3 2.313e+04 7.467e-08
  7.14022    231.2 2.312e+04 1.274e-07
  7.15018    229.9 2.330e+04 1.815e-07
  7.16014    228.4 2.374e+04 1.869e-07
  7.16722    226.7 2.394e+04 1.759e-07
  7.17220    226.5 2.369e+04 2.207e-07
  7.17653    224.8 2.482e+04 1.351e-07
  7.18151    227.2 2.383e+04 2.267e-07
  7.19003    225.2 2.528e+04 1.218e-07
  7.19999    222.4 2.664e+04 5.355e-08
  7.20995    218.7 2.620e+04 2.230e-08
  7.21991    215.2 2.226e+04 1.230e-08
  7.22653    212.9 1.815e+04 9.178e-09
  7.23151    214.9 2.102e+04 1.067e-08
  7.23984    213.3 1.822e+04 9.690e-09
  7.25483    213.1 1.729e+04 8.590e-09
  7.27480    211.6 1.579e+04 6.187e-09
  7.29473    210.2 1.477e+04 4.109e-09
  7.31465    209.0 1.400e+04 2.852e-09
  7.32647    207.9 1.346e+04 2.158e-09
  7.33644    208.4 1.438e+04 3.283e-09
  7.35450    207.2 1.412e+04 2.735e-09
  7.37442    206.1 1.388e+04 2.364e-09
  7.39434    205.1 1.361e+04 2.049e-09
  7.41427    204.2 1.329e+04 1.749e-09
  7.42637    203.3 1.300e+04 1.491e-09
  7.43634    203.0 1.387e+04 2.073e-09
  7.45412    201.7 1.367e+04 1.882e-09
  7.47404    200.3 1.366e+04 1.886e-09
  7.49396    199.0 1.367e+04 1.937e-09
  7.51389    197.8 1.372e+04 2.121e-09
  7.52627    197.2 1.385e+04 2.415e-09
  7.53623    196.3 1.431e+04 2.965e-09
  7.55374    196.0 1.436e+04 3.134e-09
  7.57366    195.8 1.433e+04 3.096e-09
  7.59358    195.6 1.414e+04 2.851e-09
  7.61351    195.6 1.370e+04 2.312e-09
  7.62617    195.4 1.312e+04 1.674e-09
  7.63613    194.7 1.312e+04 1.667e-09
  7.65336    194.4 1.232e+04 1.082e-09
  7.67328    193.3 1.149e+04 6.908e-10
  7.69320    192.1 1.079e+04 4.827e-10
  7.71313    191.1 1.046e+04 3.941e-10
  7.72607    190.6 1.036e+04 3.774e-10
  7.73603    190.4 1.033e+04 3.825e-10
  7.75298    190.3 1.030e+04 3.822e-10
  7.77259    190.3 1.030e+04 3.827e-10
  7.78265    190.4 1.025e+04 3.554e-10
  7.80298    190.3 1.024e+04 3.610e-10
  7.82616    190.4 1.025e+04 3.758e-10
  7.84609    190.6 1.021e+04 3.803e-10
  7.88268    191.3 1.022e+04 3.861e-10
  7.92252    191.8 1.020e+04 3.843e-10
  7.95231    192.1 1.009e+04 3.736e-10
  7.97214    192.4 9.998e+03 3.601e-10
  7.99206    192.6 9.928e+03 3.461e-10
  8.01199    192.8 9.919e+03 3.443e-10
  8.02577    192.9 9.925e+03 3.442e-10
  8.04579    194.1 9.962e+03 3.412e-10
  8.07186    193.9 1.001e+04 3.590e-10
  8.09168    194.1 1.008e+04 3.829e-10
  8.11161    194.2 1.030e+04 4.312e-10
  8.12567    194.4 1.070e+04 5.104e-10
  8.13563    195.8 1.027e+04 4.603e-10
  8.15145    196.3 1.065e+04 5.407e-10
  8.17138    196.6 1.110e+04 6.493e-10
  8.19130    196.8 1.155e+04 7.877e-10
  8.21122    197.0 1.194e+04 9.511e-10
  8.22556    197.2 1.228e+04 1.127e-09
  8.23553    198.9 1.222e+04 1.056e-09
  8.25107    198.9 1.262e+04 1.285e-09
  8.27100    199.1 1.294e+04 1.535e-09
  8.29092    199.3 1.320e+04 1.795e-09
  8.31084    199.0 1.355e+04 2.072e-09
  8.32546    198.1 1.396e+04 2.351e-09
  8.33543    200.6 1.401e+04 2.386e-09
  8.35069    199.8 1.440e+04 2.613e-09
  8.37062    198.6 1.481e+04 2.806e-09
  8.38783    197.2 1.522e+04 2.928e-09
  8.39780    198.2 1.515e+04 2.819e-09
  8.41046    196.8 1.551e+04 2.865e-09
  8.42536    195.5 1.565e+04 2.833e-09
  8.43532    199.0 1.551e+04 2.862e-09
  8.45031    197.9 1.561e+04 2.705e-09
  8.47024    196.8 1.561e+04 2.396e-09
  8.49016    195.4 1.553e+04 2.036e-09
  8.51008    193.8 1.572e+04 2.093e-09
  8.52526    192.0 1.612e+04 2.541e-09
  8.53522    195.0 1.545e+04 1.817e-09
  8.54993    193.1 1.614e+04 2.393e-09
  8.56986    192.9 1.705e+04 4.017e-09
  8.58978    193.7 1.781e+04 6.117e-09
  8.60467    194.1 1.787e+04 6.309e-09
  8.61459    194.2 1.818e+04 7.016e-09
  8.62455    194.1 1.870e+04 8.328e-09
  8.63004    194.2 1.920e+04 9.849e-09
  8.63502    194.6 1.871e+04 8.252e-09
  8.64447    194.6 1.931e+04 1.017e-08
  8.65443    194.7 1.979e+04 1.174e-08
  8.66440    194.8 2.000e+04 1.280e-08
  8.67436    194.5 2.036e+04 1.365e-08
  8.67999    192.7 2.200e+04 1.620e-08
  8.68497    193.2 2.147e+04 1.605e-08
  8.69428    187.9 2.504e+04 2.388e-08
  8.70034    177.4 2.783e+04 7.388e-08
  8.70532    173.6 2.832e+04 1.357e-07
  8.71169    168.0 2.721e+04 2.765e-07
  8.71665    162.8 2.472e+04 5.564e-07
  8.72163    157.3 2.343e+04 8.090e-07
  8.72661    151.2 2.340e+04 8.007e-07
  8.72992    142.8 2.391e+04 6.434e-07
  8.73241    144.9 2.276e+04 1.071e-06
  8.73657    142.6 2.277e+04 9.336e-07
  8.74407    137.2 2.512e+04 4.579e-07
  8.75405    126.3 3.818e+04 2.595e-08
  8.76402    106.8 2.497e+04 6.029e-09
  8.77398    101.4 1.706e+04 5.785e-09
  8.77989    101.6 1.660e+04 5.223e-09
  8.78487    100.6 1.679e+04 5.540e-09
  8.79390    100.9 1.670e+04 5.217e-09
  8.80386    101.0 1.646e+04 4.768e-09
  8.81383    101.0 1.640e+04 4.674e-09
  8.82491    101.3 1.589e+04 4.082e-09
  8.83492     99.7 1.635e+04 4.634e-09
  8.84879     99.9 1.591e+04 3.957e-09
  8.86871     99.8 1.556e+04 3.426e-09
  8.88864     99.9 1.536e+04 3.114e-09
  8.90856    100.2 1.523e+04 2.988e-09
  8.92486    101.1 1.510e+04 2.848e-09
  8.93482     99.9 1.488e+04 2.418e-09
  8.94841    101.1 1.460e+04 2.218e-09
  8.96833    102.5 1.432e+04 2.044e-09
  8.98826    103.9 1.408e+04 1.895e-09
  9.00307    105.1 1.381e+04 1.790e-09
  9.01304    107.4 1.403e+04 2.041e-09
  9.02476    108.6 1.383e+04 1.960e-09
  9.03472    108.5 1.366e+04 1.782e-09
  9.04803    109.9 1.336e+04 1.746e-09
  9.06795    111.5 1.334e+04 1.703e-09
  9.08788    112.5 1.358e+04 1.742e-09
  9.10780    112.0 1.475e+04 2.039e-09
  9.12465    111.5 1.847e+04 3.417e-09
  9.13462    115.0 1.402e+04 2.179e-09
  9.14765    114.9 1.721e+04 3.161e-09
  9.16757    115.0 2.028e+04 4.460e-09
  9.18750    114.6 2.345e+04 5.524e-09
  9.20742    112.9 2.743e+04 5.447e-09
  9.22455    109.2 2.819e+04 6.250e-09
  9.23452    111.4 2.590e+04 3.671e-09
  9.24727    106.5 2.481e+04 4.851e-09
  9.26719    102.8 2.279e+04 5.283e-09
  9.28712    100.2 1.985e+04 5.333e-09
  9.30704     98.1 1.754e+04 4.584e-09
  9.32445     96.6 1.598e+04 3.269e-09
  9.33441     97.3 1.637e+04 3.410e-09
  9.34689     96.2 1.524e+04 2.299e-09
  9.36681     95.2 1.401e+04 1.561e-09
  9.38674     94.4 1.293e+04 1.173e-09
  9.40666     94.4 1.234e+04 1.083e-09
  9.42435     94.8 1.222e+04 1.091e-09
  9.43431     95.5 1.257e+04 1.298e-09
  9.44651     96.2 1.250e+04 1.346e-09
  9.46643     97.1 1.252e+04 1.428e-09
  9.48635     98.0 1.262e+04 1.519e-09
  9.50628     98.8 1.281e+04 1.640e-09
  9.52425     99.2 1.305e+04 1.816e-09
  9.53421    100.0 1.345e+04 2.139e-09
  9.54613    100.1 1.365e+04 2.395e-09
  9.56605    100.4 1.382e+04 2.722e-09
  9.58597    101.1 1.401e+04 3.111e-09
  9.60590    101.9 1.407e+04 3.325e-09
  9.61832    102.8 1.402e+04 3.290e-09
  9.62660    102.4 1.391e+04 3.098e-09
  9.63411    102.9 1.396e+04 3.051e-09
