# Columns:
#   distance along LOS (in CHIMPs)
#   peculiar velocity  (in km/s)
#   temperature (K)
#   HI number density
# pos=(232.355,148.486,3.40926), angles=(1.69881,1.52764)
  0.00127    -87.0 1.113e+04 7.856e-11
  0.02226    -86.2 1.113e+04 9.802e-11
  0.06168    -85.2 1.111e+04 1.110e-10
  0.10110    -84.3 1.110e+04 1.137e-10
  0.14052    -83.3 1.101e+04 1.055e-10
  0.17777    -82.3 1.093e+04 8.149e-11
  0.19749    -81.4 1.093e+04 1.277e-10
  0.21937    -80.6 1.084e+04 9.137e-11
  0.25879    -79.8 1.081e+04 6.997e-11
  0.29821    -78.9 1.080e+04 6.409e-11
  0.33763    -77.7 1.080e+04 6.341e-11
  0.37705    -76.6 1.079e+04 7.017e-11
  0.41647    -75.4 1.075e+04 8.936e-11
  0.45590    -74.1 1.075e+04 1.164e-10
  0.48845    -72.9 1.083e+04 1.540e-10
  0.50816    -72.2 1.087e+04 2.240e-10
  0.52325    -71.0 1.098e+04 2.728e-10
  0.54296    -70.8 1.108e+04 2.543e-10
  0.57416    -69.8 1.126e+04 3.296e-10
  0.61358    -69.1 1.149e+04 4.328e-10
  0.65300    -68.9 1.175e+04 5.606e-10
  0.69242    -68.8 1.201e+04 7.048e-10
  0.72189    -68.7 1.202e+04 6.725e-10
  0.74151    -68.9 1.205e+04 7.512e-10
  0.76122    -69.1 1.206e+04 8.335e-10
  0.78093    -69.4 1.211e+04 9.409e-10
  0.79893    -69.6 1.224e+04 1.083e-09
  0.80878    -68.9 1.212e+04 9.268e-10
  0.82035    -69.1 1.230e+04 1.109e-09
  0.84006    -69.3 1.244e+04 1.240e-09
  0.85977    -69.6 1.248e+04 1.285e-09
  0.87948    -69.8 1.235e+04 1.269e-09
  0.89919    -69.7 1.207e+04 1.134e-09
  0.91890    -69.6 1.179e+04 9.332e-10
  0.93861    -69.6 1.155e+04 7.211e-10
  0.95426    -69.7 1.133e+04 5.404e-10
  0.96412    -68.7 1.155e+04 7.037e-10
  0.97793    -69.0 1.136e+04 5.577e-10
  0.98779    -69.2 1.126e+04 4.948e-10
  0.99775    -69.4 1.106e+04 4.145e-10
  1.01746    -69.6 1.092e+04 3.849e-10
  1.04712    -69.7 1.087e+04 3.809e-10
  1.08664    -69.6 1.081e+04 3.835e-10
  1.10980    -69.7 1.061e+04 3.798e-10
  1.11955    -69.0 1.078e+04 4.285e-10
  1.13572    -69.1 1.069e+04 4.202e-10
  1.15543    -69.3 1.053e+04 4.085e-10
  1.17514    -69.4 1.044e+04 4.011e-10
  1.19485    -69.5 1.035e+04 3.898e-10
  1.21456    -69.6 1.036e+04 3.866e-10
  1.23427    -69.9 1.037e+04 3.823e-10
  1.25399    -70.3 1.052e+04 4.059e-10
  1.26494    -70.7 1.064e+04 4.499e-10
  1.27479    -71.8 1.094e+04 6.254e-10
  1.29341    -72.1 1.099e+04 7.557e-10
  1.31312    -72.3 1.100e+04 8.838e-10
  1.33283    -72.1 1.093e+04 9.584e-10
  1.35254    -71.6 1.088e+04 9.815e-10
  1.37225    -70.9 1.071e+04 9.242e-10
  1.39196    -70.4 1.058e+04 7.669e-10
  1.41042    -70.1 1.052e+04 6.291e-10
  1.42027    -71.1 1.055e+04 5.184e-10
  1.43291    -71.5 1.028e+04 3.874e-10
  1.45272    -71.7 1.035e+04 3.887e-10
  1.48085    -71.7 9.928e+03 3.070e-10
  1.52028    -70.7 9.535e+03 2.406e-10
  1.55970    -69.6 9.285e+03 1.868e-10
  1.59912    -68.7 9.065e+03 1.362e-10
  1.63854    -67.8 8.888e+03 9.761e-11
  1.67796    -67.2 8.745e+03 7.812e-11
  1.71143    -66.8 8.734e+03 7.371e-11
  1.73114    -66.1 8.564e+03 7.063e-11
  1.75680    -65.5 8.729e+03 7.541e-11
  1.79623    -65.1 8.948e+03 1.025e-10
  1.83565    -64.6 9.175e+03 1.483e-10
  1.87507    -64.1 9.442e+03 2.075e-10
  1.91449    -63.8 9.705e+03 2.676e-10
  1.95391    -63.6 9.928e+03 3.104e-10
  1.99333    -63.8 1.012e+04 3.331e-10
  2.02211    -64.2 1.032e+04 3.566e-10
  2.04182    -62.5 1.062e+04 4.661e-10
  2.07218    -63.5 1.103e+04 5.729e-10
  2.11160    -64.8 1.139e+04 7.449e-10
  2.14107    -66.3 1.135e+04 8.470e-10
  2.16068    -67.1 1.149e+04 1.013e-09
  2.17725    -67.8 1.160e+04 1.177e-09
  2.18710    -67.5 1.196e+04 1.386e-09
  2.20010    -68.3 1.214e+04 1.433e-09
  2.21981    -69.3 1.225e+04 1.435e-09
  2.23952    -70.6 1.239e+04 1.351e-09
  2.25923    -72.4 1.246e+04 1.264e-09
  2.27894    -74.2 1.240e+04 1.226e-09
  2.29865    -75.8 1.229e+04 1.199e-09
  2.31837    -77.2 1.215e+04 1.145e-09
  2.33259    -78.6 1.207e+04 1.055e-09
  2.34244    -79.5 1.196e+04 9.604e-10
  2.35243    -81.2 1.206e+04 8.958e-10
  2.36228    -82.1 1.227e+04 1.037e-09
  2.37750    -84.4 1.239e+04 1.033e-09
  2.39721    -86.7 1.253e+04 1.133e-09
  2.41692    -88.4 1.252e+04 1.305e-09
  2.43663    -89.4 1.246e+04 1.397e-09
  2.45634    -90.2 1.241e+04 1.405e-09
  2.47605    -90.8 1.213e+04 1.131e-09
  2.48792    -91.7 1.184e+04 7.739e-10
  2.49778    -91.9 1.165e+04 5.637e-10
  2.51547    -93.5 1.133e+04 3.907e-10
  2.54514    -94.6 1.100e+04 3.108e-10
  2.58466    -94.9 1.062e+04 2.348e-10
  2.62374    -94.9 1.035e+04 1.856e-10
  2.64346    -94.3 1.021e+04 1.565e-10
  2.66350    -93.7 1.019e+04 1.420e-10
  2.70292    -93.1 1.020e+04 1.353e-10
  2.74234    -92.4 1.022e+04 1.342e-10
  2.78176    -91.8 1.032e+04 1.389e-10
  2.82118    -91.3 1.040e+04 1.471e-10
  2.86061    -91.0 1.045e+04 1.591e-10
  2.90003    -90.6 1.046e+04 1.739e-10
  2.93442    -90.3 1.046e+04 1.891e-10
  2.95413    -90.1 1.040e+04 1.860e-10
  2.97887    -89.8 1.037e+04 1.967e-10
  3.01829    -89.5 1.036e+04 2.000e-10
  3.05771    -88.9 1.023e+04 1.976e-10
  3.09714    -88.1 1.013e+04 1.759e-10
  3.13656    -87.2 1.003e+04 1.502e-10
  3.17598    -86.2 9.927e+03 1.255e-10
  3.21540    -85.1 9.835e+03 1.083e-10
  3.24509    -83.9 9.771e+03 9.881e-11
  3.26251    -84.1 9.779e+03 1.010e-10
  3.27224    -84.1 9.852e+03 1.154e-10
  3.29424    -82.8 9.811e+03 1.110e-10
  3.33366    -81.4 9.795e+03 1.089e-10
  3.37309    -79.9 9.778e+03 1.062e-10
  3.41251    -78.3 9.740e+03 9.971e-11
  3.45193    -76.7 9.694e+03 8.816e-11
  3.49135    -75.0 9.666e+03 7.381e-11
  3.53077    -73.3 9.642e+03 6.158e-11
  3.55577    -71.6 9.630e+03 5.411e-11
  3.57548    -71.8 9.672e+03 5.681e-11
  3.60961    -70.1 9.667e+03 5.569e-11
  3.64904    -68.5 9.666e+03 5.777e-11
  3.68846    -66.8 9.698e+03 6.329e-11
  3.72788    -65.1 9.719e+03 7.102e-11
  3.76730    -63.4 9.723e+03 7.743e-11
  3.80672    -61.7 9.714e+03 7.983e-11
  3.84614    -60.1 9.683e+03 8.026e-11
  3.86644    -58.4 9.571e+03 7.551e-11
  3.88615    -58.6 9.511e+03 6.665e-11
  3.92499    -57.0 9.435e+03 5.920e-11
  3.96441    -55.3 9.358e+03 5.295e-11
  4.00383    -53.7 9.276e+03 4.763e-11
  4.04325    -51.9 9.205e+03 4.265e-11
  4.08267    -50.2 9.146e+03 3.891e-11
  4.12209    -48.4 9.140e+03 3.739e-11
  4.15740    -47.0 9.163e+03 3.730e-11
  4.17711    -47.2 9.140e+03 4.019e-11
  4.18200    -46.5 9.376e+03 4.707e-11
  4.20171    -46.3 9.439e+03 4.832e-11
  4.24036    -46.1 9.521e+03 8.736e-11
  4.27978    -45.5 9.551e+03 1.752e-10
  4.31920    -44.5 9.685e+03 2.823e-10
  4.35862    -43.7 9.754e+03 3.247e-10
  4.39804    -43.2 9.661e+03 3.113e-10
  4.43747    -42.5 9.291e+03 1.967e-10
  4.46808    -42.3 8.934e+03 1.110e-10
  4.48779    -42.0 8.897e+03 1.102e-10
  4.51631    -41.8 8.749e+03 8.853e-11
  4.55573    -41.3 8.711e+03 8.539e-11
  4.59515    -40.7 8.727e+03 9.637e-11
  4.63457    -40.1 8.798e+03 1.284e-10
  4.67399    -39.3 8.863e+03 1.642e-10
  4.71342    -38.5 8.908e+03 1.884e-10
  4.75284    -37.9 8.922e+03 2.001e-10
  4.77875    -37.4 8.930e+03 2.090e-10
  4.79846    -37.4 8.983e+03 2.377e-10
  4.83168    -36.9 8.999e+03 2.569e-10
  4.87110    -36.3 9.015e+03 2.703e-10
  4.91052    -35.8 9.041e+03 2.776e-10
  4.94995    -35.4 9.094e+03 2.879e-10
  4.98937    -35.3 9.172e+03 3.012e-10
  5.02879    -35.3 9.283e+03 3.299e-10
  5.06821    -35.2 9.366e+03 3.607e-10
  5.08943    -35.0 9.380e+03 3.720e-10
  5.09326    -35.2 9.515e+03 4.319e-10
  5.11147    -34.3 9.511e+03 4.417e-10
  5.14705    -33.9 9.506e+03 4.487e-10
  5.18647    -33.1 9.289e+03 3.879e-10
  5.22590    -32.3 8.984e+03 2.894e-10
  5.26532    -31.6 8.767e+03 2.299e-10
  5.30474    -30.9 8.729e+03 2.188e-10
  5.34416    -30.3 8.851e+03 2.424e-10
  5.38039    -29.9 9.137e+03 3.256e-10
  5.40010    -29.7 9.029e+03 3.003e-10
  5.42300    -28.9 9.438e+03 4.507e-10
  5.46242    -28.4 9.882e+03 6.402e-10
  5.50185    -28.2 1.046e+04 8.704e-10
  5.54127    -29.9 1.132e+04 1.190e-09
  5.58069    -32.9 1.230e+04 1.670e-09
  5.61016    -34.7 1.271e+04 2.002e-09
  5.62977    -36.6 1.286e+04 2.155e-09
  5.64948    -38.5 1.274e+04 2.139e-09
  5.66919    -40.4 1.239e+04 1.768e-09
  5.68890    -43.2 1.199e+04 1.346e-09
  5.70072    -46.4 1.165e+04 1.155e-09
  5.71058    -46.0 1.174e+04 1.231e-09
  5.72832    -48.8 1.168e+04 1.220e-09
  5.74803    -51.3 1.188e+04 1.378e-09
  5.76775    -53.6 1.241e+04 1.652e-09
  5.78746    -56.3 1.302e+04 1.930e-09
  5.80717    -59.7 1.352e+04 2.227e-09
  5.82688    -63.3 1.374e+04 2.466e-09
  5.84620    -66.8 1.377e+04 2.562e-09
  5.85606    -66.0 1.379e+04 2.579e-09
  5.86630    -69.2 1.365e+04 2.573e-09
  5.88601    -71.9 1.332e+04 2.352e-09
  5.90572    -74.2 1.290e+04 1.935e-09
  5.92543    -76.3 1.239e+04 1.498e-09
  5.94514    -78.1 1.188e+04 1.125e-09
  5.96485    -79.4 1.141e+04 8.217e-10
  5.98456    -80.6 1.100e+04 5.873e-10
  6.00132    -81.6 1.068e+04 4.286e-10
  6.00845    -81.4 1.074e+04 4.683e-10
  6.01140    -81.2 1.095e+04 5.884e-10
  6.02399    -82.0 1.063e+04 4.425e-10
  6.04370    -82.5 1.049e+04 3.674e-10
  6.06341    -82.7 1.048e+04 3.489e-10
  6.09307    -82.9 1.053e+04 3.527e-10
  6.13259    -83.0 1.060e+04 3.392e-10
  6.17201    -82.6 1.063e+04 3.133e-10
  6.21143    -82.1 1.063e+04 2.907e-10
  6.25085    -81.5 1.061e+04 2.807e-10
  6.29028    -80.8 1.059e+04 2.804e-10
  6.31241    -80.0 1.056e+04 2.847e-10
  6.33212    -80.8 1.078e+04 3.799e-10
  6.36912    -80.0 1.060e+04 3.761e-10
  6.40854    -78.9 1.031e+04 3.307e-10
  6.44796    -77.6 1.001e+04 2.660e-10
  6.48738    -76.2 9.775e+03 2.094e-10
  6.52680    -74.6 9.600e+03 1.757e-10
  6.56623    -73.1 9.534e+03 1.593e-10
  6.60337    -71.5 9.517e+03 1.561e-10
  6.62308    -72.4 9.627e+03 2.051e-10
  6.64507    -71.3 9.722e+03 2.160e-10
  6.68449    -70.9 1.022e+04 3.121e-10
  6.72391    -70.8 1.099e+04 5.578e-10
  6.76333    -70.7 1.180e+04 9.551e-10
  6.79280    -71.3 1.271e+04 1.628e-09
  6.81241    -71.7 1.300e+04 2.106e-09
  6.83213    -71.6 1.303e+04 2.393e-09
  6.85184    -71.0 1.279e+04 2.429e-09
  6.87155    -70.5 1.252e+04 1.978e-09
  6.89126    -70.4 1.225e+04 1.427e-09
  6.91097    -70.7 1.182e+04 9.448e-10
  6.92094    -71.3 1.130e+04 6.065e-10
  6.92382    -71.6 1.126e+04 5.645e-10
  6.93356    -74.5 1.071e+04 4.387e-10
  6.96034    -75.3 1.011e+04 3.346e-10
  6.99986    -74.5 9.947e+03 2.695e-10
  7.03928    -73.5 9.872e+03 2.507e-10
  7.07871    -72.4 9.934e+03 2.668e-10
  7.11813    -71.0 1.007e+04 2.944e-10
  7.15755    -69.6 1.026e+04 3.358e-10
  7.19697    -68.1 1.045e+04 3.799e-10
  7.22472    -66.7 1.064e+04 4.169e-10
  7.23448    -68.2 1.083e+04 5.867e-10
  7.24605    -67.7 1.090e+04 6.085e-10
  7.26576    -67.2 1.099e+04 6.484e-10
  7.28547    -66.7 1.112e+04 6.750e-10
  7.30518    -66.3 1.129e+04 7.085e-10
  7.32489    -65.9 1.147e+04 7.440e-10
  7.34460    -65.5 1.159e+04 7.816e-10
  7.36432    -65.2 1.166e+04 8.170e-10
  7.37582    -64.8 1.166e+04 8.517e-10
  7.38151    -64.8 1.169e+04 8.431e-10
  7.38972    -67.1 1.248e+04 1.281e-09
  7.40374    -67.6 1.337e+04 1.553e-09
  7.42345    -68.4 1.438e+04 2.002e-09
  7.44316    -69.2 1.508e+04 2.669e-09
  7.46287    -69.6 1.529e+04 3.453e-09
  7.48258    -69.8 1.510e+04 4.051e-09
  7.50229    -69.7 1.506e+04 4.357e-09
  7.52200    -69.3 1.501e+04 4.654e-09
  7.53520    -68.8 1.481e+04 4.597e-09
  7.54506    -70.2 1.424e+04 2.369e-09
  7.56142    -70.3 1.417e+04 1.724e-09
  7.58113    -70.8 1.368e+04 1.183e-09
  7.60084    -71.4 1.269e+04 8.064e-10
  7.62056    -71.8 1.161e+04 6.024e-10
  7.64027    -71.4 1.097e+04 4.923e-10
  7.65998    -70.4 1.087e+04 4.191e-10
  7.67969    -69.2 1.092e+04 3.459e-10
  7.70935    -67.9 1.091e+04 2.757e-10
  7.74887    -65.5 1.079e+04 2.017e-10
  7.78829    -62.9 1.062e+04 1.451e-10
  7.82104    -60.7 1.041e+04 1.245e-10
  7.83940    -61.3 1.057e+04 1.612e-10
  7.84607    -61.8 1.006e+04 1.870e-10
  7.86713    -59.2 1.022e+04 1.847e-10
  7.90656    -56.8 1.056e+04 1.986e-10
  7.94598    -54.9 1.093e+04 2.476e-10
  7.98540    -53.4 1.126e+04 3.763e-10
  8.02482    -51.9 1.158e+04 6.267e-10
  8.06424    -50.2 1.191e+04 9.639e-10
  8.10366    -48.5 1.215e+04 1.218e-09
  8.13703    -47.0 1.219e+04 1.273e-09
  8.15665    -47.1 1.256e+04 8.467e-10
  8.18241    -46.9 1.238e+04 5.846e-10
  8.22193    -46.0 1.171e+04 3.618e-10
  8.26135    -45.0 1.086e+04 2.630e-10
  8.30077    -43.9 1.063e+04 2.502e-10
  8.34019    -43.7 1.059e+04 3.038e-10
  8.37961    -44.1 1.127e+04 6.047e-10
  8.41904    -44.4 1.213e+04 1.221e-09
  8.44761    -45.5 1.273e+04 2.436e-09
  8.45737    -44.8 1.302e+04 3.531e-09
  8.46812    -43.9 1.327e+04 4.056e-09
  8.48783    -43.7 1.336e+04 4.152e-09
  8.50754    -43.8 1.344e+04 4.138e-09
  8.52725    -44.2 1.361e+04 4.142e-09
  8.54696    -44.7 1.362e+04 4.142e-09
  8.56667    -44.9 1.358e+04 4.185e-09
  8.58638    -44.8 1.361e+04 4.138e-09
  8.60285    -44.3 1.359e+04 3.837e-09
  8.61270    -45.3 1.452e+04 5.211e-09
  8.62580    -44.6 1.430e+04 4.954e-09
  8.64551    -44.0 1.398e+04 4.140e-09
  8.66522    -43.7 1.377e+04 3.092e-09
  8.68494    -43.7 1.362e+04 2.242e-09
  8.70465    -44.4 1.333e+04 1.721e-09
  8.72436    -45.2 1.279e+04 1.411e-09
  8.74046    -45.6 1.229e+04 1.305e-09
  8.75042    -46.6 1.160e+04 8.999e-10
  8.75838    -46.5 1.132e+04 9.091e-10
  8.76814    -45.4 1.248e+04 1.526e-09
  8.78349    -45.3 1.228e+04 1.462e-09
  8.80320    -45.0 1.215e+04 1.415e-09
  8.82291    -44.8 1.194e+04 1.336e-09
  8.85257    -44.3 1.199e+04 1.316e-09
  8.89209    -44.1 1.144e+04 1.115e-09
  8.93151    -43.9 1.125e+04 1.048e-09
  8.97094    -43.1 1.122e+04 1.031e-09
  9.01036    -42.1 1.118e+04 9.789e-10
  9.04934    -40.7 1.085e+04 7.979e-10
  9.06905    -40.5 1.149e+04 1.218e-09
  9.08920    -38.8 1.121e+04 1.115e-09
  9.12862    -37.2 1.084e+04 8.885e-10
  9.16804    -35.7 1.054e+04 6.842e-10
  9.20747    -34.5 1.039e+04 5.859e-10
  9.24689    -33.1 1.036e+04 5.698e-10
  9.28631    -31.8 1.050e+04 6.414e-10
  9.32573    -30.4 1.074e+04 8.022e-10
  9.36002    -28.7 1.096e+04 9.236e-10
  9.37973    -28.1 1.186e+04 1.305e-09
  9.39462    -27.0 1.164e+04 1.273e-09
  9.41423    -26.1 1.149e+04 1.204e-09
  9.44390    -24.6 1.125e+04 1.025e-09
  9.48342    -22.5 1.089e+04 7.932e-10
  9.52284    -20.7 1.063e+04 6.030e-10
  9.56226    -18.9 1.033e+04 4.677e-10
  9.60168    -16.9 1.006e+04 3.949e-10
  9.64056    -14.7 9.808e+03 3.385e-10
  9.66027    -15.0 9.779e+03 3.024e-10
  9.67069    -12.8 9.596e+03 2.534e-10
  9.69040    -12.1 9.677e+03 3.083e-10
  9.71994    -10.4 9.515e+03 2.407e-10
  9.75937     -9.3 9.490e+03 2.212e-10
  9.79879     -8.9 9.697e+03 2.478e-10
  9.83821     -8.9 9.813e+03 3.707e-10
  9.87763     -8.6 1.003e+04 5.389e-10
  9.91705     -8.6 1.026e+04 6.334e-10
  9.95647     -9.5 1.044e+04 6.514e-10
  9.98137    -11.2 1.039e+04 6.021e-10
  9.99112     -9.6 9.937e+03 4.448e-10
 10.00555    -10.0 9.953e+03 4.382e-10
 10.02527    -11.0 9.952e+03 4.614e-10
 10.04498    -11.4 9.920e+03 5.063e-10
 10.06469    -11.4 1.013e+04 6.268e-10
 10.08440    -11.3 1.016e+04 6.914e-10
 10.10411    -10.7 1.040e+04 7.905e-10
 10.11496    -10.7 1.037e+04 8.466e-10
 10.12481    -10.8 1.060e+04 9.708e-10
 10.13651    -10.1 1.059e+04 1.001e-09
 10.14636     -9.1 1.027e+04 8.677e-10
 10.16324     -8.3 1.020e+04 8.134e-10
 10.19290     -7.7 1.015e+04 7.739e-10
 10.23242     -6.6 1.002e+04 6.938e-10
 10.27185     -6.0 1.014e+04 6.778e-10
 10.29194     -6.0 1.024e+04 6.957e-10
 10.30170     -4.9 1.022e+04 7.210e-10
 10.32093     -4.9 1.047e+04 8.071e-10
 10.34064     -5.0 1.097e+04 1.030e-09
 10.36035     -5.9 1.161e+04 1.410e-09
 10.38006     -6.9 1.269e+04 2.191e-09
 10.39977     -8.3 1.425e+04 3.523e-09
 10.41948    -11.5 1.645e+04 5.842e-09
 10.43733    -16.4 1.882e+04 1.039e-08
 10.44718    -15.1 1.741e+04 8.256e-09
 10.45890    -19.7 1.917e+04 1.463e-08
 10.47861    -22.6 1.962e+04 2.123e-08
 10.49832    -24.4 1.930e+04 2.232e-08
 10.51803    -24.6 1.800e+04 1.625e-08
 10.53774    -23.8 1.682e+04 7.482e-09
 10.55746    -25.1 1.569e+04 2.422e-09
 10.56984    -32.7 1.336e+04 7.341e-10
 10.57969    -35.1 1.081e+04 3.674e-10
 10.59266    -37.7 9.052e+03 2.444e-10
 10.60252    -37.6 9.444e+03 2.896e-10
 10.61659    -38.2 9.153e+03 2.769e-10
 10.63630    -38.3 9.358e+03 3.257e-10
 10.65601    -38.0 9.711e+03 4.093e-10
 10.67572    -37.4 9.920e+03 4.906e-10
 10.69543    -36.7 1.012e+04 5.690e-10
 10.71514    -36.0 1.037e+04 6.423e-10
 10.73485    -35.5 1.066e+04 7.053e-10
 10.74800    -35.2 1.095e+04 7.543e-10
 10.75786    -35.5 1.205e+04 1.360e-09
 10.77427    -35.3 1.220e+04 1.425e-09
 10.79398    -35.0 1.224e+04 1.443e-09
 10.81370    -34.6 1.209e+04 1.404e-09
 10.83341    -34.0 1.185e+04 1.278e-09
 10.85312    -33.3 1.165e+04 1.128e-09
 10.87283    -32.8 1.151e+04 9.907e-10
 10.89254    -32.4 1.150e+04 8.841e-10
 10.90334    -32.3 1.155e+04 8.362e-10
 10.91319    -32.3 1.183e+04 9.856e-10
 10.93196    -32.2 1.185e+04 9.579e-10
 10.95167    -32.1 1.190e+04 9.585e-10
 10.97138    -31.9 1.195e+04 1.011e-09
 10.99109    -31.6 1.196e+04 1.054e-09
 11.01080    -31.0 1.196e+04 1.062e-09
 11.02472    -30.4 1.186e+04 1.032e-09
 11.03458    -30.3 1.157e+04 8.767e-10
 11.04882    -29.5 1.138e+04 7.528e-10
 11.05867    -29.1 1.169e+04 9.328e-10
 11.06993    -28.2 1.148e+04 7.713e-10
 11.08965    -27.6 1.120e+04 6.010e-10
 11.10936    -27.3 1.091e+04 4.585e-10
 11.13902    -27.3 1.064e+04 3.423e-10
 11.17854    -25.7 1.016e+04 1.926e-10
 11.20435    -24.6 9.881e+03 1.453e-10
 11.21411    -24.4 1.011e+04 1.902e-10
 11.22762    -23.8 1.000e+04 1.734e-10
 11.24733    -22.8 9.809e+03 1.466e-10
 11.26704    -22.4 9.772e+03 1.429e-10
 11.29671    -21.0 1.009e+04 1.822e-10
 11.33623    -19.3 1.008e+04 1.931e-10
 11.37565    -17.4 1.012e+04 2.254e-10
 11.41507    -15.4 1.018e+04 2.806e-10
 11.45449    -13.2 1.024e+04 3.443e-10
 11.47980    -10.9 1.034e+04 3.961e-10
 11.49951    -10.1 9.995e+03 2.796e-10
 11.51502     -7.7 1.009e+04 3.330e-10
 11.53474     -7.5 1.083e+04 5.738e-10
 11.57275     -5.6 1.094e+04 5.921e-10
 11.61218     -4.3 1.120e+04 6.655e-10
 11.65160     -3.1 1.143e+04 8.117e-10
 11.69102     -1.3 1.161e+04 9.764e-10
 11.72049     -0.3 1.180e+04 1.076e-09
 11.74010      0.5 1.183e+04 1.033e-09
 11.75981      1.2 1.183e+04 9.130e-10
 11.77952     -1.2 1.542e+04 9.939e-10
 11.79923     -8.6 2.261e+04 2.138e-09
 11.81565    -14.0 2.283e+04 7.997e-09
 11.82550    -14.2 1.981e+04 1.054e-08
 11.83368    -14.7 2.013e+04 1.695e-08
 11.84348    -14.6 2.008e+04 2.779e-08
 11.85334    -14.3 1.986e+04 4.230e-08
 11.86319    -13.1 1.993e+04 5.708e-08
 11.87305    -11.8 2.009e+04 6.726e-08
 11.88291    -10.8 2.032e+04 7.129e-08
 11.89276    -10.2 2.098e+04 6.893e-08
 11.89815    -10.8 2.161e+04 6.309e-08
 11.90307    -10.9 2.269e+04 3.766e-08
 11.91247    -12.5 2.441e+04 2.836e-08
 11.92233    -14.6 2.526e+04 2.210e-08
 11.93218    -17.9 2.507e+04 1.785e-08
 11.93931    -20.8 2.440e+04 1.598e-08
 11.94424    -17.7 2.531e+04 1.890e-08
 11.95189    -20.6 2.515e+04 1.753e-08
 11.96175    -23.2 2.495e+04 1.754e-08
 11.97089    -25.8 2.454e+04 1.971e-08
 11.97582    -28.1 2.308e+04 1.667e-08
 11.98146    -30.6 2.225e+04 2.174e-08
 11.99131    -32.7 2.130e+04 2.956e-08
 12.00117    -33.5 2.067e+04 3.947e-08
 12.01103    -33.5 2.040e+04 4.947e-08
 12.02088    -32.8 2.032e+04 5.209e-08
 12.03074    -32.1 1.992e+04 4.964e-08
 12.04059    -31.4 1.975e+04 3.668e-08
 12.04856    -31.4 1.984e+04 2.357e-08
 12.05348    -31.7 1.935e+04 2.868e-08
 12.06030    -33.0 1.962e+04 1.819e-08
 12.07016    -35.8 1.935e+04 1.193e-08
 12.08001    -39.0 1.837e+04 7.901e-09
 12.08987    -42.1 1.778e+04 5.626e-09
 12.09972    -44.5 1.732e+04 4.544e-09
 12.10958    -46.4 1.694e+04 4.094e-09
 12.11943    -47.4 1.701e+04 4.069e-09
 12.12627    -50.0 1.634e+04 3.953e-09
 12.13120    -47.1 1.702e+04 4.540e-09
 12.13915    -47.4 1.705e+04 4.510e-09
 12.15398    -48.5 1.652e+04 4.399e-09
 12.17374    -49.1 1.527e+04 3.745e-09
 12.19345    -49.2 1.413e+04 3.050e-09
 12.21316    -49.0 1.332e+04 2.359e-09
 12.23287    -48.8 1.268e+04 1.683e-09
 12.25258    -48.7 1.207e+04 1.152e-09
 12.27180    -49.2 1.154e+04 8.140e-10
