# Columns:
#   distance along LOS (in CHIMPs)
#   peculiar velocity  (in km/s)
#   temperature (K)
#   HI number density
# pos=(129.467,255.572,171.609), angles=(1.86502,1.80841)
  0.01517     90.9 1.126e+04 6.087e-10
  0.04074     91.7 1.099e+04 4.826e-10
  0.05514     92.0 1.092e+04 4.461e-10
  0.06574     92.4 1.069e+04 3.550e-10
  0.09333     93.4 1.058e+04 3.109e-10
  0.13274     94.4 1.052e+04 2.742e-10
  0.15374     94.7 1.024e+04 2.331e-10
  0.17518     95.8 1.025e+04 2.354e-10
  0.19618     97.3 1.007e+04 1.905e-10
  0.21932     98.3 1.022e+04 2.245e-10
  0.26132     98.9 1.052e+04 2.886e-10
  0.30331     99.5 1.095e+04 4.061e-10
  0.32653    101.1 1.108e+04 4.681e-10
  0.34753    102.5 1.100e+04 4.599e-10
  0.38730    103.1 1.125e+04 5.363e-10
  0.42930    103.7 1.131e+04 5.375e-10
  0.45687    104.2 1.128e+04 5.048e-10
  0.47787    105.4 1.132e+04 5.498e-10
  0.49513    105.9 1.129e+04 4.989e-10
  0.51613    106.7 1.117e+04 4.644e-10
  0.55529    107.2 1.115e+04 4.332e-10
  0.58722    107.7 1.117e+04 4.345e-10
  0.60821    108.6 1.126e+04 4.864e-10
  0.63928    108.8 1.136e+04 5.197e-10
  0.66583    108.9 1.157e+04 6.074e-10
  0.68683    109.2 1.142e+04 5.308e-10
  0.71756    109.4 1.158e+04 5.911e-10
  0.73856    109.7 1.144e+04 5.457e-10
  0.76527    109.5 1.146e+04 5.701e-10
  0.80727    109.2 1.151e+04 5.852e-10
  0.83653    109.5 1.139e+04 5.737e-10
  0.85617    109.8 1.112e+04 4.783e-10
  0.86881    110.0 1.103e+04 4.964e-10
  0.88057    110.1 1.105e+04 5.090e-10
  0.90157    110.2 1.109e+04 5.275e-10
  0.92168    110.4 1.118e+04 5.675e-10
  0.93218    110.5 1.112e+04 5.489e-10
  0.93388    110.6 1.127e+04 6.155e-10
  0.94438    110.8 1.121e+04 6.040e-10
  0.96456    110.8 1.144e+04 7.137e-10
  0.98556    110.8 1.174e+04 8.750e-10
  0.99905    110.7 1.210e+04 1.088e-09
  1.00955    110.9 1.224e+04 1.188e-09
  1.01753    110.6 1.274e+04 1.550e-09
  1.02803    110.5 1.278e+04 1.586e-09
  1.04855    110.2 1.334e+04 2.134e-09
  1.06423    109.9 1.382e+04 2.674e-09
  1.07472    109.9 1.408e+04 3.033e-09
  1.09055    109.3 1.438e+04 3.217e-09
  1.10288    108.5 1.437e+04 3.147e-09
  1.11337    108.1 1.448e+04 3.213e-09
  1.12940    107.3 1.426e+04 2.828e-09
  1.13990    107.2 1.424e+04 2.847e-09
  1.15354    106.6 1.371e+04 2.082e-09
  1.17454    106.0 1.308e+04 1.396e-09
  1.18822    105.1 1.245e+04 9.359e-10
  1.19775    104.8 1.236e+04 8.534e-10
  1.20507    104.5 1.221e+04 7.808e-10
  1.21654    103.3 1.161e+04 5.236e-10
  1.23754    102.0 1.112e+04 4.027e-10
  1.25854    101.9 1.106e+04 3.963e-10
  1.27024    101.9 1.106e+04 3.964e-10
  1.28084    101.7 1.090e+04 3.718e-10
  1.31123    102.1 1.057e+04 3.266e-10
  1.34862    102.7 1.028e+04 2.729e-10
  1.36961    103.0 1.041e+04 3.049e-10
  1.39028    103.9 1.014e+04 2.525e-10
  1.41128    104.2 1.017e+04 2.609e-10
  1.43722    105.1 9.989e+03 2.117e-10
  1.47921    105.9 9.883e+03 1.635e-10
  1.51931    106.7 9.841e+03 1.253e-10
  1.53973    106.9 9.978e+03 1.719e-10
  1.54162    106.8 1.011e+04 2.247e-10
  1.56320    107.4 1.011e+04 2.061e-10
  1.60520    108.3 1.013e+04 1.945e-10
  1.64720    109.3 1.015e+04 1.898e-10
  1.67197    110.5 1.017e+04 1.899e-10
  1.69297    110.3 1.040e+04 2.773e-10
  1.71101    111.5 1.044e+04 2.798e-10
  1.73201    111.3 1.071e+04 3.915e-10
  1.77319    112.3 1.087e+04 4.329e-10
  1.80231    113.2 1.115e+04 5.245e-10
  1.82331    113.0 1.124e+04 5.866e-10
  1.85718    113.7 1.162e+04 7.337e-10
  1.88170    113.8 1.191e+04 8.923e-10
  1.90270    113.2 1.200e+04 9.622e-10
  1.93266    112.9 1.215e+04 1.103e-09
  1.95366    112.4 1.211e+04 1.093e-09
  1.98317    112.0 1.226e+04 1.251e-09
  2.02517    111.2 1.225e+04 1.250e-09
  2.05240    110.4 1.210e+04 1.149e-09
  2.06924    109.7 1.213e+04 1.152e-09
  2.08400    109.8 1.222e+04 1.220e-09
  2.10916    109.0 1.178e+04 8.864e-10
  2.15115    108.2 1.121e+04 5.403e-10
  2.19315    107.1 1.060e+04 3.380e-10
  2.21435    106.4 1.023e+04 2.988e-10
  2.22329    106.4 1.036e+04 3.443e-10
  2.24409    105.7 1.002e+04 2.679e-10
  2.27714    105.5 9.980e+03 2.751e-10
  2.31914    105.3 9.990e+03 3.095e-10
  2.34469    105.1 1.001e+04 3.365e-10
  2.36569    105.2 1.001e+04 3.488e-10
  2.39379    105.1 9.958e+03 3.379e-10
  2.41479    104.5 9.995e+03 3.517e-10
  2.44513    104.7 9.780e+03 3.163e-10
  2.47503    105.2 9.497e+03 2.459e-10
  2.49603    105.7 9.376e+03 2.254e-10
  2.52912    106.3 9.136e+03 1.569e-10
  2.56449    106.6 8.937e+03 1.097e-10
  2.58549    106.2 8.938e+03 1.187e-10
  2.60538    106.6 8.823e+03 1.068e-10
  2.62638    107.4 8.805e+03 1.067e-10
  2.65511    108.2 8.812e+03 1.099e-10
  2.69711    108.8 8.884e+03 1.279e-10
  2.73519    109.5 9.086e+03 1.686e-10
  2.75280    108.9 9.409e+03 2.296e-10
  2.75672    110.0 9.455e+03 2.601e-10
  2.78110    110.7 9.807e+03 3.707e-10
  2.82310    110.8 1.013e+04 4.700e-10
  2.86509    110.6 1.028e+04 4.797e-10
  2.88707    110.0 1.029e+04 4.548e-10
  2.90686    111.4 1.068e+04 6.187e-10
  2.92688    110.2 1.097e+04 7.180e-10
  2.94909    108.9 1.083e+04 5.986e-10
  2.99108    107.0 1.063e+04 5.310e-10
  3.01741    105.0 1.063e+04 5.475e-10
  3.03841    106.4 1.104e+04 7.159e-10
  3.07508    104.3 1.107e+04 7.729e-10
  3.09758    102.5 1.108e+04 8.172e-10
  3.11857    100.7 1.109e+04 8.107e-10
  3.14775     99.3 1.084e+04 6.982e-10
  3.16875    100.5 1.084e+04 6.844e-10
  3.20107     99.1 1.029e+04 4.467e-10
  3.24306     97.7 9.723e+03 2.900e-10
  3.26827     96.3 9.351e+03 2.343e-10
  3.28231     94.5 9.197e+03 2.169e-10
  3.29910     95.3 9.053e+03 1.905e-10
  3.32705     94.8 9.041e+03 1.952e-10
  3.36905     94.3 9.070e+03 2.057e-10
  3.40844     93.7 9.115e+03 2.172e-10
  3.42944     94.7 9.015e+03 1.919e-10
  3.43897     93.8 9.052e+03 1.986e-10
  3.45997     92.2 8.965e+03 1.787e-10
  3.49504     91.1 8.935e+03 1.758e-10
  3.53704     90.0 8.850e+03 1.683e-10
  3.55979     88.8 8.722e+03 1.539e-10
  3.58078     89.4 8.708e+03 1.526e-10
  3.60967     87.8 8.717e+03 1.532e-10
  3.63066     86.6 8.725e+03 1.613e-10
  3.66303     84.7 8.873e+03 1.924e-10
  3.69013     82.6 9.226e+03 2.753e-10
  3.71113     82.6 9.510e+03 3.644e-10
  3.73642     81.4 9.731e+03 4.337e-10
  3.75511     80.5 9.948e+03 5.026e-10
  3.76561     80.5 1.006e+04 5.557e-10
  3.77832     79.3 1.040e+04 6.724e-10
  3.79067     78.1 1.064e+04 7.518e-10
  3.80116     77.9 1.064e+04 7.429e-10
  3.82028     76.5 1.070e+04 7.496e-10
  3.84128     74.9 1.059e+04 6.634e-10
  3.86231     72.9 1.057e+04 6.081e-10
  3.87601     70.5 1.062e+04 5.800e-10
  3.88651     70.6 1.056e+04 5.809e-10
  3.89595     68.3 1.063e+04 5.926e-10
  3.90645     67.4 1.063e+04 5.823e-10
  3.92531     65.3 1.070e+04 6.407e-10
  3.94631     63.4 1.075e+04 6.717e-10
  3.96112     61.7 1.075e+04 6.651e-10
  3.96568     61.0 1.080e+04 6.874e-10
  3.97186     61.3 1.096e+04 7.712e-10
  3.98830     59.9 1.095e+04 7.482e-10
  4.00930     58.4 1.086e+04 6.855e-10
  4.02630     56.9 1.069e+04 5.967e-10
  4.03679     56.2 1.068e+04 6.021e-10
  4.04671     54.7 1.038e+04 5.083e-10
  4.05721     55.6 1.050e+04 5.540e-10
  4.08107     54.0 1.012e+04 4.077e-10
  4.10216     52.5 1.002e+04 4.091e-10
  4.12175     51.1 9.470e+03 2.767e-10
  4.14275     51.9 9.351e+03 2.566e-10
  4.16698     51.0 8.947e+03 1.813e-10
  4.20898     50.6 8.774e+03 1.344e-10
  4.23251     50.4 8.668e+03 1.155e-10
  4.25351     49.2 8.695e+03 1.214e-10
  4.29245     49.6 8.670e+03 1.201e-10
  4.31345     50.4 8.724e+03 1.346e-10
  4.33497     51.0 8.748e+03 1.350e-10
  4.36285     51.9 8.814e+03 1.368e-10
  4.38385     50.7 8.840e+03 1.406e-10
  4.41896     51.7 8.860e+03 1.398e-10
  4.46096     52.7 8.883e+03 1.408e-10
  4.48415     53.6 8.930e+03 1.474e-10
  4.49538     54.1 9.079e+03 1.863e-10
  4.51419     53.2 9.004e+03 1.866e-10
  4.54495     54.3 8.992e+03 1.784e-10
  4.58695     55.1 9.045e+03 1.790e-10
  4.62354     55.8 9.125e+03 1.901e-10
  4.64454     55.0 9.121e+03 1.888e-10
  4.65484     55.6 9.216e+03 2.082e-10
  4.67584     55.9 9.070e+03 1.751e-10
  4.71294     56.6 9.176e+03 1.970e-10
  4.75388     57.1 9.316e+03 2.240e-10
  4.77488     56.2 9.417e+03 2.566e-10
  4.79693     56.8 9.538e+03 2.849e-10
  4.82554     57.4 9.624e+03 3.050e-10
  4.84654     58.4 9.502e+03 2.802e-10
  4.88092     59.3 9.639e+03 3.128e-10
  4.90523     60.1 9.753e+03 3.353e-10
  4.92623     59.2 9.770e+03 3.372e-10
  4.96492     60.0 9.822e+03 3.413e-10
  4.99623     60.7 9.916e+03 3.580e-10
  5.01723     61.9 9.892e+03 3.500e-10
  5.03557     62.5 1.006e+04 3.992e-10
  5.05657     61.6 9.986e+03 3.834e-10
  5.09091     62.5 1.012e+04 4.319e-10
  5.13290     63.4 1.008e+04 4.169e-10
  5.16592     64.3 9.948e+03 3.608e-10
  5.17895     63.8 9.707e+03 2.806e-10
  5.18793     64.7 9.912e+03 3.534e-10
  5.21689     65.6 9.689e+03 2.610e-10
  5.25889     66.3 9.467e+03 1.784e-10
  5.29626     67.0 9.333e+03 1.217e-10
  5.31726     66.4 9.335e+03 1.140e-10
  5.33763     66.8 9.344e+03 9.848e-11
  5.35863     67.8 9.342e+03 1.041e-10
  5.38488     68.3 9.406e+03 1.031e-10
  5.42661     68.7 9.556e+03 1.199e-10
  5.44760     67.9 9.861e+03 1.911e-10
  5.46887     68.8 1.005e+04 2.564e-10
  5.50832     69.8 1.014e+04 3.032e-10
  5.52932     70.7 1.010e+04 2.817e-10
  5.55287     71.5 1.012e+04 2.979e-10
  5.57795     72.2 1.009e+04 2.928e-10
  5.59895     71.4 1.028e+04 3.355e-10
  5.63686     71.9 1.022e+04 3.190e-10
  5.67886     72.4 1.014e+04 3.039e-10
  5.70829     74.0 1.034e+04 3.548e-10
  5.72929     73.1 1.049e+04 3.898e-10
  5.76285     73.4 1.042e+04 3.615e-10
  5.78527     73.2 1.034e+04 3.150e-10
  5.79567     73.6 1.038e+04 3.510e-10
  5.81515     73.3 1.037e+04 3.400e-10
  5.83615     72.2 1.064e+04 3.520e-10
  5.84894     70.8 1.111e+04 4.076e-10
  5.85944     68.0 1.176e+04 6.434e-10
  5.87052     67.0 1.186e+04 8.277e-10
  5.88102     67.0 1.216e+04 1.071e-09
  5.89914     66.7 1.203e+04 1.221e-09
  5.91411     66.5 1.187e+04 1.241e-09
  5.92461     65.6 1.198e+04 1.319e-09
  5.94114     65.4 1.188e+04 1.262e-09
  5.96888     66.2 1.174e+04 1.213e-09
  5.98998     63.7 1.125e+04 8.775e-10
  6.01483     63.4 1.075e+04 6.220e-10
  6.04131     63.7 1.057e+04 5.376e-10
  6.05004     63.4 1.037e+04 4.582e-10
  6.05496     62.5 1.006e+04 3.349e-10
  6.06713     61.8 9.730e+03 2.683e-10
  6.09872     62.0 9.703e+03 2.687e-10
  6.12032     61.6 9.516e+03 2.731e-10
  6.14132     59.1 9.672e+03 2.702e-10
  6.17222     58.7 9.938e+03 3.519e-10
  6.18530     58.2 1.032e+04 5.155e-10
  6.19580     57.0 1.055e+04 6.401e-10
  6.21191     57.1 1.083e+04 8.635e-10
  6.22241     56.8 1.080e+04 8.444e-10
  6.23511     57.2 1.105e+04 1.006e-09
  6.25047     57.7 1.131e+04 1.115e-09
  6.26097     56.6 1.108e+04 9.445e-10
  6.27711     56.4 1.104e+04 8.251e-10
  6.29726     55.9 1.082e+04 6.839e-10
  6.30776     55.2 1.074e+04 6.641e-10
  6.31565     54.4 1.050e+04 5.663e-10
  6.32614     52.7 1.011e+04 4.594e-10
  6.34010     51.9 1.005e+04 4.420e-10
  6.36110     50.9 1.019e+04 4.669e-10
  6.38082     49.7 1.042e+04 5.202e-10
  6.39132     47.5 1.067e+04 5.826e-10
  6.39311     46.1 1.107e+04 7.800e-10
  6.40361     45.0 1.133e+04 9.702e-10
  6.42410     44.3 1.161e+04 1.214e-09
  6.44510     43.7 1.179e+04 1.358e-09
  6.45649     43.0 1.188e+04 1.367e-09
  6.46699     41.4 1.196e+04 1.331e-09
  6.47846     40.2 1.199e+04 1.165e-09
  6.48896     38.9 1.197e+04 1.047e-09
  6.50809     37.0 1.183e+04 8.594e-10
  6.52166     35.0 1.162e+04 7.488e-10
  6.53216     32.4 1.140e+04 6.997e-10
  6.55009     31.0 1.126e+04 6.964e-10
  6.56380     30.2 1.114e+04 7.028e-10
  6.57430     29.2 1.110e+04 7.351e-10
  6.58683     28.9 1.106e+04 7.467e-10
  6.59733     27.3 1.101e+04 7.177e-10
  6.61308     26.7 1.106e+04 7.192e-10
  6.63408     25.8 1.120e+04 7.367e-10
  6.64915     24.6 1.139e+04 7.993e-10
  6.65658     23.5 1.152e+04 8.747e-10
  6.66251     21.8 1.139e+04 8.669e-10
  6.67608     21.0 1.148e+04 1.013e-09
  6.69707     20.8 1.153e+04 1.184e-09
  6.71718     20.9 1.153e+04 1.320e-09
  6.72768     20.4 1.128e+04 1.132e-09
  6.73450     20.7 1.131e+04 1.106e-09
  6.74500     20.3 1.129e+04 1.059e-09
  6.76007     20.4 1.131e+04 9.788e-10
  6.78107     20.1 1.128e+04 8.838e-10
  6.79285     19.8 1.123e+04 8.025e-10
  6.80335     19.1 1.095e+04 6.589e-10
  6.81985     18.9 1.092e+04 6.256e-10
  6.83035     18.2 1.072e+04 5.280e-10
  6.84406     18.0 1.074e+04 5.228e-10
  6.85802     17.8 1.076e+04 5.386e-10
  6.86852     17.6 1.059e+04 5.013e-10
  6.88606     17.5 1.074e+04 5.649e-10
  6.90520     17.4 1.095e+04 6.407e-10
  6.91570     16.3 1.101e+04 6.839e-10
  6.92319     15.9 1.134e+04 8.196e-10
  6.93369     15.9 1.133e+04 8.154e-10
  6.94905     15.5 1.169e+04 9.669e-10
  6.97005     14.9 1.200e+04 1.123e-09
  6.98837     14.3 1.223e+04 1.247e-09
  6.99836     14.4 1.218e+04 1.200e-09
  7.00104     13.0 1.234e+04 1.337e-09
  7.01205     12.3 1.236e+04 1.274e-09
  7.03305     11.4 1.233e+04 1.151e-09
  7.05354     10.1 1.229e+04 8.967e-10
  7.06404      9.8 1.224e+04 8.747e-10
  7.07504      8.8 1.200e+04 7.039e-10
  7.08649      7.3 1.239e+04 6.915e-10
  7.10759      5.2 1.127e+04 3.133e-10
  7.14873      2.3 1.107e+04 2.937e-10
  7.18408      0.1 1.113e+04 3.346e-10
  7.20508     -1.2 1.138e+04 4.436e-10
  7.22213     -1.6 1.147e+04 5.209e-10
  7.24303     -1.8 1.161e+04 6.466e-10
  7.25709     -1.8 1.183e+04 8.088e-10
  7.26312     -1.5 1.181e+04 8.169e-10
  7.27005     -2.0 1.194e+04 9.046e-10
  7.28502     -1.8 1.216e+04 1.063e-09
  7.30602     -1.6 1.239e+04 1.224e-09
  7.32473     -1.7 1.279e+04 1.480e-09
  7.33523     -3.0 1.304e+04 1.515e-09
  7.34244     -3.7 1.386e+04 2.098e-09
  7.35294     -2.8 1.353e+04 1.846e-09
  7.36902     -4.3 1.441e+04 2.694e-09
  7.38990     -5.2 1.498e+04 4.000e-09
  7.40040     -6.4 1.508e+04 4.399e-09
  7.41101     -5.9 1.542e+04 5.905e-09
  7.42779     -4.7 1.559e+04 6.691e-09
  7.43828     -4.9 1.564e+04 6.796e-09
  7.45301     -4.0 1.568e+04 6.792e-09
  7.46557     -3.3 1.563e+04 6.111e-09
  7.47607     -3.8 1.542e+04 5.867e-09
  7.49501     -4.0 1.511e+04 4.706e-09
  7.51313     -4.6 1.462e+04 3.742e-09
  7.52363     -4.5 1.442e+04 3.513e-09
  7.53074     -4.8 1.386e+04 2.890e-09
  7.54124     -4.9 1.333e+04 2.321e-09
  7.55800     -4.7 1.289e+04 1.964e-09
  7.57900     -4.1 1.248e+04 1.673e-09
  7.59591     -3.3 1.217e+04 1.440e-09
  7.60490     -3.4 1.185e+04 1.172e-09
  7.60898     -4.0 1.157e+04 9.550e-10
  7.62100     -3.2 1.138e+04 8.755e-10
  7.64199     -2.4 1.120e+04 8.057e-10
  7.66109     -1.6 1.110e+04 7.565e-10
  7.67159     -1.5 1.101e+04 7.167e-10
  7.68383     -0.8 1.109e+04 7.410e-10
  7.69433     -1.2 1.106e+04 7.384e-10
  7.70499     -0.7 1.133e+04 8.432e-10
  7.72599     -0.4 1.174e+04 1.033e-09
  7.73676     -0.3 1.227e+04 1.339e-09
  7.74726     -0.6 1.270e+04 1.600e-09
  7.76798     -0.2 1.335e+04 2.204e-09
  7.77968      0.5 1.394e+04 2.854e-09
  7.79018     -0.9 1.471e+04 3.750e-09
  7.80193     -0.4 1.521e+04 4.486e-09
  7.81243     -0.5 1.540e+04 5.057e-09
  7.83098      0.1 1.566e+04 5.423e-09
  7.85198      0.7 1.584e+04 5.646e-09
  7.86503      1.4 1.595e+04 5.827e-09
  7.86965      0.2 1.658e+04 7.366e-09
  7.87760      0.4 1.624e+04 6.361e-09
  7.89397     -0.1 1.736e+04 7.221e-09
  7.91497     -4.2 2.145e+04 1.128e-08
  7.93067    -11.9 2.583e+04 2.189e-08
  7.93743    -16.3 2.683e+04 4.254e-08
  7.94268    -17.7 2.561e+04 5.078e-08
  7.95028    -18.1 2.421e+04 1.155e-07
  7.95553    -19.1 2.452e+04 7.325e-08
  7.96212    -20.2 2.565e+04 8.642e-08
  7.97001    -22.1 2.746e+04 4.228e-08
  7.97526    -22.9 2.815e+04 3.753e-08
  7.98312    -27.8 2.849e+04 2.303e-08
  7.99295    -31.3 3.111e+04 1.263e-08
  7.99820    -34.5 2.205e+04 1.008e-08
  8.00260    -36.3 2.168e+04 8.264e-09
  8.00785    -36.1 2.157e+04 8.172e-09
  8.01991    -40.0 1.960e+04 4.490e-09
  8.03572    -46.6 1.296e+04 2.008e-09
  8.04622    -46.9 1.212e+04 1.625e-09
  8.06196    -46.9 1.197e+04 1.344e-09
  8.07312    -46.9 1.183e+04 1.129e-09
  8.08362    -46.8 1.168e+04 1.055e-09
  8.10395    -47.9 1.167e+04 9.285e-10
  8.12107    -49.6 1.153e+04 8.748e-10
  8.13157    -50.7 1.121e+04 8.875e-10
  8.13829    -52.0 1.124e+04 9.896e-10
  8.14879    -52.1 1.117e+04 9.368e-10
  8.16695    -53.3 1.156e+04 1.160e-09
  8.18795    -54.6 1.228e+04 1.495e-09
  8.20346    -56.6 1.291e+04 1.860e-09
  8.21144    -56.9 1.306e+04 1.936e-09
  8.21692    -57.1 1.314e+04 1.980e-09
  8.22994    -59.1 1.340e+04 2.328e-09
  8.25094    -60.7 1.366e+04 2.620e-09
  8.26864    -62.5 1.419e+04 2.898e-09
  8.27913    -62.3 1.471e+04 3.338e-09
  8.29177    -65.2 1.552e+04 3.561e-09
  8.30227    -64.1 1.436e+04 2.675e-09
  8.31394    -67.8 1.571e+04 3.262e-09
  8.33381    -71.5 1.666e+04 5.312e-09
  8.34431    -71.9 1.679e+04 4.796e-09
  8.35593    -73.8 1.734e+04 8.657e-09
  8.37693    -73.9 1.842e+04 1.500e-08
  8.38761    -73.4 1.967e+04 2.228e-08
  8.39811    -72.9 1.945e+04 2.109e-08
  8.40948    -72.8 2.008e+04 2.436e-08
  8.41998    -73.0 1.934e+04 2.222e-08
  8.43993    -72.7 1.934e+04 2.085e-08
  8.46092    -72.1 1.873e+04 1.307e-08
  8.47296    -72.9 1.793e+04 7.851e-09
  8.47619    -71.5 1.745e+04 7.227e-09
  8.48515    -71.0 1.730e+04 7.433e-09
  8.50292    -74.2 1.652e+04 5.107e-09
  8.52392    -77.3 1.630e+04 4.566e-09
  8.53982    -79.9 1.676e+04 4.835e-09
  8.55032    -80.0 1.699e+04 5.980e-09
  8.55831    -81.8 1.740e+04 7.652e-09
  8.56881    -82.2 1.762e+04 8.154e-09
  8.58691    -83.1 1.764e+04 8.904e-09
  8.60500    -83.7 1.725e+04 8.361e-09
  8.61549    -82.3 1.709e+04 7.651e-09
  8.62891    -83.3 1.591e+04 4.636e-09
  8.64366    -85.2 1.438e+04 2.749e-09
  8.65416    -85.8 1.429e+04 2.672e-09
  8.67017    -87.8 1.352e+04 1.997e-09
  8.68067    -88.8 1.244e+04 1.332e-09
  8.69190    -90.0 1.227e+04 1.254e-09
  8.71290    -90.9 1.238e+04 1.283e-09
  8.72901    -91.7 1.258e+04 1.527e-09
  8.73951    -91.7 1.281e+04 1.713e-09
  8.74584    -91.9 1.298e+04 2.077e-09
  8.75634    -91.0 1.262e+04 1.656e-09
  8.77590    -91.2 1.282e+04 2.023e-09
  8.79690    -91.2 1.300e+04 2.338e-09
  8.81101    -91.1 1.308e+04 2.441e-09
  8.81797    -90.5 1.281e+04 2.165e-09
  8.82485    -90.4 1.290e+04 2.219e-09
  8.83889    -90.2 1.294e+04 2.271e-09
  8.85989    -89.9 1.286e+04 1.983e-09
  8.87618    -89.7 1.255e+04 1.442e-09
  8.88668    -89.1 1.255e+04 1.579e-09
  8.89970    -89.3 1.226e+04 1.079e-09
  8.91020    -88.9 1.247e+04 1.268e-09
  8.92288    -89.7 1.208e+04 8.490e-10
  8.94145    -90.8 1.141e+04 5.838e-10
  8.95195    -89.5 1.185e+04 6.965e-10
  8.96488    -89.8 1.137e+04 5.549e-10
  8.98515    -89.9 1.118e+04 4.827e-10
  9.00624    -89.0 1.165e+04 6.415e-10
  9.03857    -87.7 1.109e+04 4.511e-10
  9.07190    -85.6 1.098e+04 3.792e-10
  9.09289    -85.6 1.101e+04 4.147e-10
  9.12256    -83.4 1.091e+04 3.436e-10
  9.15594    -81.2 1.080e+04 2.993e-10
  9.17694    -80.7 1.099e+04 3.582e-10
  9.20224    -78.6 1.086e+04 3.120e-10
  9.22324    -78.3 1.081e+04 2.920e-10
  9.24855    -76.0 1.075e+04 2.741e-10
  9.29055    -73.7 1.077e+04 2.762e-10
  9.32664    -71.7 1.095e+04 3.359e-10
  9.34764    -72.0 1.128e+04 4.914e-10
  9.37454    -70.0 1.146e+04 5.817e-10
  9.41654    -68.3 1.184e+04 7.382e-10
  9.45853    -67.0 1.233e+04 8.806e-10
  9.48383    -65.8 1.275e+04 9.556e-10
  9.49423    -65.7 1.278e+04 9.540e-10
  9.50764    -65.3 1.270e+04 9.328e-10
  9.51814    -65.7 1.232e+04 7.503e-10
  9.53183    -64.7 1.226e+04 6.671e-10
  9.54890    -64.2 1.234e+04 5.530e-10
  9.55940    -64.1 1.229e+04 5.520e-10
  9.57383    -63.8 1.252e+04 4.603e-10
  9.59299    -63.7 1.263e+04 3.988e-10
  9.60349    -64.3 1.198e+04 3.557e-10
  9.61408    -64.2 1.201e+04 3.492e-10
  9.62458    -64.0 1.205e+04 3.523e-10
  9.63682    -63.8 1.216e+04 3.735e-10
  9.65782    -63.4 1.237e+04 3.978e-10
  9.67834    -63.1 1.252e+04 4.274e-10
  9.68883    -62.7 1.244e+04 4.482e-10
  9.68975    -62.3 1.260e+04 4.831e-10
  9.70025    -62.0 1.275e+04 5.400e-10
  9.72082    -61.6 1.290e+04 5.714e-10
  9.74182    -61.4 1.305e+04 6.089e-10
