# Columns:
#   distance along LOS (in CHIMPs)
#   peculiar velocity  (in km/s)
#   temperature (K)
#   HI number density
# pos=(157.534,230.052,95.5474), angles=(0.495934,4.8362)
  0.00887     68.9 1.205e+04 1.050e-09
  0.02706     69.7 1.179e+04 9.895e-10
  0.05859     71.7 1.195e+04 1.033e-09
  0.09053     72.6 1.206e+04 1.121e-09
  0.10154     72.9 1.212e+04 1.224e-09
  0.11392     73.6 1.225e+04 1.327e-09
  0.13332     74.2 1.243e+04 1.429e-09
  0.14442     74.4 1.257e+04 1.644e-09
  0.15833     74.9 1.284e+04 1.812e-09
  0.17621     75.4 1.306e+04 1.970e-09
  0.18731     75.4 1.331e+04 2.288e-09
  0.20274     75.8 1.351e+04 2.478e-09
  0.21910     76.1 1.363e+04 2.633e-09
  0.23020     75.8 1.388e+04 3.004e-09
  0.23956     76.0 1.399e+04 3.142e-09
  0.25066     76.5 1.403e+04 3.268e-09
  0.26198     76.8 1.413e+04 3.345e-09
  0.27309     76.2 1.425e+04 3.501e-09
  0.29157     76.1 1.429e+04 3.481e-09
  0.32498     75.5 1.411e+04 2.983e-09
  0.34795     74.7 1.402e+04 2.750e-09
  0.37016     72.1 1.363e+04 1.843e-09
  0.41152     71.2 1.327e+04 1.399e-09
  0.43373     68.6 1.264e+04 1.030e-09
  0.45831     68.3 1.208e+04 6.995e-10
  0.49729     67.9 1.159e+04 4.208e-10
  0.51950     66.8 1.139e+04 3.470e-10
  0.54714     66.7 1.108e+04 2.660e-10
  0.57248     67.5 1.106e+04 2.690e-10
  0.58620     67.6 1.094e+04 2.295e-10
  0.60528     67.1 1.085e+04 1.719e-10
  0.63597     68.2 1.082e+04 1.886e-10
  0.66884     69.3 1.088e+04 2.201e-10
  0.69105     68.9 1.075e+04 1.760e-10
  0.72479     69.9 1.074e+04 2.005e-10
  0.75462     70.8 1.074e+04 2.061e-10
  0.77682     70.6 1.068e+04 1.894e-10
  0.81362     71.5 1.069e+04 1.883e-10
  0.84039     72.4 1.069e+04 1.811e-10
  0.86260     72.4 1.065e+04 1.576e-10
  0.90245     73.4 1.061e+04 1.452e-10
  0.92617     74.4 1.059e+04 1.372e-10
  0.94837     74.2 1.062e+04 9.231e-11
  0.98974     75.3 1.058e+04 8.705e-11
  1.01194     74.8 1.048e+04 6.583e-11
  1.03569     76.2 1.046e+04 6.656e-11
  1.07551     77.7 1.043e+04 7.024e-11
  1.09772     77.3 1.041e+04 7.166e-11
  1.12451     78.9 1.041e+04 7.819e-11
  1.16128     80.6 1.041e+04 8.622e-11
  1.18349     80.4 1.041e+04 9.714e-11
  1.21334     82.1 1.043e+04 1.045e-10
  1.23794     83.9 1.046e+04 1.105e-10
  1.24946     84.3 1.044e+04 1.086e-10
  1.26927     84.2 1.048e+04 1.105e-10
  1.30216     85.9 1.048e+04 1.047e-10
  1.33283     87.4 1.048e+04 9.760e-11
  1.35504     87.3 1.050e+04 8.574e-11
  1.39099     88.8 1.050e+04 8.320e-11
  1.41861     90.4 1.051e+04 8.467e-11
  1.44081     90.2 1.051e+04 8.054e-11
  1.47982     91.6 1.053e+04 9.440e-11
  1.50438     93.2 1.056e+04 1.158e-10
  1.52659     93.1 1.055e+04 1.299e-10
  1.56795     94.8 1.060e+04 1.679e-10
  1.59016     94.7 1.066e+04 1.823e-10
  1.61306     96.3 1.076e+04 2.193e-10
  1.65372     97.8 1.088e+04 2.369e-10
  1.67593     97.2 1.091e+04 2.281e-10
  1.70188     98.4 1.091e+04 2.239e-10
  1.73950     99.7 1.089e+04 2.102e-10
  1.76171     99.0 1.089e+04 1.806e-10
  1.79071    100.3 1.086e+04 1.512e-10
  1.82527    101.7 1.084e+04 1.293e-10
  1.84748    100.8 1.089e+04 1.032e-10
  1.87954    102.2 1.086e+04 9.403e-11
  1.90341    103.6 1.081e+04 9.205e-11
  1.91271    103.5 1.079e+04 8.950e-11
  1.93325    103.1 1.075e+04 8.886e-11
  1.96836    104.7 1.075e+04 9.008e-11
  1.99682    106.3 1.074e+04 9.275e-11
  2.01903    106.2 1.075e+04 1.002e-10
  2.05719    107.8 1.074e+04 1.082e-10
  2.08260    109.4 1.074e+04 1.181e-10
  2.10480    109.3 1.077e+04 1.452e-10
  2.14601    110.9 1.079e+04 1.672e-10
  2.19043    112.3 1.096e+04 2.494e-10
  2.23194    113.6 1.106e+04 2.901e-10
  2.25415    113.5 1.121e+04 3.484e-10
  2.27925    114.6 1.140e+04 3.772e-10
  2.31771    115.6 1.148e+04 3.764e-10
  2.33992    115.1 1.153e+04 3.734e-10
  2.36808    115.7 1.156e+04 3.534e-10
  2.40349    116.2 1.156e+04 2.991e-10
  2.42569    115.4 1.149e+04 2.678e-10
  2.45691    115.7 1.148e+04 2.286e-10
  2.48926    115.5 1.153e+04 2.265e-10
  2.51147    114.4 1.157e+04 2.605e-10
  2.54573    113.3 1.182e+04 3.361e-10
  2.56887    112.1 1.220e+04 5.290e-10
  2.57597    111.7 1.233e+04 5.895e-10
  2.59724    110.2 1.272e+04 8.693e-10
  2.63456    108.5 1.304e+04 1.091e-09
  2.66081    106.6 1.304e+04 1.086e-09
  2.68302    105.0 1.315e+04 1.242e-09
  2.72339    103.9 1.280e+04 9.401e-10
  2.74659    103.1 1.242e+04 6.497e-10
  2.76879    102.2 1.222e+04 4.972e-10
  2.81015    101.7 1.184e+04 4.147e-10
  2.83236    101.0 1.170e+04 3.347e-10
  2.85663    101.5 1.168e+04 3.367e-10
  2.89593    102.2 1.167e+04 3.608e-10
  2.91814    102.2 1.155e+04 2.917e-10
  2.94545    102.9 1.158e+04 3.266e-10
  2.98170    103.6 1.161e+04 3.669e-10
  3.00391    103.7 1.145e+04 2.738e-10
  3.03428    104.4 1.141e+04 2.830e-10
  3.06748    105.1 1.140e+04 2.745e-10
  3.08968    105.5 1.128e+04 2.059e-10
  3.12311    106.3 1.122e+04 1.797e-10
  3.15325    107.1 1.115e+04 1.494e-10
  3.17546    107.3 1.109e+04 1.184e-10
  3.21193    108.1 1.102e+04 1.008e-10
  3.23903    108.4 1.073e+04 7.931e-11
  3.26123    108.7 1.068e+04 8.524e-11
  3.30076    109.8 1.065e+04 8.638e-11
  3.32480    111.0 1.058e+04 9.062e-11
  3.34701    111.3 1.064e+04 1.122e-10
  3.38837    112.4 1.058e+04 1.219e-10
  3.41058    112.8 1.071e+04 1.499e-10
  3.43400    113.7 1.066e+04 1.612e-10
  3.47414    114.6 1.060e+04 1.762e-10
  3.49635    114.7 1.068e+04 1.938e-10
  3.52282    115.4 1.060e+04 2.093e-10
  3.55992    116.1 1.052e+04 2.234e-10
  3.58212    116.1 1.050e+04 2.287e-10
  3.61165    116.7 1.044e+04 2.253e-10
  3.64569    117.3 1.035e+04 2.144e-10
  3.66790    117.2 1.029e+04 1.817e-10
  3.70048    117.8 1.021e+04 1.534e-10
  3.73147    118.3 1.012e+04 1.317e-10
  3.75367    117.8 1.012e+04 9.153e-11
  3.78930    118.2 9.909e+03 8.067e-11
  3.81724    118.7 9.744e+03 7.976e-11
  3.83945    118.3 9.642e+03 7.680e-11
  3.87759    119.0 9.625e+03 7.807e-11
  3.89979    119.0 9.540e+03 7.651e-11
  3.90302    119.8 9.521e+03 8.128e-11
  3.92522    119.7 9.501e+03 8.738e-11
  3.96658    120.5 9.494e+03 9.916e-11
  3.98879    120.6 9.503e+03 1.139e-10
  4.01137    121.4 9.495e+03 1.188e-10
  4.05236    122.2 9.487e+03 1.172e-10
  4.07456    122.2 9.499e+03 1.192e-10
  4.10020    122.9 9.457e+03 1.030e-10
  4.13813    123.5 9.430e+03 8.008e-11
  4.16034    123.1 9.416e+03 7.485e-11
  4.18902    123.4 9.375e+03 5.347e-11
  4.22391    123.5 9.289e+03 3.939e-11
  4.24611    123.2 9.243e+03 4.058e-11
  4.27785    123.4 8.976e+03 3.837e-11
  4.30968    123.9 8.965e+03 3.838e-11
  4.33189    124.0 8.984e+03 4.398e-11
  4.36667    124.6 8.967e+03 4.525e-11
  4.39546    125.2 8.960e+03 4.984e-11
  4.41766    125.0 9.025e+03 5.564e-11
  4.45550    125.3 9.039e+03 6.191e-11
  4.48123    125.4 9.099e+03 7.110e-11
  4.50344    124.9 9.126e+03 7.465e-11
  4.54305    124.9 9.160e+03 8.532e-11
  4.56526    125.2 9.201e+03 9.206e-11
  4.56701    125.1 9.256e+03 1.041e-10
  4.58921    124.6 9.194e+03 1.036e-10
  4.63057    124.0 9.213e+03 1.093e-10
  4.65278    123.6 9.168e+03 1.098e-10
  4.67757    123.0 9.187e+03 1.171e-10
  4.71635    121.7 9.261e+03 1.466e-10
  4.73855    121.6 9.225e+03 1.443e-10
  4.76639    119.5 9.568e+03 2.393e-10
  4.80212    116.9 1.004e+04 4.057e-10
  4.82433    116.8 1.008e+04 4.152e-10
  4.85522    113.5 1.052e+04 5.481e-10
  4.88790    109.7 1.057e+04 5.435e-10
  4.91010    109.0 1.081e+04 6.609e-10
  4.94405    105.0 1.071e+04 6.064e-10
  4.97367    101.5 1.032e+04 4.389e-10
  4.99588    100.3 1.075e+04 6.357e-10
  5.03287     97.6 1.009e+04 3.899e-10
  5.05945     95.4 9.448e+03 2.424e-10
  5.08165     94.9 9.499e+03 2.593e-10
  5.12170     93.6 8.919e+03 1.675e-10
  5.14522     93.1 8.669e+03 1.295e-10
  5.16743     92.9 8.506e+03 9.607e-11
  5.20851     93.2 8.472e+03 7.187e-11
  5.22898     92.8 8.425e+03 6.200e-11
  5.23099     92.4 8.454e+03 4.368e-11
  5.25494     92.8 8.291e+03 4.052e-11
  5.29456     93.3 8.238e+03 4.075e-11
  5.31677     93.5 8.246e+03 4.061e-11
  5.34376     94.1 8.236e+03 4.249e-11
  5.38034     94.6 8.263e+03 4.920e-11
  5.40254     94.6 8.437e+03 5.457e-11
  5.43259     94.9 8.546e+03 7.227e-11
  5.46611     95.2 8.696e+03 1.005e-10
  5.48832     95.1 8.840e+03 1.224e-10
  5.52142     95.4 8.946e+03 1.509e-10
  5.55189     95.6 9.041e+03 1.771e-10
  5.57409     95.9 8.961e+03 1.466e-10
  5.61024     96.1 9.020e+03 1.467e-10
  5.63766     95.8 9.113e+03 1.471e-10
  5.65987     95.6 9.050e+03 9.651e-11
  5.69907     95.0 9.168e+03 1.032e-10
  5.72343     94.1 9.311e+03 1.270e-10
  5.74564     94.2 9.194e+03 1.046e-10
  5.78700     93.7 9.316e+03 1.498e-10
  5.80921     94.3 9.208e+03 1.215e-10
  5.83231     94.0 9.309e+03 1.572e-10
  5.87278     93.1 9.459e+03 1.822e-10
  5.89224     93.8 9.396e+03 1.319e-10
  5.89618     93.3 9.469e+03 1.309e-10
  5.92114     91.2 9.554e+03 1.542e-10
  5.95855     89.0 9.342e+03 1.752e-10
  5.98076     90.2 9.375e+03 1.714e-10
  6.00996     88.6 9.096e+03 1.841e-10
  6.04433     87.5 8.869e+03 1.716e-10
  6.06653     88.8 9.037e+03 1.970e-10
  6.09879     87.9 8.759e+03 1.608e-10
  6.13010     87.1 8.467e+03 1.257e-10
  6.15231     88.3 8.635e+03 1.463e-10
  6.18762     87.5 8.353e+03 1.177e-10
  6.21588     86.9 8.125e+03 1.125e-10
  6.23808     87.9 8.183e+03 1.163e-10
  6.27644     87.6 8.083e+03 1.138e-10
  6.30165     87.4 8.040e+03 1.117e-10
  6.32386     88.5 8.125e+03 1.187e-10
  6.36522     88.3 8.140e+03 1.196e-10
  6.40963     88.6 8.367e+03 1.470e-10
  6.45099     87.4 8.622e+03 1.916e-10
  6.47320     88.3 8.882e+03 2.544e-10
  6.49851     86.8 9.435e+03 4.121e-10
  6.53677     85.3 1.007e+04 6.584e-10
  6.55549     86.3 1.026e+04 6.979e-10
  6.56164     86.1 9.937e+03 5.624e-10
  6.58733     84.3 1.023e+04 5.808e-10
  6.62254     82.2 1.025e+04 5.620e-10
  6.64475     82.9 1.024e+04 5.314e-10
  6.67616     80.7 1.024e+04 5.086e-10
  6.70832     78.4 1.015e+04 4.793e-10
  6.73052     79.5 1.028e+04 5.295e-10
  6.76499     77.6 1.014e+04 4.955e-10
  6.79409     76.0 9.820e+03 3.762e-10
  6.81630     77.5 9.977e+03 4.384e-10
  6.85381     76.2 9.522e+03 2.515e-10
  6.87986     74.5 9.164e+03 1.617e-10
  6.90207     76.3 9.152e+03 1.442e-10
  6.94264     74.7 9.058e+03 1.379e-10
  6.96564     73.5 9.080e+03 1.655e-10
  6.98785     75.4 9.066e+03 1.389e-10
  7.02921     74.6 9.325e+03 2.107e-10
  7.05141     76.4 9.288e+03 1.740e-10
  7.07588     75.7 9.790e+03 3.009e-10
  7.11498     75.1 1.019e+04 4.574e-10
  7.13719     76.5 1.029e+04 4.156e-10
  7.15350     75.9 1.048e+04 5.302e-10
  7.16878     75.5 1.066e+04 6.021e-10
  7.17988     76.2 1.069e+04 5.820e-10
  7.19782     75.7 1.083e+04 6.152e-10
  7.21166     75.0 1.092e+04 6.249e-10
  7.21855     75.9 1.089e+04 5.800e-10
  7.22691     76.0 1.090e+04 5.700e-10
  7.24223     74.9 1.107e+04 6.014e-10
  7.25455     72.9 1.156e+04 7.051e-10
  7.26565     73.4 1.158e+04 6.263e-10
  7.28634     70.3 1.228e+04 9.642e-10
  7.29744     70.5 1.240e+04 8.849e-10
  7.30885     68.3 1.297e+04 1.750e-09
  7.34226     67.3 1.306e+04 1.979e-09
  7.37230     66.4 1.263e+04 1.496e-09
  7.39451     67.3 1.246e+04 1.223e-09
  7.43118     65.5 1.160e+04 4.282e-10
  7.45808     62.0 1.063e+04 2.273e-10
  7.48029     62.8 1.059e+04 2.185e-10
  7.52001     61.1 1.062e+04 2.561e-10
  7.54385     59.9 1.094e+04 4.052e-10
  7.55027     61.3 1.100e+04 3.554e-10
  7.55964     61.2 1.103e+04 3.490e-10
  7.57533     60.3 1.119e+04 5.091e-10
  7.58655     60.5 1.132e+04 7.448e-10
  7.59765     61.1 1.145e+04 8.152e-10
  7.61833     61.1 1.168e+04 9.468e-10
  7.62943     61.8 1.184e+04 1.043e-09
  7.64195     62.0 1.171e+04 9.391e-10
  7.66122     61.7 1.162e+04 8.630e-10
  7.67232     62.0 1.176e+04 9.432e-10
  7.69310     62.2 1.095e+04 4.849e-10
  7.71540     63.2 1.114e+04 5.734e-10
  7.74208     62.5 1.049e+04 2.693e-10
  7.77897     60.9 9.969e+03 1.373e-10
  7.80118     62.5 1.010e+04 1.695e-10
  7.83090     62.1 9.856e+03 1.460e-10
  7.86475     61.7 9.899e+03 1.576e-10
  7.88200     63.0 9.931e+03 1.686e-10
  7.89257     62.4 9.904e+03 1.570e-10
  7.91973     62.2 9.917e+03 1.835e-10
  7.95052     61.8 1.030e+04 2.348e-10
  7.97273     63.2 1.010e+04 2.228e-10
  8.00856     61.9 1.068e+04 2.843e-10
  8.03629     60.2 1.094e+04 3.791e-10
  8.05850     61.5 1.074e+04 3.363e-10
  8.09738     60.1 1.063e+04 4.117e-10
  8.12207     58.6 1.050e+04 3.967e-10
  8.14428     60.1 1.041e+04 4.054e-10
  8.18564     58.1 1.068e+04 4.154e-10
  8.20784     60.1 1.035e+04 4.026e-10
  8.21410     56.9 1.107e+04 4.964e-10
  8.22511     57.1 1.107e+04 4.737e-10
  8.23943     55.2 1.106e+04 5.392e-10
  8.25054     56.4 1.095e+04 5.142e-10
  8.26374     54.3 1.128e+04 6.626e-10
  8.28232     52.2 1.191e+04 7.696e-10
  8.29342     53.4 1.187e+04 7.746e-10
  8.30815     51.4 1.219e+04 9.992e-10
  8.32521     50.5 1.148e+04 1.025e-09
  8.33631     51.3 1.170e+04 1.109e-09
  8.35256     51.4 1.118e+04 1.001e-09
  8.36809     51.6 1.092e+04 7.229e-10
  8.37920     52.5 1.096e+04 8.411e-10
  8.39698     51.8 1.126e+04 4.852e-10
  8.41098     49.9 1.112e+04 3.387e-10
  8.42208     51.1 1.130e+04 3.914e-10
  8.44286     49.0 1.070e+04 2.836e-10
  8.46507     49.5 1.065e+04 2.967e-10
  8.49700     49.3 1.045e+04 3.241e-10
  8.52873     49.0 1.027e+04 3.389e-10
  8.54525     49.9 1.040e+04 4.051e-10
  8.55803     50.6 1.032e+04 3.487e-10
  8.58593     50.9 1.011e+04 3.267e-10
  8.61451     51.0 9.860e+03 2.499e-10
  8.63672     52.2 1.001e+04 2.720e-10
  8.67475     51.9 9.666e+03 2.000e-10
  8.70028     51.6 9.471e+03 1.704e-10
  8.72249     52.5 9.471e+03 1.746e-10
  8.76358     52.8 9.375e+03 1.684e-10
  8.78606     53.4 9.330e+03 1.725e-10
  8.80826     54.2 9.329e+03 1.857e-10
  8.84963     55.1 9.260e+03 1.925e-10
  8.87183     56.0 9.255e+03 2.059e-10
  8.89682     57.2 9.245e+03 1.975e-10
  8.93540     57.8 9.373e+03 1.748e-10
  8.95761     58.7 9.343e+03 1.737e-10
  8.98565     58.9 9.398e+03 1.706e-10
  9.02118     59.1 9.315e+03 1.965e-10
  9.04338     59.9 9.310e+03 1.966e-10
  9.07447     60.9 9.233e+03 2.179e-10
  9.10695     62.2 9.236e+03 2.028e-10
  9.12916     63.0 9.267e+03 2.174e-10
  9.16330     64.2 9.265e+03 1.752e-10
  9.19272     64.8 9.199e+03 1.383e-10
  9.20851     65.5 9.215e+03 1.467e-10
  9.22350     66.9 9.231e+03 1.463e-10
  9.25213     67.3 9.158e+03 1.203e-10
  9.27850     68.1 9.070e+03 1.206e-10
  9.30071     68.8 9.059e+03 1.176e-10
  9.34095     69.9 9.057e+03 1.248e-10
  9.36427     71.1 9.121e+03 1.345e-10
  9.38648     71.7 9.076e+03 1.309e-10
  9.42784     72.9 9.126e+03 1.409e-10
  9.45005     73.5 9.111e+03 1.415e-10
  9.47419     75.0 9.095e+03 1.432e-10
  9.51362     76.7 9.039e+03 1.344e-10
  9.53582     77.2 9.076e+03 1.466e-10
  9.56302     78.7 9.103e+03 1.363e-10
  9.59939     80.2 9.149e+03 1.368e-10
  9.62160     80.6 9.252e+03 1.640e-10
  9.65184     81.7 9.438e+03 1.907e-10
  9.68516     82.8 9.671e+03 2.736e-10
  9.70737     83.2 9.976e+03 3.695e-10
  9.74067     84.9 1.032e+04 5.452e-10
  9.77094     86.6 1.069e+04 6.510e-10
  9.79315     86.6 1.096e+04 7.283e-10
  9.82950     87.8 1.103e+04 7.401e-10
  9.85671     89.1 1.091e+04 6.850e-10
  9.87176     88.7 1.115e+04 7.800e-10
  9.88896     90.0 1.097e+04 7.486e-10
  9.91832     91.3 1.095e+04 7.274e-10
  9.94249     92.6 1.090e+04 6.733e-10
  9.96469     92.4 1.134e+04 9.103e-10
 10.00606     93.9 1.134e+04 8.847e-10
 10.02826     93.6 1.164e+04 9.759e-10
 10.05156     95.0 1.160e+04 8.959e-10
 10.09183     96.1 1.150e+04 8.495e-10
 10.11404     95.4 1.150e+04 7.537e-10
 10.14039     96.4 1.150e+04 7.636e-10
 10.17760     97.2 1.156e+04 8.200e-10
 10.19981     96.2 1.130e+04 5.509e-10
 10.22922     96.9 1.143e+04 6.839e-10
 10.26338     97.8 1.152e+04 8.532e-10
 10.28559     96.7 1.118e+04 7.436e-10
 10.31804     97.4 1.117e+04 7.805e-10
 10.34915     98.0 1.100e+04 7.147e-10
 10.37136     97.1 1.068e+04 6.594e-10
 10.40687     98.0 1.004e+04 4.105e-10
 10.43493     98.7 9.392e+03 2.163e-10
 10.45713     98.4 9.378e+03 2.161e-10
 10.49570     99.1 8.962e+03 1.176e-10
 10.52070     99.8 8.690e+03 7.718e-11
 10.53501    100.4 8.703e+03 8.301e-11
 10.55442    100.7 8.772e+03 8.547e-11
 10.58427    102.1 8.516e+03 7.838e-11
 10.60648    103.0 8.622e+03 8.855e-11
 10.62893    105.0 8.571e+03 8.746e-11
 10.67005    106.9 8.596e+03 9.250e-11
 10.69225    108.0 8.795e+03 1.232e-10
 10.71776    110.0 8.998e+03 1.459e-10
 10.75582    111.4 9.479e+03 2.202e-10
 10.77803    112.2 9.714e+03 2.632e-10
 10.79539    112.1 9.833e+03 2.881e-10
 10.80961    111.6 1.029e+04 4.407e-10
 10.82072    112.0 1.059e+04 5.277e-10
 10.83970    111.9 1.127e+04 1.009e-09
 10.85250    112.6 1.195e+04 1.835e-09
 10.86361    113.1 1.243e+04 2.213e-09
 10.87585    114.4 1.306e+04 3.308e-09
 10.88696    114.3 1.322e+04 3.520e-09
 10.89539    115.1 1.327e+04 3.525e-09
 10.90649    115.2 1.366e+04 3.713e-09
 10.92717    116.0 1.348e+04 3.274e-09
 10.93828    115.8 1.352e+04 3.265e-09
 10.95073    115.9 1.317e+04 2.463e-09
 10.97006    115.4 1.269e+04 1.771e-09
 10.98116    115.1 1.273e+04 1.831e-09
 10.99515    114.0 1.216e+04 1.481e-09
 11.01295    113.4 1.183e+04 1.432e-09
 11.02405    113.5 1.193e+04 1.464e-09
 11.03956    113.5 1.192e+04 1.479e-09
 11.05583    113.6 1.203e+04 1.566e-09
 11.06694    113.7 1.209e+04 1.563e-09
 11.08397    113.9 1.217e+04 1.634e-09
 11.09872    114.0 1.221e+04 1.635e-09
 11.10983    113.9 1.223e+04 1.560e-09
 11.12839    113.9 1.209e+04 1.473e-09
 11.14161    113.9 1.182e+04 1.326e-09
 11.15271    113.7 1.178e+04 1.251e-09
 11.17280    113.8 1.147e+04 1.102e-09
 11.18450    114.0 1.120e+04 9.833e-10
 11.19560    114.0 1.122e+04 9.437e-10
 11.20858    114.3 1.100e+04 8.793e-10
 11.21875    114.9 1.087e+04 8.257e-10
 11.22738    114.9 1.098e+04 8.300e-10
 11.23942    115.4 1.092e+04 8.286e-10
 11.25917    116.0 1.091e+04 8.395e-10
 11.27037    116.1 1.112e+04 8.288e-10
 11.29513    117.2 1.119e+04 9.102e-10
 11.33403    118.3 1.154e+04 1.160e-09
 11.35614    118.1 1.168e+04 1.200e-09
 11.38386    118.9 1.199e+04 1.375e-09
 11.41981    119.7 1.217e+04 1.501e-09
 11.44202    119.2 1.218e+04 1.403e-09
 11.47279    119.6 1.216e+04 1.392e-09
 11.50558    120.1 1.206e+04 1.330e-09
 11.52779    119.8 1.202e+04 1.155e-09
 11.56161    120.3 1.184e+04 1.055e-09
 11.59136    120.8 1.161e+04 9.747e-10
 11.61356    120.9 1.152e+04 7.980e-10
 11.65044    121.6 1.138e+04 7.848e-10
 11.67713    122.5 1.120e+04 7.473e-10
 11.69934    122.9 1.114e+04 6.121e-10
 11.73926    124.1 1.095e+04 5.785e-10
 11.76291    125.4 1.070e+04 4.842e-10
 11.78511    126.0 1.063e+04 3.857e-10
 11.82647    127.4 1.044e+04 2.930e-10
 11.84868    128.0 1.029e+04 2.191e-10
 11.86314    129.2 1.016e+04 1.536e-10
 11.88535    129.4 1.002e+04 1.270e-10
 11.91225    130.4 9.817e+03 9.220e-11
 11.93446    131.0 9.604e+03 8.971e-11
 11.96133    132.2 9.413e+03 8.379e-11
 11.99802    133.7 9.404e+03 8.472e-11
 12.02023    134.3 9.391e+03 8.513e-11
 12.05016    135.8 9.388e+03 9.389e-11
 12.08380    137.4 9.451e+03 1.224e-10
 12.10600    137.9 9.443e+03 1.239e-10
 12.13898    139.5 9.584e+03 1.751e-10
 12.16957    141.0 9.838e+03 2.558e-10
 12.19178    141.2 9.764e+03 2.421e-10
 12.22781    142.6 1.001e+04 3.288e-10
 12.25535    143.9 1.026e+04 4.240e-10
 12.27755    144.0 1.003e+04 3.376e-10
 12.31664    145.2 1.020e+04 3.885e-10
 12.34112    146.4 1.036e+04 4.320e-10
 12.36333    146.3 9.924e+03 2.770e-10
 12.40469    147.3 9.992e+03 2.919e-10
 12.42690    147.1 9.567e+03 2.068e-10
 12.44988    148.1 9.663e+03 2.413e-10
 12.49046    149.3 9.920e+03 3.052e-10
 12.51267    149.1 9.800e+03 2.900e-10
 12.52860    150.0 1.005e+04 3.561e-10
 12.55081    151.1 9.884e+03 3.129e-10
 12.57191    151.3 9.955e+03 3.391e-10
 12.58715    151.6 1.005e+04 3.730e-10
 12.59825    151.6 1.005e+04 3.740e-10
 12.61623    151.9 1.019e+04 4.283e-10
 12.63003    152.2 1.036e+04 4.895e-10
 12.64114    152.1 1.044e+04 5.172e-10
 12.66064    152.2 1.058e+04 5.819e-10
 12.67292    152.4 1.071e+04 6.446e-10
 12.68402    152.2 1.085e+04 7.170e-10
 12.70470    152.3 1.098e+04 7.958e-10
