# Columns:
#   distance along LOS (in CHIMPs)
#   peculiar velocity  (in km/s)
#   temperature (K)
#   HI number density
# pos=(101.791,230.398,234.493), angles=(1.49198,2.87856)
  0.00344    100.3 1.459e+04 3.226e-09
  0.01039     97.5 1.428e+04 3.227e-09
  0.02054     96.9 1.405e+04 2.914e-09
  0.03731     95.3 1.379e+04 2.852e-09
  0.05469     94.2 1.357e+04 2.604e-09
  0.06484     93.9 1.337e+04 2.323e-09
  0.07789     92.7 1.288e+04 1.670e-09
  0.09818     90.7 1.228e+04 1.126e-09
  0.11846     88.1 1.158e+04 7.732e-10
  0.13295     85.6 1.091e+04 5.761e-10
  0.14309     84.9 1.029e+04 4.095e-10
  0.15904     83.6 1.005e+04 3.708e-10
  0.17933     82.5 1.004e+04 3.721e-10
  0.19962     81.9 1.002e+04 3.744e-10
  0.21120     81.2 1.000e+04 3.737e-10
  0.23159     81.0 9.859e+03 3.086e-10
  0.27083     80.4 9.686e+03 2.946e-10
  0.31141     79.9 9.413e+03 2.467e-10
  0.34762     79.4 9.080e+03 1.833e-10
  0.36791     80.1 9.018e+03 1.763e-10
  0.39257     79.8 8.858e+03 1.542e-10
  0.43315     79.8 8.874e+03 1.560e-10
  0.47373     79.8 9.057e+03 1.824e-10
  0.50203     79.4 9.201e+03 2.145e-10
  0.51204     78.3 9.237e+03 2.376e-10
  0.52422     78.6 9.425e+03 3.053e-10
  0.54455     78.4 9.613e+03 4.010e-10
  0.56484     77.7 1.026e+04 6.997e-10
  0.58219     75.0 1.282e+04 1.721e-09
  0.59233     75.3 1.247e+04 1.383e-09
  0.60542     71.6 1.520e+04 3.315e-09
  0.62059     68.9 1.683e+04 5.856e-09
  0.62629     68.3 1.766e+04 8.789e-09
  0.63047     68.4 1.754e+04 8.406e-09
  0.63487     68.7 1.732e+04 7.760e-09
  0.64595     67.5 1.842e+04 1.167e-08
  0.66044     65.7 1.843e+04 1.153e-08
  0.67059     66.9 1.828e+04 1.160e-08
  0.68658     65.5 1.790e+04 9.628e-09
  0.70687     63.9 1.676e+04 5.385e-09
  0.72716     60.6 1.486e+04 2.322e-09
  0.73870     56.0 1.218e+04 1.039e-09
  0.74884     59.0 1.310e+04 1.265e-09
  0.75785     55.9 1.146e+04 7.638e-10
  0.76800     56.2 1.147e+04 7.756e-10
  0.79676     54.3 1.055e+04 5.823e-10
  0.81715     55.5 1.007e+04 4.799e-10
  0.83895     55.0 9.234e+03 3.045e-10
  0.87953     55.2 8.919e+03 2.349e-10
  0.92011     55.2 8.918e+03 2.027e-10
  0.95337     54.7 9.159e+03 2.171e-10
  0.97366     55.7 8.998e+03 2.186e-10
  0.99367     54.6 9.420e+03 2.791e-10
  1.01387     53.2 9.856e+03 3.735e-10
  1.03143     52.6 1.010e+04 5.243e-10
  1.05172     53.7 1.026e+04 6.392e-10
  1.07209     53.7 1.054e+04 7.724e-10
  1.09238     53.9 1.071e+04 8.604e-10
  1.10978     53.7 1.072e+04 8.310e-10
  1.13017     55.3 1.008e+04 5.573e-10
  1.16359     54.9 9.742e+03 4.262e-10
  1.20417     54.1 9.295e+03 2.768e-10
  1.24475     53.2 8.823e+03 1.861e-10
  1.26639     52.7 8.644e+03 1.603e-10
  1.28668     53.9 8.725e+03 1.782e-10
  1.32591     53.9 8.819e+03 1.943e-10
  1.36649     54.2 8.914e+03 2.208e-10
  1.40261     54.4 8.906e+03 2.253e-10
  1.42290     55.3 9.045e+03 2.646e-10
  1.44765     55.5 9.010e+03 2.582e-10
  1.48522     55.8 8.860e+03 2.295e-10
  1.50551     56.1 8.880e+03 2.317e-10
  1.52881     56.5 8.670e+03 1.781e-10
  1.55912     56.6 8.534e+03 1.387e-10
  1.57941     57.0 8.490e+03 1.180e-10
  1.60997     56.8 8.486e+03 1.157e-10
  1.65055     56.4 8.601e+03 1.260e-10
  1.69113     55.2 9.076e+03 1.840e-10
  1.71563     53.4 9.657e+03 2.867e-10
  1.72567     54.1 9.521e+03 2.625e-10
  1.74094     52.9 9.891e+03 3.511e-10
  1.75108     53.2 9.894e+03 3.530e-10
  1.76195     52.1 1.047e+04 5.441e-10
  1.78224     51.1 1.113e+04 8.454e-10
  1.79369     49.9 1.184e+04 1.242e-09
  1.80383     49.8 1.203e+04 1.341e-09
  1.82282     48.2 1.275e+04 1.847e-09
  1.84311     46.1 1.341e+04 2.297e-09
  1.86180     43.4 1.373e+04 2.391e-09
  1.87194     42.6 1.394e+04 2.685e-09
  1.88369     39.9 1.382e+04 2.563e-09
  1.90398     37.1 1.336e+04 2.219e-09
  1.92427     34.5 1.274e+04 1.761e-09
  1.94005     32.3 1.210e+04 1.376e-09
  1.95020     32.6 1.182e+04 1.288e-09
  1.96485     30.5 1.123e+04 9.541e-10
  1.98514     29.3 1.077e+04 7.755e-10
  1.99685     27.8 1.048e+04 5.826e-10
  2.00983     27.9 1.048e+04 5.600e-10
  2.02865     28.6 1.023e+04 5.709e-10
  2.05635     26.8 9.940e+03 4.498e-10
  2.09693     25.0 1.004e+04 3.704e-10
  2.13751     22.9 1.014e+04 3.680e-10
  2.16487     20.3 1.026e+04 4.190e-10
  2.18516     21.8 1.077e+04 6.588e-10
  2.21867     19.8 1.066e+04 6.509e-10
  2.25925     18.4 1.044e+04 5.901e-10
  2.29983     16.8 1.034e+04 5.016e-10
  2.32138     14.2 1.053e+04 5.176e-10
  2.34167     14.9 1.057e+04 5.062e-10
  2.38099     12.3 1.101e+04 7.614e-10
  2.42157     11.1 1.092e+04 7.854e-10
  2.45760     11.4 1.060e+04 5.924e-10
  2.47789     12.2 1.086e+04 7.736e-10
  2.48859     11.8 1.039e+04 4.708e-10
  2.50888     13.0 1.040e+04 5.091e-10
  2.54331     11.6 9.972e+03 2.689e-10
  2.58389      9.7 9.903e+03 2.234e-10
  2.61401      8.5 9.833e+03 2.302e-10
  2.62405      9.9 9.642e+03 2.118e-10
  2.63442     10.3 9.624e+03 2.158e-10
  2.65471      8.3 1.031e+04 3.093e-10
  2.67500      6.1 1.125e+04 5.897e-10
  2.69216      4.2 1.246e+04 1.386e-09
  2.70231      6.0 1.146e+04 8.025e-10
  2.71558      4.4 1.285e+04 1.967e-09
  2.73417      3.5 1.469e+04 4.132e-09
  2.74431      4.1 1.448e+04 3.778e-09
  2.75616      3.2 1.607e+04 6.569e-09
  2.77042      2.6 1.713e+04 8.891e-09
  2.78056      2.8 1.670e+04 8.335e-09
  2.79674      1.7 1.773e+04 9.813e-09
  2.81703     -0.8 1.815e+04 9.507e-09
  2.83732     -4.2 1.722e+04 6.849e-09
  2.84867     -7.8 1.555e+04 4.639e-09
  2.85882     -6.0 1.616e+04 5.851e-09
  2.87790     -8.3 1.459e+04 3.945e-09
  2.89819     -9.3 1.350e+04 2.697e-09
  2.91678     -9.8 1.277e+04 1.855e-09
  2.92693     -9.4 1.284e+04 1.904e-09
  2.94901    -10.7 1.225e+04 1.357e-09
  2.98014    -12.5 1.162e+04 9.760e-10
  3.00043    -14.0 1.212e+04 1.295e-09
  3.03027    -14.3 1.185e+04 1.159e-09
  3.06060    -14.4 1.147e+04 1.020e-09
  3.07329    -13.1 1.160e+04 1.040e-09
  3.08344    -12.7 1.146e+04 9.250e-10
  3.11133    -13.2 1.101e+04 6.792e-10
  3.15201    -12.4 1.037e+04 3.965e-10
  3.19259    -11.7 9.897e+03 2.220e-10
  3.21985    -11.3 9.649e+03 1.311e-10
  3.24014    -11.9 9.248e+03 1.004e-10
  3.27375    -11.2 9.129e+03 9.530e-11
  3.31433     -9.8 9.164e+03 1.009e-10
  3.35491     -8.0 9.104e+03 1.074e-10
  3.37636     -6.2 9.131e+03 9.990e-11
  3.39665     -5.3 9.081e+03 9.636e-11
  3.43607     -3.9 9.208e+03 7.878e-11
  3.47168     -2.9 9.247e+03 8.095e-11
  3.49197     -3.6 9.232e+03 8.011e-11
  3.51258     -2.5 9.197e+03 9.525e-11
  3.53287     -1.5 9.144e+03 9.245e-11
  3.55781      0.3 9.195e+03 1.301e-10
  3.59839      2.4 9.406e+03 1.673e-10
  3.63897      4.1 9.652e+03 2.019e-10
  3.66909      5.7 9.916e+03 2.537e-10
  3.68938      6.6 9.784e+03 2.106e-10
  3.72013      7.5 1.016e+04 2.518e-10
  3.76071      7.5 1.077e+04 3.465e-10
  3.79104      6.1 1.107e+04 5.327e-10
  3.81124      6.2 1.142e+04 7.031e-10
  3.82541      6.3 1.185e+04 1.061e-09
  3.83555      6.4 1.188e+04 1.057e-09
  3.85182      6.5 1.244e+04 1.315e-09
  3.87211      6.8 1.267e+04 1.614e-09
  3.89240      6.9 1.300e+04 1.579e-09
  3.90366      6.6 1.278e+04 1.576e-09
  3.91381      6.9 1.279e+04 1.596e-09
  3.93297      6.8 1.295e+04 1.391e-09
  3.96173      5.4 1.274e+04 1.357e-09
  3.98173      6.3 1.260e+04 1.261e-09
  3.98351      5.7 1.199e+04 9.970e-10
  4.00419      5.2 1.154e+04 5.425e-10
  4.04476      3.6 1.082e+04 3.881e-10
  4.08534      3.2 1.058e+04 3.533e-10
  4.11833      3.4 1.051e+04 3.849e-10
  4.13862      4.0 1.038e+04 3.508e-10
  4.16650      4.1 1.058e+04 4.201e-10
  4.20708      3.0 1.121e+04 5.746e-10
  4.24766      1.6 1.174e+04 9.486e-10
  4.27484      0.8 1.244e+04 1.380e-09
  4.29513      1.9 1.223e+04 1.189e-09
  4.31858     -0.8 1.248e+04 1.118e-09
  4.33877     -3.1 1.287e+04 1.302e-09
  4.35290     -5.5 1.315e+04 1.598e-09
  4.36305     -5.2 1.306e+04 1.446e-09
  4.37935     -6.7 1.278e+04 1.755e-09
  4.39964     -7.6 1.241e+04 1.818e-09
  4.41993     -7.6 1.227e+04 1.779e-09
  4.43116     -7.4 1.206e+04 1.337e-09
  4.44130     -6.8 1.197e+04 1.443e-09
  4.46051     -7.0 1.180e+04 9.933e-10
  4.47486     -8.7 1.102e+04 6.445e-10
  4.48501     -8.0 1.111e+04 6.679e-10
  4.49927     -8.6 1.066e+04 5.175e-10
  4.50941     -7.3 1.088e+04 5.882e-10
  4.53163     -8.6 1.063e+04 4.360e-10
  4.56757    -10.1 1.044e+04 3.554e-10
  4.58786     -7.2 1.026e+04 3.884e-10
  4.61288     -8.0 1.121e+04 4.625e-10
  4.65346    -11.1 1.312e+04 1.064e-09
  4.68380    -12.4 1.359e+04 2.157e-09
  4.70399    -12.1 1.397e+04 3.374e-09
  4.72063    -11.2 1.431e+04 4.149e-09
  4.73038    -11.0 1.426e+04 3.860e-09
  4.73403     -9.7 1.434e+04 3.606e-09
  4.74457     -9.2 1.465e+04 4.286e-09
  4.76486     -8.8 1.479e+04 4.391e-09
  4.78515     -9.2 1.548e+04 3.466e-09
  4.80214    -13.9 1.572e+04 2.231e-09
  4.81229    -11.6 1.677e+04 4.519e-09
  4.82573    -15.8 1.640e+04 3.555e-09
  4.84602    -18.5 1.528e+04 3.021e-09
  4.86631    -20.9 1.430e+04 2.697e-09
  4.88040    -24.9 1.681e+04 3.838e-09
  4.89054    -21.3 1.530e+04 3.989e-09
  4.90689    -27.5 2.075e+04 6.131e-09
  4.91948    -34.9 2.401e+04 1.349e-08
  4.92450    -33.9 2.465e+04 1.026e-08
  4.93216    -38.5 2.424e+04 2.228e-08
  4.94230    -41.9 2.282e+04 5.202e-08
  4.95245    -43.5 2.178e+04 1.203e-07
  4.95856    -44.2 2.172e+04 2.191e-07
  4.96363    -44.9 2.155e+04 2.792e-07
  4.97138    -46.1 2.167e+04 4.121e-07
  4.97645    -47.7 2.148e+04 4.384e-07
  4.98288    -50.3 2.162e+04 4.597e-07
  4.99261    -53.9 2.291e+04 2.889e-07
  4.99768    -54.1 2.217e+04 4.254e-07
  5.00317    -58.8 2.409e+04 1.450e-07
  5.01332    -64.7 2.509e+04 3.724e-08
  5.02346    -70.1 2.147e+04 1.314e-08
  5.03174    -73.3 1.773e+04 8.112e-09
  5.03681    -72.3 1.892e+04 1.030e-08
  5.04375    -74.2 1.679e+04 7.318e-09
  5.05390    -75.2 1.631e+04 5.851e-09
  5.06404    -75.9 1.594e+04 5.104e-09
  5.07087    -76.5 1.561e+04 4.800e-09
  5.07594    -76.6 1.561e+04 4.944e-09
  5.08945    -77.2 1.539e+04 4.707e-09
  5.10502    -78.1 1.493e+04 4.103e-09
  5.11516    -78.0 1.505e+04 4.311e-09
  5.13008    -78.9 1.460e+04 3.839e-09
  5.15037    -79.4 1.414e+04 3.236e-09
  5.17066    -79.7 1.364e+04 2.563e-09
  5.18327    -80.1 1.310e+04 1.931e-09
  5.19342    -79.8 1.335e+04 2.237e-09
  5.21124    -80.2 1.278e+04 1.666e-09
  5.22232    -80.6 1.215e+04 1.198e-09
  5.23247    -80.9 1.222e+04 1.261e-09
  5.25138    -81.1 1.159e+04 8.817e-10
  5.26153    -80.9 1.171e+04 9.456e-10
  5.27211    -81.0 1.116e+04 6.629e-10
  5.29240    -81.1 1.074e+04 4.627e-10
  5.31269    -81.3 1.053e+04 3.566e-10
  5.32974    -81.7 1.040e+04 2.963e-10
  5.35012    -81.2 1.045e+04 3.045e-10
  5.38390    -82.0 1.025e+04 2.470e-10
  5.42448    -82.7 1.006e+04 2.152e-10
  5.45814    -83.2 1.001e+04 2.097e-10
  5.47843    -84.0 1.020e+04 2.435e-10
  5.48634    -84.2 1.010e+04 2.521e-10
  5.50663    -84.0 1.028e+04 3.080e-10
  5.54622    -84.0 1.018e+04 3.107e-10
  5.58680    -83.7 1.015e+04 3.112e-10
  5.62256    -83.4 1.015e+04 3.141e-10
  5.64285    -83.7 1.022e+04 3.049e-10
  5.66796    -83.5 1.026e+04 3.183e-10
  5.70854    -83.2 1.032e+04 3.445e-10
  5.74912    -82.8 1.038e+04 3.819e-10
  5.77898    -82.6 1.039e+04 3.970e-10
  5.78902    -83.0 1.042e+04 4.184e-10
  5.79965    -82.9 1.046e+04 4.483e-10
  5.81994    -82.8 1.055e+04 4.925e-10
  5.84023    -82.9 1.068e+04 5.392e-10
  5.85713    -83.1 1.084e+04 6.106e-10
  5.86728    -83.5 1.093e+04 6.119e-10
  5.88081    -83.9 1.116e+04 6.905e-10
  5.90110    -84.3 1.141e+04 7.951e-10
  5.92139    -84.9 1.167e+04 9.212e-10
  5.93539    -85.6 1.192e+04 1.060e-09
  5.94553    -86.1 1.189e+04 1.049e-09
  5.95964    -86.7 1.204e+04 1.147e-09
  5.96978    -86.3 1.188e+04 1.052e-09
  5.98226    -86.8 1.200e+04 1.129e-09
  6.00255    -87.6 1.204e+04 1.146e-09
  6.01364    -88.4 1.193e+04 1.107e-09
  6.02379    -88.4 1.153e+04 8.895e-10
  6.04313    -89.3 1.135e+04 7.731e-10
  6.06342    -90.2 1.118e+04 6.740e-10
  6.08175    -91.1 1.102e+04 6.000e-10
  6.09200    -90.2 1.074e+04 4.998e-10
  6.11434    -91.0 1.045e+04 4.060e-10
  6.15492    -91.6 1.022e+04 3.431e-10
  6.19550    -91.7 1.005e+04 3.124e-10
  6.22831    -91.4 9.964e+03 2.985e-10
  6.24860    -90.0 9.756e+03 2.479e-10
  6.27666    -89.5 9.861e+03 2.813e-10
  6.31724    -88.9 9.980e+03 3.112e-10
  6.35782    -88.4 1.013e+04 3.369e-10
  6.38482    -88.1 1.037e+04 3.731e-10
  6.40511    -86.7 1.059e+04 4.758e-10
  6.43898    -86.9 1.097e+04 5.530e-10
  6.46152    -87.7 1.134e+04 6.684e-10
  6.48181    -85.9 1.162e+04 8.518e-10
  6.52014    -87.2 1.186e+04 9.810e-10
  6.54133    -88.9 1.186e+04 9.998e-10
  6.56162    -88.1 1.218e+04 1.135e-09
  6.60130    -89.7 1.191e+04 1.040e-09
  6.64188    -90.6 1.150e+04 8.484e-10
  6.67755    -91.2 1.120e+04 7.095e-10
  6.69784    -90.9 1.130e+04 7.344e-10
  6.70719    -91.5 1.106e+04 6.561e-10
  6.71724    -91.3 1.118e+04 7.121e-10
  6.73299    -91.4 1.116e+04 7.042e-10
  6.75328    -91.6 1.114e+04 6.986e-10
  6.76576    -91.8 1.115e+04 7.013e-10
  6.77590    -91.6 1.126e+04 7.413e-10
  6.79386    -91.8 1.127e+04 7.527e-10
  6.81415    -91.9 1.127e+04 7.546e-10
  6.83387    -92.1 1.123e+04 7.428e-10
  6.84401    -91.9 1.147e+04 8.380e-10
  6.85473    -92.2 1.145e+04 8.366e-10
  6.87502    -92.6 1.138e+04 8.060e-10
  6.89531    -92.8 1.132e+04 7.677e-10
  6.92584    -93.4 1.117e+04 6.957e-10
  6.95306    -93.9 1.073e+04 5.113e-10
  6.97335    -93.8 1.078e+04 4.988e-10
  6.99057    -94.5 1.052e+04 3.980e-10
  7.01086    -94.2 1.109e+04 6.283e-10
  7.04768    -94.6 1.088e+04 5.313e-10
  7.08826    -94.7 1.075e+04 4.746e-10
  7.12679    -94.6 1.069e+04 4.425e-10
  7.14708    -94.0 1.094e+04 5.674e-10
  7.16942    -93.6 1.077e+04 4.912e-10
  7.21000    -93.0 1.076e+04 4.745e-10
  7.25058    -92.5 1.087e+04 4.950e-10
  7.28330    -92.2 1.127e+04 6.064e-10
  7.30359    -91.5 1.110e+04 5.687e-10
  7.33174    -91.1 1.170e+04 7.885e-10
  7.37232    -90.5 1.227e+04 1.090e-09
  7.41290    -89.9 1.275e+04 1.388e-09
  7.43981    -89.2 1.303e+04 1.560e-09
  7.45123    -88.9 1.325e+04 1.769e-09
  7.46490    -89.9 1.300e+04 1.551e-09
  7.48381    -89.0 1.319e+04 1.691e-09
  7.50401    -88.5 1.330e+04 1.784e-09
  7.51787    -87.6 1.352e+04 1.974e-09
  7.52802    -87.6 1.353e+04 2.008e-09
  7.54459    -86.8 1.387e+04 2.235e-09
  7.56488    -86.6 1.432e+04 2.569e-09
  7.58517    -86.7 1.491e+04 3.142e-09
  7.59613    -87.2 1.578e+04 4.262e-09
  7.60627    -87.0 1.549e+04 3.655e-09
  7.62575    -87.5 1.655e+04 5.200e-09
  7.64604    -87.7 1.765e+04 7.700e-09
  7.66424    -87.8 1.854e+04 1.072e-08
  7.67438    -88.5 1.745e+04 6.808e-09
  7.68662    -88.9 1.781e+04 8.286e-09
  7.70033    -89.5 1.788e+04 8.710e-09
  7.71047    -89.5 1.787e+04 8.728e-09
  7.72719    -90.8 1.795e+04 8.428e-09
  7.74249    -93.6 1.851e+04 7.419e-09
  7.75264    -93.4 1.695e+04 5.818e-09
  7.76777    -96.7 1.747e+04 5.666e-09
  7.78806   -101.3 1.896e+04 6.214e-09
  7.80835   -105.8 1.979e+04 8.414e-09
  7.82075   -109.4 1.982e+04 1.106e-08
  7.83089   -105.9 1.941e+04 9.344e-09
  7.84893   -109.0 1.951e+04 1.128e-08
  7.86922   -111.6 1.937e+04 1.212e-08
  7.88886   -113.7 1.893e+04 1.139e-08
  7.89900   -111.2 1.940e+04 1.284e-08
  7.90980   -113.4 1.905e+04 1.200e-08
  7.93009   -115.0 1.836e+04 9.701e-09
  7.94610   -116.0 1.723e+04 6.469e-09
  7.95624   -116.4 1.567e+04 3.433e-09
  7.96711   -116.8 1.427e+04 2.206e-09
  7.97726   -115.2 1.597e+04 3.950e-09
  7.99096   -115.4 1.442e+04 2.362e-09
  8.01125   -115.3 1.281e+04 1.362e-09
  8.03154   -115.1 1.182e+04 8.864e-10
  8.04537   -114.6 1.111e+04 6.105e-10
  8.05551   -113.8 1.223e+04 1.022e-09
  8.07212   -113.4 1.147e+04 7.271e-10
  8.09241   -112.7 1.092e+04 5.510e-10
  8.11270   -112.0 1.058e+04 4.464e-10
  8.12362   -111.2 1.040e+04 3.814e-10
  8.13377   -110.9 1.102e+04 6.118e-10
  8.15328   -110.1 1.076e+04 5.279e-10
  8.17357   -109.4 1.058e+04 4.667e-10
  8.19173   -108.6 1.046e+04 4.251e-10
  8.19988   -108.2 1.112e+04 6.923e-10
  8.20201   -107.7 1.075e+04 5.252e-10
  8.21415   -107.0 1.060e+04 4.675e-10
  8.23444   -106.4 1.048e+04 4.248e-10
  8.25473   -105.8 1.038e+04 3.915e-10
  8.26999   -105.2 1.031e+04 3.687e-10
  8.28013   -105.0 1.070e+04 5.173e-10
  8.29531   -104.5 1.056e+04 4.736e-10
  8.31560   -104.0 1.046e+04 4.418e-10
  8.33589   -103.3 1.039e+04 4.153e-10
  8.34824   -102.7 1.033e+04 3.933e-10
  8.35839   -102.7 1.068e+04 5.390e-10
  8.37647   -102.0 1.056e+04 4.902e-10
  8.39676   -101.3 1.045e+04 4.501e-10
  8.41635   -100.6 1.037e+04 4.201e-10
  8.42650   -100.5 1.066e+04 5.296e-10
  8.43734    -99.8 1.053e+04 4.803e-10
  8.44779    -99.0 1.049e+04 4.558e-10
  8.45793    -98.6 1.029e+04 4.026e-10
  8.47792    -97.9 1.030e+04 3.968e-10
  8.49461    -97.1 1.042e+04 4.082e-10
  8.51499    -96.6 1.042e+04 3.915e-10
  8.54913    -95.2 1.045e+04 3.882e-10
  8.58971    -93.8 1.064e+04 4.256e-10
  8.63029    -92.8 1.105e+04 5.594e-10
  8.65131    -91.9 1.137e+04 7.349e-10
  8.67160    -90.4 1.113e+04 5.874e-10
  8.71145    -89.3 1.147e+04 7.918e-10
  8.75203    -88.0 1.161e+04 9.104e-10
  8.78753    -86.7 1.157e+04 9.079e-10
  8.80772    -85.8 1.179e+04 1.027e-09
  8.82285    -85.4 1.175e+04 1.035e-09
  8.84314    -84.8 1.160e+04 1.029e-09
  8.86343    -84.0 1.129e+04 9.546e-10
  8.87574    -82.9 1.094e+04 8.046e-10
  8.88588    -82.5 1.128e+04 9.855e-10
  8.90401    -81.3 1.087e+04 7.752e-10
  8.92430    -79.9 1.047e+04 5.685e-10
  8.93943    -78.7 1.001e+04 3.536e-10
  8.94883    -78.4 1.032e+04 5.262e-10
  8.95399    -77.9 1.048e+04 6.029e-10
  8.96488    -76.5 1.017e+04 4.469e-10
  8.99541    -74.8 1.003e+04 3.644e-10
  9.03609    -73.5 9.826e+03 2.887e-10
  9.07667    -71.3 9.499e+03 2.233e-10
  9.10055    -68.7 9.345e+03 1.962e-10
  9.12084    -67.6 9.392e+03 2.044e-10
  9.15783    -64.8 9.339e+03 1.938e-10
  9.19841    -62.0 9.367e+03 1.935e-10
  9.23677    -59.5 9.542e+03 2.009e-10
  9.25706    -57.7 9.509e+03 2.057e-10
  9.27957    -55.0 9.812e+03 2.258e-10
  9.32015    -52.6 1.117e+04 3.044e-10
  9.36073    -50.8 1.294e+04 6.022e-10
  9.39107    -48.2 1.352e+04 8.056e-10
  9.40323    -47.7 1.385e+04 1.065e-09
  9.41338    -45.9 1.316e+04 6.810e-10
  9.43087    -45.2 1.413e+04 1.333e-09
  9.44102    -43.9 1.376e+04 1.048e-09
  9.45184    -43.2 1.484e+04 2.008e-09
  9.47134    -42.4 1.571e+04 3.399e-09
  9.48149    -40.9 1.561e+04 2.498e-09
  9.49242    -40.1 1.648e+04 4.361e-09
  9.51271    -39.6 1.749e+04 6.470e-09
  9.53300    -39.6 1.869e+04 8.715e-09
  9.54960    -40.6 2.024e+04 1.000e-08
  9.55974    -37.7 1.998e+04 1.115e-08
  9.57358    -38.9 2.144e+04 1.219e-08
  9.58867    -41.3 2.186e+04 1.108e-08
  9.59370    -38.6 2.202e+04 1.252e-08
  9.59884    -39.6 2.246e+04 1.268e-08
  9.60899    -41.9 2.256e+04 1.217e-08
  9.61913    -44.6 2.217e+04 1.070e-08
  9.62775    -48.0 1.987e+04 8.363e-09
  9.63283    -45.9 2.189e+04 9.941e-09
  9.63942    -49.5 1.922e+04 7.577e-09
  9.64957    -52.3 1.734e+04 5.986e-09
  9.65971    -54.0 1.683e+04 5.197e-09
  9.66688    -55.3 1.674e+04 4.816e-09
  9.67195    -55.8 1.830e+04 6.128e-09
  9.68000    -57.4 1.841e+04 5.975e-09
  9.68669    -59.2 1.861e+04 5.708e-09
  9.69176    -56.3 1.790e+04 5.249e-09
  9.70029    -58.0 1.799e+04 4.901e-09
  9.70601    -60.0 1.808e+04 4.627e-09
  9.71108    -62.4 2.200e+04 8.987e-09
  9.72058    -65.5 2.239e+04 9.183e-09
  9.73073    -69.2 2.301e+04 9.865e-09
  9.74006    -73.3 2.351e+04 1.101e-08
  9.74514    -76.1 2.534e+04 2.644e-08
  9.75102    -79.1 2.507e+04 2.665e-08
  9.76116    -81.7 2.464e+04 2.623e-08
  9.77131    -84.0 2.417e+04 2.503e-08
  9.77919    -86.0 2.360e+04 2.288e-08
  9.78426    -86.6 2.434e+04 2.943e-08
  9.79160    -88.8 2.376e+04 2.257e-08
  9.80174    -90.9 2.268e+04 1.619e-08
  9.80958    -92.7 2.125e+04 1.149e-08
  9.81465    -90.6 2.151e+04 1.300e-08
  9.81832    -92.4 2.048e+04 9.633e-09
  9.82339    -93.1 2.056e+04 9.645e-09
  9.83218    -94.8 1.963e+04 7.441e-09
  9.84232    -96.2 1.878e+04 5.929e-09
  9.85242    -98.2 1.776e+04 4.513e-09
  9.86262    -99.6 1.730e+04 4.273e-09
  9.87793   -103.7 1.442e+04 2.531e-09
