# Columns:
#   distance along LOS (in CHIMPs)
#   peculiar velocity  (in km/s)
#   temperature (K)
#   HI number density
# pos=(139.744,239.098,117.706), angles=(1.43215,1.57394)
  0.01215     -8.4 1.112e+04 5.783e-10
  0.03706     -8.2 1.102e+04 4.854e-10
  0.05679     -7.7 1.102e+04 4.973e-10
  0.08347     -7.6 1.077e+04 3.407e-10
  0.12291     -8.0 1.058e+04 2.603e-10
  0.16235     -8.2 1.052e+04 2.430e-10
  0.20179     -8.1 1.063e+04 2.535e-10
  0.24123     -7.9 1.072e+04 2.903e-10
  0.28067     -7.5 1.076e+04 3.232e-10
  0.31643     -7.2 1.096e+04 3.337e-10
  0.33615     -5.5 1.100e+04 3.642e-10
  0.35956     -5.1 1.113e+04 3.630e-10
  0.39900     -4.7 1.136e+04 3.800e-10
  0.42848     -5.6 1.150e+04 3.864e-10
  0.44810     -5.7 1.154e+04 3.970e-10
  0.46577     -5.6 1.178e+04 4.576e-10
  0.47563     -5.0 1.186e+04 4.836e-10
  0.48755     -5.2 1.197e+04 5.312e-10
  0.50727     -5.1 1.213e+04 5.949e-10
  0.52699     -5.1 1.217e+04 6.399e-10
  0.54671     -5.0 1.225e+04 6.862e-10
  0.56643     -5.0 1.230e+04 7.093e-10
  0.58615     -4.4 1.249e+04 7.369e-10
  0.60546     -4.4 1.251e+04 7.403e-10
  0.61541     -3.3 1.249e+04 7.475e-10
  0.63565     -2.7 1.268e+04 7.826e-10
  0.66513     -2.7 1.277e+04 7.884e-10
  0.68475     -2.9 1.265e+04 7.892e-10
  0.70447     -2.7 1.256e+04 7.870e-10
  0.72419     -2.7 1.255e+04 7.539e-10
  0.74391     -2.5 1.255e+04 7.479e-10
  0.75500     -2.9 1.291e+04 7.629e-10
  0.76486     -2.0 1.283e+04 6.939e-10
  0.78335     -4.5 1.399e+04 9.363e-10
  0.80308     -7.4 1.446e+04 1.695e-09
  0.82280     -8.3 1.459e+04 3.055e-09
  0.84252     -8.1 1.500e+04 4.514e-09
  0.86224     -7.7 1.516e+04 4.963e-09
  0.88196     -7.5 1.481e+04 4.102e-09
  0.89468     -7.8 1.392e+04 2.094e-09
  0.90454     -7.2 1.422e+04 2.244e-09
  0.92140     -9.9 1.318e+04 1.134e-09
  0.94112    -12.2 1.219e+04 8.140e-10
  0.96084    -13.0 1.186e+04 7.457e-10
  0.98056    -13.4 1.183e+04 7.383e-10
  1.00028    -14.0 1.195e+04 8.352e-10
  1.02000    -14.5 1.206e+04 1.045e-09
  1.03436    -14.7 1.215e+04 1.279e-09
  1.04422    -14.5 1.229e+04 1.363e-09
  1.05944    -14.5 1.235e+04 1.532e-09
  1.07916    -14.5 1.234e+04 1.575e-09
  1.09888    -14.4 1.221e+04 1.497e-09
  1.11861    -14.4 1.188e+04 1.183e-09
  1.13833    -14.6 1.153e+04 9.529e-10
  1.15805    -14.6 1.121e+04 7.681e-10
  1.17404    -14.6 1.093e+04 6.077e-10
  1.18390    -14.4 1.095e+04 6.395e-10
  1.19749    -14.3 1.069e+04 4.874e-10
  1.22717    -14.2 1.039e+04 3.715e-10
  1.26670    -13.0 1.003e+04 2.816e-10
  1.30615    -11.6 9.828e+03 2.351e-10
  1.34559    -10.1 9.813e+03 2.303e-10
  1.38503     -8.6 9.890e+03 2.407e-10
  1.42447     -7.3 9.958e+03 2.687e-10
  1.45360     -5.8 1.001e+04 2.955e-10
  1.47332     -5.2 1.007e+04 3.359e-10
  1.50335     -3.6 1.021e+04 3.859e-10
  1.54279     -2.2 1.030e+04 4.026e-10
  1.58223     -1.0 1.034e+04 4.077e-10
  1.62168      0.1 1.041e+04 4.129e-10
  1.66112      1.2 1.049e+04 4.162e-10
  1.70056      2.3 1.060e+04 4.316e-10
  1.73296      3.4 1.074e+04 4.567e-10
  1.75268      3.7 1.083e+04 5.000e-10
  1.77944      4.5 1.100e+04 5.422e-10
  1.81888      5.4 1.118e+04 5.831e-10
  1.85832      6.3 1.120e+04 5.956e-10
  1.89776      7.3 1.124e+04 5.545e-10
  1.93721      8.1 1.119e+04 4.739e-10
  1.97665      8.7 1.110e+04 4.152e-10
  2.01232      9.4 1.107e+04 3.811e-10
  2.03204      9.2 1.103e+04 3.853e-10
  2.05553      9.9 1.105e+04 3.559e-10
  2.09497     10.5 1.107e+04 3.316e-10
  2.13441     11.1 1.105e+04 3.049e-10
  2.17385     11.9 1.105e+04 2.710e-10
  2.21329     12.6 1.106e+04 2.286e-10
  2.25273     13.1 1.112e+04 1.927e-10
  2.29169     13.5 1.116e+04 1.816e-10
  2.31141     13.5 1.124e+04 2.073e-10
  2.33162     13.7 1.137e+04 2.547e-10
  2.37106     14.0 1.141e+04 3.576e-10
  2.41050     14.6 1.154e+04 4.885e-10
  2.44994     15.4 1.173e+04 5.666e-10
  2.48938     16.0 1.174e+04 5.628e-10
  2.52882     16.8 1.168e+04 4.348e-10
  2.56826     17.5 1.148e+04 2.918e-10
  2.59077     18.3 1.131e+04 1.971e-10
  2.61049     17.8 1.132e+04 2.113e-10
  2.64715     19.2 1.118e+04 1.618e-10
  2.68659     21.0 1.112e+04 1.293e-10
  2.72603     22.7 1.113e+04 1.069e-10
  2.76547     24.1 1.113e+04 9.792e-11
  2.80491     25.6 1.125e+04 1.003e-10
  2.84435     26.7 1.114e+04 1.304e-10
  2.87013     28.6 1.105e+04 1.751e-10
  2.88985     28.1 1.109e+04 1.862e-10
  2.92324     29.9 1.120e+04 2.213e-10
  2.96268     31.3 1.133e+04 2.401e-10
  3.00212     32.4 1.137e+04 2.518e-10
  3.04156     33.4 1.133e+04 2.653e-10
  3.08100     34.6 1.133e+04 2.569e-10
  3.12044     35.2 1.142e+04 2.262e-10
  3.14950     35.5 1.137e+04 2.227e-10
  3.16922     34.3 1.136e+04 2.513e-10
  3.19932     34.7 1.125e+04 2.491e-10
  3.23876     35.6 1.114e+04 2.293e-10
  3.27821     37.0 1.103e+04 1.923e-10
  3.31765     38.4 1.091e+04 1.555e-10
  3.35709     39.6 1.089e+04 1.251e-10
  3.39653     40.7 1.084e+04 1.139e-10
  3.42886     42.0 1.080e+04 1.167e-10
  3.44858     41.4 1.077e+04 1.307e-10
  3.47541     43.0 1.071e+04 1.486e-10
  3.51485     45.0 1.067e+04 1.668e-10
  3.55429     46.9 1.072e+04 1.791e-10
  3.59374     48.8 1.080e+04 1.864e-10
  3.63318     50.5 1.086e+04 1.945e-10
  3.67262     52.2 1.088e+04 2.035e-10
  3.70822     53.7 1.099e+04 2.123e-10
  3.72794     53.3 1.094e+04 2.080e-10
  3.75150     55.0 1.095e+04 2.069e-10
  3.79094     56.7 1.092e+04 1.971e-10
  3.83038     58.5 1.087e+04 1.782e-10
  3.86982     60.3 1.087e+04 1.567e-10
  3.90927     62.1 1.093e+04 1.310e-10
  3.94871     63.9 1.096e+04 1.134e-10
  3.98758     65.7 1.097e+04 1.096e-10
  4.00730     65.6 1.091e+04 1.214e-10
  4.02759     67.5 1.095e+04 1.252e-10
  4.06703     69.5 1.102e+04 1.338e-10
  4.10647     71.4 1.108e+04 1.453e-10
  4.14591     73.3 1.113e+04 1.594e-10
  4.18535     75.0 1.119e+04 1.785e-10
  4.22479     76.7 1.128e+04 1.975e-10
  4.26424     78.3 1.135e+04 2.110e-10
  4.28667     79.7 1.139e+04 2.266e-10
  4.30639     79.5 1.140e+04 2.208e-10
  4.34312     81.0 1.145e+04 2.444e-10
  4.38256     82.5 1.152e+04 2.820e-10
  4.42200     84.0 1.162e+04 3.333e-10
  4.46144     85.5 1.168e+04 3.872e-10
  4.50088     86.8 1.176e+04 4.584e-10
  4.54032     87.9 1.197e+04 6.033e-10
  4.56603     88.7 1.233e+04 9.026e-10
  4.58575     88.1 1.262e+04 1.024e-09
  4.61921     88.6 1.310e+04 1.508e-09
  4.65865     89.0 1.348e+04 1.963e-09
  4.68813     89.2 1.367e+04 2.201e-09
  4.70552     88.9 1.391e+04 2.433e-09
  4.71538     88.6 1.386e+04 2.356e-09
  4.72747     88.3 1.393e+04 2.446e-09
  4.74720     87.9 1.393e+04 2.451e-09
  4.76692     87.4 1.394e+04 2.476e-09
  4.78664     86.6 1.404e+04 2.566e-09
  4.80636     85.3 1.437e+04 2.895e-09
  4.82608     83.8 1.491e+04 3.754e-09
  4.84520     82.9 1.546e+04 4.989e-09
  4.85506     82.8 1.544e+04 4.849e-09
  4.86552     81.9 1.554e+04 5.082e-09
  4.88524     81.4 1.533e+04 4.688e-09
  4.90496     81.2 1.479e+04 3.428e-09
  4.92468     80.7 1.418e+04 2.078e-09
  4.94440     78.9 1.352e+04 1.261e-09
  4.96412     77.8 1.267e+04 9.310e-10
  4.98384     77.7 1.261e+04 9.258e-10
  5.01352     78.4 1.243e+04 9.092e-10
  5.04310     78.9 1.252e+04 1.006e-09
  5.06272     79.1 1.279e+04 1.190e-09
  5.08245     79.5 1.292e+04 1.474e-09
  5.10217     80.0 1.319e+04 1.827e-09
  5.12189     80.1 1.362e+04 2.283e-09
  5.13442     79.8 1.416e+04 2.947e-09
  5.14428     79.1 1.486e+04 4.344e-09
  5.16133     79.0 1.556e+04 6.208e-09
  5.18105     79.1 1.599e+04 7.668e-09
  5.20077     79.1 1.599e+04 7.750e-09
  5.22049     79.3 1.574e+04 6.928e-09
  5.24021     79.3 1.523e+04 5.141e-09
  5.25993     79.1 1.453e+04 3.560e-09
  5.27410     78.8 1.404e+04 2.540e-09
  5.28396     78.4 1.398e+04 2.312e-09
  5.29937     77.9 1.346e+04 1.679e-09
  5.32905     76.8 1.312e+04 1.291e-09
  5.36859     75.4 1.336e+04 1.404e-09
  5.40412     75.0 1.387e+04 1.967e-09
  5.42384     76.8 1.281e+04 8.793e-10
  5.44747     77.1 1.320e+04 1.201e-09
  5.47695     76.9 1.328e+04 1.481e-09
  5.49658     76.8 1.314e+04 1.528e-09
  5.51630     77.4 1.264e+04 1.271e-09
  5.53602     77.4 1.258e+04 1.243e-09
  5.56570     78.6 1.214e+04 1.039e-09
  5.60524     79.3 1.195e+04 1.030e-09
  5.64468     80.2 1.184e+04 1.129e-09
  5.67416     81.2 1.199e+04 1.271e-09
  5.69315     81.1 1.233e+04 1.556e-09
  5.70310     82.3 1.254e+04 1.515e-09
  5.71360     81.7 1.304e+04 2.170e-09
  5.73323     82.1 1.305e+04 2.657e-09
  5.75295     82.8 1.297e+04 2.599e-09
  5.77267     83.6 1.278e+04 2.336e-09
  5.79239     84.3 1.254e+04 1.877e-09
  5.81211     84.4 1.228e+04 1.418e-09
  5.83183     84.2 1.201e+04 1.086e-09
  5.84269     84.0 1.174e+04 9.044e-10
  5.85255     84.1 1.199e+04 9.762e-10
  5.87127     84.1 1.158e+04 8.072e-10
  5.89099     84.2 1.124e+04 7.753e-10
  5.92067     85.2 1.103e+04 7.690e-10
  5.96021     86.8 1.110e+04 7.992e-10
  5.98256     88.3 1.153e+04 9.934e-10
  6.00228     86.9 1.151e+04 9.802e-10
  6.03909     86.8 1.225e+04 1.348e-09
  6.06857     86.7 1.282e+04 1.629e-09
  6.08820     86.4 1.313e+04 1.806e-09
  6.10792     86.0 1.335e+04 2.003e-09
  6.12205     85.5 1.339e+04 1.924e-09
  6.13191     84.7 1.268e+04 1.149e-09
  6.14736     84.0 1.259e+04 1.021e-09
  6.16708     83.0 1.226e+04 7.889e-10
  6.19676     82.6 1.224e+04 7.922e-10
  6.23630     81.3 1.101e+04 4.145e-10
  6.26193     81.4 1.015e+04 2.450e-10
  6.28165     80.4 9.625e+03 1.390e-10
  6.31518     81.8 9.610e+03 1.333e-10
  6.35462     83.5 9.613e+03 1.465e-10
  6.39406     85.4 9.668e+03 1.562e-10
  6.43350     87.2 9.711e+03 1.619e-10
  6.47294     88.8 9.813e+03 1.743e-10
  6.51238     89.9 1.001e+04 2.151e-10
  6.54129     90.2 1.020e+04 3.005e-10
  6.56101     89.5 1.018e+04 3.165e-10
  6.59127     89.2 1.041e+04 4.541e-10
  6.63071     88.3 1.080e+04 6.357e-10
  6.67015     85.8 1.131e+04 8.765e-10
  6.70959     82.4 1.176e+04 1.189e-09
  6.74903     79.0 1.193e+04 1.409e-09
  6.78847     76.2 1.183e+04 1.372e-09
  6.82065     74.4 1.140e+04 1.142e-09
  6.84037     73.4 1.098e+04 9.320e-10
  6.86735     72.7 1.034e+04 6.947e-10
  6.90680     72.6 9.896e+03 5.235e-10
  6.94624     72.9 9.554e+03 3.946e-10
  6.98568     73.3 9.385e+03 3.275e-10
  7.02512     73.9 9.307e+03 3.110e-10
  7.06456     74.8 9.311e+03 3.186e-10
  7.10001     75.8 9.369e+03 3.451e-10
  7.11974     75.7 9.537e+03 3.749e-10
  7.14344     76.7 9.669e+03 4.229e-10
  7.18288     77.6 9.708e+03 4.283e-10
  7.22233     78.5 9.672e+03 4.045e-10
  7.26177     79.5 9.507e+03 3.350e-10
  7.30121     80.4 9.274e+03 2.624e-10
  7.34065     81.2 9.153e+03 2.333e-10
  7.37938     82.2 9.179e+03 2.365e-10
  7.39910     81.8 9.173e+03 2.197e-10
  7.41953     82.6 9.310e+03 2.401e-10
  7.45897     83.4 9.619e+03 2.944e-10
  7.49841     83.9 9.944e+03 3.641e-10
  7.52790     83.6 1.025e+04 4.597e-10
  7.53858     83.1 1.049e+04 5.704e-10
  7.54844     82.9 1.046e+04 5.321e-10
  7.57720     82.7 1.090e+04 6.821e-10
  7.61674     81.6 1.167e+04 9.735e-10
  7.64622     79.9 1.233e+04 1.199e-09
  7.66584     79.0 1.254e+04 1.321e-09
  7.67836     78.7 1.277e+04 1.369e-09
  7.69818     79.2 1.218e+04 1.007e-09
  7.73506     77.8 1.236e+04 1.013e-09
  7.77450     76.8 1.233e+04 9.896e-10
  7.81394     76.4 1.202e+04 8.764e-10
  7.85338     76.5 1.161e+04 7.091e-10
  7.89283     76.9 1.113e+04 5.098e-10
  7.93227     77.1 1.070e+04 3.469e-10
  7.95782     77.2 1.053e+04 2.973e-10
  7.97754     77.7 1.032e+04 2.523e-10
  8.01115     77.8 1.037e+04 2.726e-10
  8.05059     77.7 1.056e+04 3.668e-10
  8.09003     77.4 1.104e+04 5.913e-10
  8.12947     77.2 1.183e+04 1.042e-09
  8.16891     77.1 1.261e+04 1.629e-09
  8.19840     76.5 1.297e+04 1.935e-09
  8.21802     75.9 1.325e+04 2.135e-09
  8.23699     75.6 1.336e+04 2.254e-09
  8.24685     75.3 1.308e+04 1.990e-09
  8.25746     74.9 1.304e+04 1.923e-09
  8.27718     74.2 1.290e+04 1.767e-09
  8.29690     73.2 1.288e+04 1.723e-09
  8.31662     72.1 1.301e+04 1.795e-09
  8.33634     70.7 1.334e+04 2.097e-09
  8.35606     69.9 1.372e+04 2.569e-09
  8.37579     69.3 1.413e+04 2.983e-09
  8.38653     68.3 1.482e+04 3.400e-09
  8.39639     68.8 1.376e+04 2.599e-09
  8.41523     67.0 1.465e+04 3.076e-09
  8.43495     64.3 1.569e+04 4.192e-09
  8.45467     62.5 1.611e+04 5.905e-09
  8.47439     62.0 1.587e+04 6.199e-09
  8.49411     62.3 1.551e+04 5.777e-09
  8.51383     62.9 1.465e+04 4.258e-09
  8.52621     62.8 1.356e+04 2.541e-09
  8.53607     63.0 1.307e+04 2.006e-09
  8.56323     62.2 1.162e+04 8.792e-10
  8.60277     61.2 1.002e+04 4.168e-10
  8.64221     61.3 9.240e+03 2.713e-10
  8.68165     62.7 8.982e+03 2.456e-10
  8.72109     64.9 8.960e+03 2.454e-10
  8.76053     66.8 8.983e+03 2.497e-10
  8.79591     68.5 9.063e+03 2.655e-10
  8.81563     69.2 8.975e+03 2.502e-10
  8.83941     70.6 9.113e+03 2.857e-10
  8.87886     71.9 9.270e+03 3.324e-10
  8.91830     73.1 9.321e+03 3.438e-10
  8.95774     74.2 9.272e+03 3.298e-10
  8.99718     75.1 9.116e+03 2.837e-10
  9.03662     75.7 9.055e+03 2.494e-10
  9.07527     76.4 9.105e+03 2.523e-10
  9.09499     76.8 9.093e+03 2.582e-10
  9.11550     76.8 9.330e+03 2.924e-10
  9.14499     77.0 9.512e+03 3.293e-10
  9.16461     76.9 9.665e+03 3.706e-10
  9.18433     76.7 9.961e+03 4.526e-10
  9.20405     76.1 1.045e+04 5.768e-10
  9.22377     74.8 1.134e+04 8.163e-10
  9.23448     73.5 1.206e+04 1.220e-09
  9.24434     72.6 1.267e+04 1.615e-09
  9.26321     70.7 1.419e+04 2.491e-09
  9.28293     63.6 1.835e+04 6.563e-09
  9.30265     55.8 2.145e+04 1.625e-08
  9.31740     52.8 2.188e+04 2.413e-08
  9.32721     51.3 2.173e+04 2.673e-08
  9.33707     50.3 2.138e+04 2.545e-08
  9.34693     49.1 2.073e+04 2.098e-08
  9.35679     48.5 2.019e+04 1.686e-08
  9.36665     47.2 1.941e+04 1.202e-08
  9.37411     46.0 1.845e+04 7.879e-09
  9.38402     43.3 1.661e+04 5.359e-09
  9.40126     40.2 1.421e+04 2.814e-09
  9.42098     38.6 1.258e+04 1.744e-09
  9.44070     38.7 1.195e+04 1.337e-09
  9.46042     39.3 1.168e+04 1.148e-09
  9.48014     40.1 1.144e+04 1.019e-09
  9.49986     40.9 1.136e+04 9.594e-10
  9.51384     41.6 1.136e+04 9.512e-10
  9.52370     41.0 1.140e+04 9.577e-10
  9.53930     40.9 1.164e+04 1.032e-09
  9.55902     40.2 1.226e+04 1.240e-09
  9.57874     39.3 1.296e+04 1.635e-09
  9.59846     38.5 1.402e+04 2.455e-09
  9.61320     36.4 1.589e+04 3.806e-09
  9.62302     35.8 1.650e+04 4.108e-09
  9.63288     34.0 1.728e+04 5.313e-09
  9.64274     33.6 1.745e+04 5.828e-09
  9.65348     33.6 1.715e+04 6.882e-09
  9.66338     31.8 1.912e+04 1.453e-08
  9.67734     31.0 1.907e+04 1.066e-08
  9.69707     28.3 1.836e+04 6.343e-09
  9.71679     24.5 1.688e+04 3.983e-09
  9.73651     20.5 1.560e+04 2.429e-09
  9.75623     17.3 1.438e+04 1.625e-09
  9.77595     15.1 1.321e+04 1.219e-09
  9.79321     13.2 1.254e+04 1.088e-09
  9.80307     10.5 1.177e+04 9.720e-10
  9.82535     10.8 1.215e+04 1.090e-09
  9.86489     10.6 1.226e+04 1.149e-09
  9.90433     10.7 1.249e+04 1.196e-09
  9.93308     10.6 1.241e+04 1.254e-09
  9.95280      7.3 1.150e+04 9.320e-10
  9.98321      7.0 1.145e+04 9.328e-10
 10.02265      6.1 1.165e+04 1.211e-09
 10.06209      6.1 1.198e+04 1.613e-09
 10.10153      6.4 1.221e+04 1.804e-09
 10.14097      6.7 1.222e+04 1.588e-09
 10.18042      5.7 1.203e+04 1.249e-09
 10.21245      4.7 1.169e+04 1.132e-09
 10.23207      4.6 1.113e+04 8.936e-10
 10.24924      4.6 1.124e+04 1.075e-09
 10.26896      4.7 1.122e+04 1.072e-09
 10.29864      5.5 1.099e+04 1.059e-09
 10.33818      6.8 1.040e+04 8.679e-10
 10.37762      8.2 9.850e+03 5.834e-10
 10.41706      9.3 9.259e+03 3.899e-10
 10.45650     10.4 8.913e+03 2.952e-10
 10.49181     11.8 8.834e+03 2.730e-10
 10.51153     12.0 9.129e+03 3.268e-10
 10.53539     13.6 9.150e+03 3.353e-10
 10.57483     15.2 9.294e+03 3.770e-10
 10.61427     17.0 9.421e+03 4.226e-10
 10.65371     18.8 9.501e+03 4.547e-10
 10.69315     20.2 9.615e+03 5.007e-10
 10.73259     21.8 9.780e+03 5.777e-10
 10.77117     23.6 1.000e+04 6.314e-10
 10.79089     23.9 9.495e+03 4.103e-10
 10.81147     25.3 9.445e+03 3.233e-10
 10.85092     26.3 9.313e+03 2.769e-10
 10.89036     26.7 9.364e+03 2.864e-10
 10.92980     26.9 9.632e+03 4.041e-10
 10.96924     28.0 1.012e+04 6.338e-10
 11.00868     29.3 1.054e+04 8.195e-10
 11.04812     30.8 1.048e+04 7.664e-10
 11.07025     32.2 1.022e+04 5.732e-10
 11.08997     33.1 1.046e+04 6.713e-10
 11.12700     33.5 1.013e+04 4.358e-10
 11.16645     33.8 1.009e+04 4.087e-10
 11.20589     33.1 1.086e+04 5.995e-10
 11.23537     32.0 1.194e+04 9.308e-10
 11.25499     30.1 1.291e+04 1.767e-09
 11.27471     30.4 1.337e+04 2.779e-09
 11.29443     31.1 1.382e+04 3.469e-09
 11.31415     31.1 1.415e+04 3.487e-09
 11.33388     30.6 1.430e+04 3.282e-09
 11.34942     29.2 1.415e+04 2.674e-09
 11.35928     29.8 1.421e+04 2.822e-09
 11.37332     28.1 1.370e+04 2.292e-09
 11.39304     26.9 1.291e+04 1.737e-09
 11.41276     26.5 1.212e+04 1.349e-09
 11.43248     26.8 1.157e+04 9.790e-10
 11.45220     26.9 1.111e+04 7.499e-10
 11.47192     27.5 1.071e+04 5.042e-10
 11.48910     27.2 1.062e+04 4.269e-10
 11.49896     27.5 1.063e+04 4.267e-10
 11.52132     28.2 1.020e+04 2.907e-10
 11.56086     28.9 9.830e+03 2.237e-10
 11.60030     30.5 9.708e+03 2.067e-10
 11.62898     32.3 9.729e+03 2.060e-10
 11.64870     32.9 9.754e+03 1.968e-10
 11.67918     34.8 9.846e+03 2.098e-10
 11.71862     36.5 9.989e+03 2.325e-10
 11.75806     37.9 1.022e+04 2.866e-10
 11.79750     38.9 1.070e+04 4.265e-10
 11.83695     39.4 1.127e+04 6.812e-10
 11.87639     38.7 1.216e+04 1.124e-09
 11.90587     37.4 1.284e+04 1.524e-09
 11.91801     36.9 1.305e+04 1.682e-09
 11.92796     37.8 1.285e+04 1.503e-09
 11.95527     36.3 1.291e+04 1.481e-09
 11.99471     35.0 1.270e+04 1.190e-09
 12.03415     33.7 1.250e+04 9.984e-10
 12.07359     33.3 1.252e+04 1.001e-09
 12.11303     33.6 1.264e+04 1.097e-09
 12.14252     34.0 1.208e+04 8.778e-10
 12.16214     34.1 1.184e+04 8.714e-10
 12.18186     35.0 1.141e+04 7.973e-10
 12.19737     35.2 1.139e+04 7.600e-10
 12.20733     35.9 1.103e+04 5.313e-10
 12.22997     37.4 1.070e+04 4.700e-10
 12.24959     36.6 1.095e+04 5.343e-10
 12.27070     38.1 1.058e+04 4.130e-10
 12.31024     39.4 1.068e+04 4.225e-10
 12.33715     39.6 1.076e+04 4.389e-10
 12.34691     40.1 1.071e+04 4.552e-10
 12.35935     40.1 1.083e+04 4.951e-10
 12.37907     38.9 1.153e+04 6.802e-10
 12.39879     38.3 1.204e+04 9.493e-10
 12.41851     37.3 1.297e+04 1.484e-09
 12.43823     37.8 1.332e+04 2.006e-09
 12.45795     38.5 1.334e+04 2.083e-09
 12.47673     38.6 1.328e+04 1.986e-09
 12.48659     38.6 1.319e+04 1.788e-09
 12.49739     39.8 1.237e+04 1.244e-09
 12.51711     39.3 1.211e+04 9.010e-10
 12.53683     40.2 1.146e+04 4.934e-10
 12.55655     39.7 1.145e+04 3.686e-10
 12.58623     39.3 1.130e+04 2.279e-10
 12.62577     39.5 1.085e+04 2.176e-10
 12.65525     39.9 1.053e+04 2.137e-10
 12.67488     39.9 1.054e+04 2.267e-10
 12.69460     40.1 1.070e+04 3.124e-10
 12.71432     40.3 1.095e+04 4.129e-10
 12.73404     40.2 1.146e+04 6.330e-10
 12.75376     39.8 1.217e+04 1.004e-09
 12.76596     38.9 1.308e+04 1.687e-09
 12.77582     39.6 1.270e+04 1.355e-09
 12.79320     37.3 1.459e+04 2.611e-09
 12.81292     28.3 2.142e+04 9.121e-09
 12.82766     24.5 2.311e+04 1.829e-08
 12.83570     24.2 2.138e+04 3.074e-08
 12.84063     23.8 2.100e+04 3.748e-08
 12.84733     24.8 1.970e+04 4.221e-08
 12.85719     26.0 1.855e+04 3.899e-08
 12.86705     26.6 1.765e+04 2.876e-08
 12.87691     26.9 1.705e+04 1.975e-08
 12.89175     25.9 1.783e+04 7.593e-09
 12.90564     21.0 1.991e+04 1.551e-09
 12.91550     20.8 2.120e+04 1.436e-09
 12.93124      7.5 1.194e+04 4.513e-10
 12.95096      5.8 1.062e+04 3.587e-10
 12.98064      5.2 1.068e+04 2.959e-10
 13.02018      4.2 1.053e+04 2.658e-10
 13.04551      4.0 1.058e+04 2.923e-10
 13.06523      4.2 1.053e+04 3.209e-10
 13.09906      5.0 1.060e+04 3.651e-10
 13.13851      5.6 1.063e+04 3.642e-10
 13.17795      6.0 1.051e+04 3.421e-10
 13.21739      6.6 1.036e+04 3.548e-10
 13.24687      7.4 1.031e+04 4.055e-10
 13.26649      7.8 1.017e+04 4.097e-10
