# Columns:
#   distance along LOS (in CHIMPs)
#   peculiar velocity  (in km/s)
#   temperature (K)
#   HI number density
# pos=(100.866,156.623,106.879), angles=(2.96441,0.480689)
  0.00043     -9.7 1.281e+04 1.084e-09
  0.00231    -10.4 1.259e+04 8.734e-10
  0.00635    -10.4 1.294e+04 1.738e-09
  0.01481    -10.6 1.295e+04 8.541e-10
  0.03062    -11.1 1.265e+04 7.765e-10
  0.05046    -11.0 1.259e+04 7.608e-10
  0.08032     -9.9 1.254e+04 1.034e-09
  0.11718     -8.2 1.256e+04 9.751e-10
  0.13702    -10.0 9.927e+03 2.021e-10
  0.15979     -8.1 9.683e+03 2.118e-10
  0.19947     -6.3 9.564e+03 1.989e-10
  0.23146     -4.4 9.639e+03 2.102e-10
  0.25130     -4.4 1.077e+04 3.298e-10
  0.27884     -2.6 1.071e+04 3.342e-10
  0.31852     -0.5 1.085e+04 3.949e-10
  0.34819      2.1 9.975e+03 2.778e-10
  0.36793      2.2 9.864e+03 2.452e-10
  0.38085      2.9 1.005e+04 2.467e-10
  0.39077      2.9 9.210e+03 1.716e-10
  0.40761      3.9 9.411e+03 1.767e-10
  0.42746      4.5 9.842e+03 1.864e-10
  0.44730      5.0 1.063e+04 2.171e-10
  0.46714      4.9 1.183e+04 3.004e-10
  0.48006      4.8 1.295e+04 4.788e-10
  0.48998      4.1 1.355e+04 8.009e-10
  0.50286      4.6 1.362e+04 1.307e-09
  0.51278      4.7 1.277e+04 5.423e-10
  0.52667      4.5 1.358e+04 1.046e-09
  0.54651      4.7 1.422e+04 2.026e-09
  0.56635      5.4 1.461e+04 3.551e-09
  0.58619      6.7 1.507e+04 5.404e-09
  0.60603      8.1 1.575e+04 7.097e-09
  0.62087      7.5 1.639e+04 8.428e-09
  0.62974      7.0 1.677e+04 9.301e-09
  0.63475      7.4 1.649e+04 7.570e-09
  0.64071      5.2 1.790e+04 1.064e-08
  0.65058      5.0 1.826e+04 1.194e-08
  0.66050      4.4 1.795e+04 1.489e-08
  0.67042      4.6 1.754e+04 1.707e-08
  0.68034      5.2 1.733e+04 1.819e-08
  0.69026      5.6 1.739e+04 1.856e-08
  0.70519      7.1 1.705e+04 1.405e-08
  0.71894      8.0 1.671e+04 1.060e-08
  0.72886      7.8 1.660e+04 1.113e-08
  0.74493      7.6 1.612e+04 7.650e-09
  0.75681      6.9 1.529e+04 5.480e-09
  0.76673      7.1 1.535e+04 4.015e-09
  0.78461      6.5 1.440e+04 3.221e-09
  0.80445      6.5 1.371e+04 2.835e-09
  0.82429      7.0 1.329e+04 2.615e-09
  0.84414      7.7 1.325e+04 2.578e-09
  0.86398      8.3 1.324e+04 2.631e-09
  0.87882      8.8 1.332e+04 2.796e-09
  0.88874      8.6 1.288e+04 1.834e-09
  0.90366      9.4 1.298e+04 2.013e-09
  0.92350     10.4 1.306e+04 2.184e-09
  0.94335     11.4 1.313e+04 2.216e-09
  0.95781     12.6 1.320e+04 2.120e-09
  0.96773     12.8 1.362e+04 2.772e-09
  0.98303     13.7 1.385e+04 2.493e-09
  1.00083     13.9 1.402e+04 2.142e-09
  1.01075     13.1 1.307e+04 1.348e-09
  1.02271     12.8 1.285e+04 1.270e-09
  1.04255     12.2 1.261e+04 1.306e-09
  1.06240     11.7 1.239e+04 1.408e-09
  1.08224     11.8 1.225e+04 1.532e-09
  1.10208     12.3 1.215e+04 1.525e-09
  1.12192     13.0 1.210e+04 1.445e-09
  1.13276     13.8 1.191e+04 1.097e-09
  1.14269     13.8 1.183e+04 1.245e-09
  1.16161     14.3 1.185e+04 1.044e-09
  1.18145     14.8 1.177e+04 7.862e-10
  1.19669     14.9 1.175e+04 6.098e-10
  1.20661     14.7 1.176e+04 5.968e-10
  1.22113     15.6 1.117e+04 4.318e-10
  1.24097     15.5 1.079e+04 3.316e-10
  1.27083     16.4 1.094e+04 2.772e-10
  1.31062     17.5 1.025e+04 2.006e-10
  1.35030     18.7 9.730e+03 1.845e-10
  1.37698     20.4 9.772e+03 1.875e-10
  1.39683     20.1 1.173e+04 3.281e-10
  1.42967     22.1 1.104e+04 3.271e-10
  1.46935     24.3 1.060e+04 3.173e-10
  1.50903     26.5 1.017e+04 2.735e-10
  1.54872     28.4 1.002e+04 2.493e-10
  1.58840     30.1 1.009e+04 2.556e-10
  1.62101     31.3 1.028e+04 2.830e-10
  1.64075     31.5 1.064e+04 3.634e-10
  1.65765     32.0 1.080e+04 4.359e-10
  1.67444     32.2 1.102e+04 5.379e-10
  1.68436     32.9 1.086e+04 4.627e-10
  1.69734     33.0 1.102e+04 5.694e-10
  1.71718     33.1 1.113e+04 7.141e-10
  1.73702     33.4 1.125e+04 8.506e-10
  1.75275     33.6 1.135e+04 8.876e-10
  1.76267     33.8 1.158e+04 9.271e-10
  1.78672     34.3 1.128e+04 8.197e-10
  1.82650     34.8 1.082e+04 4.760e-10
  1.86503     34.4 1.018e+04 1.734e-10
  1.88487     34.2 1.014e+04 1.565e-10
  1.90587     32.0 9.187e+03 7.165e-11
  1.94556     31.8 8.904e+03 6.538e-11
  1.98524     32.3 8.912e+03 6.766e-11
  2.02492     32.5 9.116e+03 8.383e-11
  2.06461     32.6 9.723e+03 1.675e-10
  2.09427     32.9 1.005e+04 2.494e-10
  2.11402     33.0 1.046e+04 3.498e-10
  2.12870     32.5 1.137e+04 5.458e-10
  2.13862     32.6 1.157e+04 5.811e-10
  2.15219     30.2 1.349e+04 1.224e-09
  2.16211     29.3 1.412e+04 1.415e-09
  2.17354     27.8 1.514e+04 3.472e-09
  2.19338     28.1 1.616e+04 7.103e-09
  2.21323     28.5 1.730e+04 1.097e-08
  2.23307     28.4 1.850e+04 1.263e-08
  2.25072     26.9 1.928e+04 1.152e-08
  2.26059     26.1 1.996e+04 2.520e-08
  2.26769     24.8 2.036e+04 2.151e-08
  2.27649     23.5 2.046e+04 1.727e-08
  2.28145     23.5 2.107e+04 1.438e-08
  2.28754     21.8 2.026e+04 1.181e-08
  2.29746     20.6 1.957e+04 9.411e-09
  2.31239     19.5 1.862e+04 8.836e-09
  2.33228     18.6 1.654e+04 5.147e-09
  2.35212     18.2 1.448e+04 3.069e-09
  2.37196     18.2 1.305e+04 1.930e-09
  2.38265     18.5 1.218e+04 1.329e-09
  2.39183     18.4 1.292e+04 1.820e-09
  2.40098     19.1 1.286e+04 1.783e-09
  2.42166     19.8 1.215e+04 1.231e-09
  2.46145     21.5 1.098e+04 6.509e-10
  2.50113     23.1 1.024e+04 4.435e-10
  2.54081     25.3 1.009e+04 4.319e-10
  2.58050     27.4 1.020e+04 4.671e-10
  2.61695     29.4 1.064e+04 6.254e-10
  2.63679     29.5 1.114e+04 8.328e-10
  2.64985     30.0 1.164e+04 1.095e-09
  2.66959     30.4 1.205e+04 1.380e-09
  2.68943     30.8 1.256e+04 1.763e-09
  2.70927     31.3 1.309e+04 2.127e-09
  2.72912     31.9 1.366e+04 2.378e-09
  2.74869     32.3 1.443e+04 2.579e-09
  2.75861     29.9 1.643e+04 4.164e-09
  2.76880     28.7 1.752e+04 5.644e-09
  2.78864     26.9 1.845e+04 8.370e-09
  2.80848     25.6 1.941e+04 1.383e-08
  2.81956     24.4 2.077e+04 1.709e-08
  2.82448     24.3 2.027e+04 2.260e-08
  2.83319     24.5 2.060e+04 2.989e-08
  2.84311     24.8 2.104e+04 3.573e-08
  2.85303     25.0 2.142e+04 3.928e-08
  2.86295     25.1 2.162e+04 4.077e-08
  2.87287     25.3 2.181e+04 4.150e-08
  2.87863     25.4 2.186e+04 3.999e-08
  2.88132     24.6 2.199e+04 3.354e-08
  2.88548     25.2 2.219e+04 3.525e-08
  2.89271     24.8 2.217e+04 3.129e-08
  2.90263     23.9 2.211e+04 2.869e-08
  2.91256     22.6 2.194e+04 2.683e-08
  2.92248     21.1 2.126e+04 2.458e-08
  2.93240     19.6 2.014e+04 2.188e-08
  2.94153     19.0 1.906e+04 1.962e-08
  2.94649     19.1 1.975e+04 2.289e-08
  2.95224     18.6 1.983e+04 2.302e-08
  2.96216     18.3 1.957e+04 2.138e-08
  2.97208     18.2 1.895e+04 1.843e-08
  2.98200     18.4 1.833e+04 1.379e-08
  2.99192     17.9 1.810e+04 1.155e-08
  3.00258     18.1 1.700e+04 6.934e-09
  3.01255     17.5 2.001e+04 1.371e-08
  3.02674     17.0 1.901e+04 9.012e-09
  3.04659     16.1 1.764e+04 5.323e-09
  3.06643     15.0 1.627e+04 3.172e-09
  3.08627     14.2 1.521e+04 2.034e-09
  3.10611     13.7 1.446e+04 1.434e-09
  3.11761     13.8 1.384e+04 1.097e-09
  3.12622     13.4 1.272e+04 6.892e-10
  3.13456     13.1 1.488e+04 2.451e-09
  3.14580     13.4 1.457e+04 2.118e-09
  3.16564     14.0 1.431e+04 1.862e-09
  3.18548     14.6 1.404e+04 1.614e-09
  3.20532     15.1 1.379e+04 1.364e-09
  3.22516     15.7 1.352e+04 1.118e-09
  3.24501     16.1 1.318e+04 8.913e-10
  3.25658     16.4 1.271e+04 7.273e-10
  3.26650     17.0 1.430e+04 2.264e-09
  3.28469     17.4 1.389e+04 1.783e-09
  3.30453     17.8 1.345e+04 1.429e-09
  3.32437     18.2 1.299e+04 1.196e-09
  3.34421     18.5 1.260e+04 1.077e-09
  3.35648     18.6 1.248e+04 1.082e-09
  3.36640     17.2 1.236e+04 1.024e-09
  3.37859     16.7 1.259e+04 1.381e-09
  3.38851     18.9 1.335e+04 1.468e-09
  3.40374     18.3 1.366e+04 1.746e-09
  3.42358     17.7 1.394e+04 2.165e-09
  3.44342     17.3 1.382e+04 2.670e-09
  3.46327     17.5 1.362e+04 3.089e-09
  3.48311     17.9 1.354e+04 3.258e-09
  3.50060     18.4 1.353e+04 3.112e-09
  3.51052     18.5 1.331e+04 2.971e-09
  3.52279     19.4 1.332e+04 2.846e-09
  3.54263     20.0 1.348e+04 2.441e-09
  3.56248     19.7 1.352e+04 1.775e-09
  3.58232     18.2 1.259e+04 1.154e-09
  3.59545     18.0 1.156e+04 8.143e-10
  3.61539     15.2 1.022e+04 7.111e-10
  3.63273     16.2 9.625e+03 5.664e-10
  3.65257     18.6 1.007e+04 5.618e-10
  3.69164     19.8 9.573e+03 5.101e-10
  3.73133     21.8 9.444e+03 5.108e-10
  3.77101     24.1 9.478e+03 5.206e-10
  3.81069     26.4 9.589e+03 5.070e-10
  3.83433     28.1 9.691e+03 5.411e-10
  3.84415     28.0 9.485e+03 4.415e-10
  3.86010     28.3 9.406e+03 4.153e-10
  3.87656     29.8 9.380e+03 4.047e-10
  3.88648     30.7 9.610e+03 5.188e-10
  3.89979     31.7 9.608e+03 5.126e-10
  3.91963     32.7 9.608e+03 5.135e-10
  3.93947     33.8 9.607e+03 5.182e-10
  3.95931     34.9 9.636e+03 5.276e-10
  3.97916     36.0 9.624e+03 5.321e-10
  3.99857     37.2 9.640e+03 5.405e-10
  4.00849     37.7 9.872e+03 5.926e-10
  4.01884     38.9 9.853e+03 5.893e-10
  4.03868     40.0 9.783e+03 5.797e-10
  4.05852     41.3 9.771e+03 5.786e-10
  4.07311     42.6 9.801e+03 5.854e-10
  4.08303     42.4 9.566e+03 5.135e-10
  4.09821     43.9 9.694e+03 5.351e-10
  4.11805     45.1 9.822e+03 5.606e-10
  4.13050     46.4 9.913e+03 5.862e-10
  4.14042     47.0 9.738e+03 5.448e-10
  4.15773     48.3 9.909e+03 5.857e-10
  4.17757     49.4 1.014e+04 6.525e-10
  4.19742     50.4 1.038e+04 7.454e-10
  4.21726     51.3 1.061e+04 8.634e-10
  4.23710     52.3 1.087e+04 1.012e-09
  4.25251     53.3 1.117e+04 1.197e-09
  4.26244     53.7 1.105e+04 1.127e-09
  4.27678     54.6 1.141e+04 1.362e-09
  4.29663     55.5 1.174e+04 1.623e-09
  4.31198     56.4 1.206e+04 1.879e-09
  4.32190     56.5 1.204e+04 1.892e-09
  4.33631     57.4 1.230e+04 1.992e-09
  4.35615     58.3 1.231e+04 1.972e-09
  4.37453     59.0 1.228e+04 1.876e-09
  4.38445     59.6 1.250e+04 2.212e-09
  4.39583     60.2 1.244e+04 2.138e-09
  4.41568     60.7 1.234e+04 2.016e-09
  4.43552     61.1 1.228e+04 1.960e-09
  4.45536     61.2 1.233e+04 1.982e-09
  4.47520     61.2 1.246e+04 2.099e-09
  4.49504     61.4 1.264e+04 2.352e-09
  4.50646     62.1 1.274e+04 2.614e-09
  4.51638     62.2 1.284e+04 2.426e-09
  4.53473     62.6 1.270e+04 2.398e-09
  4.55086     63.1 1.232e+04 2.217e-09
  4.56078     63.2 1.314e+04 2.957e-09
  4.57441     62.6 1.449e+04 2.930e-09
  4.59425     59.9 1.775e+04 3.507e-09
  4.61410     56.0 2.039e+04 5.591e-09
  4.62847     52.5 2.114e+04 9.501e-09
  4.63839     54.4 1.957e+04 3.961e-09
  4.65378     51.2 2.000e+04 6.842e-09
  4.67362     49.3 1.981e+04 1.068e-08
  4.69346     48.2 1.942e+04 1.336e-08
  4.71331     47.9 1.884e+04 1.320e-08
  4.73315     48.0 1.817e+04 1.033e-08
  4.75048     47.6 1.710e+04 5.987e-09
  4.76041     48.0 1.642e+04 6.042e-09
  4.77283     47.0 1.536e+04 3.362e-09
  4.78973     45.1 1.354e+04 1.654e-09
  4.79965     43.2 1.186e+04 1.086e-09
  4.81251     42.4 1.052e+04 7.105e-10
  4.83236     42.8 1.007e+04 5.261e-10
  4.85220     43.3 9.984e+03 4.413e-10
  4.87204     44.3 9.865e+03 3.765e-10
  4.88242     45.0 9.832e+03 3.515e-10
  4.89234     45.7 1.004e+04 4.439e-10
  4.92174     47.3 9.998e+03 4.284e-10
  4.96152     50.0 9.627e+03 3.533e-10
  5.00121     52.7 9.564e+03 3.448e-10
  5.02880     55.5 9.647e+03 3.631e-10
  5.04864     56.0 9.281e+03 2.643e-10
  5.08058     58.8 9.504e+03 3.127e-10
  5.11672     61.5 9.842e+03 4.084e-10
  5.13656     62.3 9.839e+03 4.357e-10
  5.15994     65.2 1.020e+04 5.751e-10
  5.19963     68.1 1.059e+04 7.519e-10
  5.23931     70.9 1.096e+04 9.176e-10
  5.27899     73.4 1.116e+04 9.739e-10
  5.31868     75.6 1.115e+04 9.610e-10
  5.35836     78.1 1.102e+04 8.788e-10
  5.38058     80.5 1.079e+04 7.405e-10
  5.40042     80.7 1.042e+04 5.851e-10
  5.43773     83.0 1.021e+04 4.988e-10
  5.47741     85.3 1.005e+04 4.381e-10
  5.50655     87.6 9.928e+03 3.935e-10
  5.52640     87.5 9.915e+03 3.969e-10
  5.55678     89.7 9.834e+03 3.732e-10
  5.59646     92.0 9.815e+03 3.718e-10
  5.62461     94.2 9.844e+03 3.798e-10
  5.64445     94.7 9.932e+03 4.005e-10
  5.67583     96.5 9.951e+03 4.062e-10
  5.71552     98.1 9.987e+03 4.137e-10
  5.75520     99.5 1.000e+04 4.140e-10
  5.79488    100.5 9.972e+03 3.961e-10
  5.83457    101.3 9.957e+03 3.663e-10
  5.86863    101.7 9.961e+03 3.434e-10
  5.88847    102.3 1.000e+04 3.491e-10
  5.91394    102.9 1.000e+04 3.388e-10
  5.95362    103.4 9.984e+03 3.262e-10
  5.98430    103.9 1.001e+04 3.096e-10
  6.00415    103.8 1.001e+04 2.945e-10
  6.03299    104.5 1.001e+04 2.586e-10
  6.07267    105.2 9.973e+03 2.578e-10
  6.11235    106.0 1.017e+04 2.771e-10
  6.13250    107.3 1.044e+04 3.256e-10
  6.15234    107.8 9.843e+03 2.247e-10
  6.19172    108.7 1.006e+04 2.719e-10
  6.23141    109.5 1.024e+04 3.474e-10
  6.25441    109.5 1.037e+04 4.293e-10
  6.26423    109.7 1.025e+04 3.865e-10
  6.28081    109.8 1.030e+04 4.416e-10
  6.30066    110.0 1.037e+04 4.984e-10
  6.32050    110.0 1.047e+04 5.430e-10
  6.34034    109.8 1.064e+04 5.955e-10
  6.36018    109.0 1.102e+04 7.140e-10
  6.37633    106.9 1.176e+04 1.008e-09
  6.38625    108.0 1.149e+04 8.256e-10
  6.39987    105.0 1.258e+04 1.324e-09
  6.41971    101.4 1.368e+04 2.350e-09
  6.43955     98.2 1.448e+04 3.654e-09
  6.45939     95.1 1.480e+04 3.987e-09
  6.47178     91.9 1.472e+04 3.738e-09
  6.48170     90.9 1.516e+04 4.062e-09
  6.49834     87.5 1.443e+04 2.739e-09
  6.50826     88.5 1.474e+04 3.245e-09
  6.51892     84.8 1.358e+04 1.895e-09
  6.53876     80.7 1.174e+04 1.083e-09
  6.55860     77.8 1.045e+04 8.163e-10
  6.57844     77.3 1.027e+04 7.719e-10
  6.59829     77.2 1.021e+04 7.502e-10
  6.61813     77.3 1.012e+04 7.135e-10
  6.63027     77.4 9.998e+03 6.595e-10
  6.64019     77.8 1.017e+04 7.459e-10
  6.65781     77.9 1.000e+04 6.658e-10
  6.67765     78.0 9.812e+03 5.833e-10
  6.69749     78.0 9.616e+03 5.068e-10
  6.71065     77.9 9.426e+03 4.464e-10
  6.72058     77.3 9.375e+03 4.277e-10
  6.73718     77.2 9.223e+03 4.124e-10
  6.75228     77.3 9.207e+03 4.133e-10
  6.76220     77.3 9.393e+03 4.544e-10
  6.77686     77.2 9.428e+03 4.648e-10
  6.79670     77.0 9.588e+03 5.088e-10
  6.81655     76.8 9.846e+03 5.986e-10
  6.83639     76.6 1.017e+04 7.310e-10
  6.85623     76.3 1.051e+04 8.963e-10
  6.87430     76.1 1.082e+04 1.065e-09
  6.88422     76.0 1.111e+04 1.238e-09
  6.89591     75.8 1.127e+04 1.335e-09
  6.91576     75.4 1.135e+04 1.339e-09
  6.93560     74.8 1.142e+04 1.350e-09
  6.94953     73.9 1.155e+04 1.375e-09
  6.95945     73.2 1.149e+04 1.322e-09
  6.97528     71.9 1.153e+04 1.346e-09
  6.99512     70.5 1.145e+04 1.330e-09
  7.00623     69.2 1.142e+04 1.304e-09
  7.01615     69.1 1.186e+04 1.518e-09
  7.03481     65.4 1.284e+04 2.003e-09
  7.05465     59.5 1.518e+04 3.205e-09
  7.07449     53.8 1.640e+04 4.702e-09
  7.08932     50.0 1.659e+04 5.442e-09
  7.09920     47.8 1.609e+04 5.247e-09
  7.11413     45.4 1.506e+04 4.187e-09
  7.12824     41.6 1.388e+04 2.450e-09
  7.13816     41.8 1.474e+04 2.968e-09
  7.15386     35.5 1.303e+04 1.339e-09
  7.17370     29.0 1.061e+04 6.616e-10
  7.18840     26.4 9.615e+03 4.948e-10
  7.19833     26.3 9.541e+03 4.566e-10
  7.21338     25.5 9.521e+03 3.911e-10
  7.23323     25.1 9.551e+03 3.631e-10
  7.26309     23.7 9.650e+03 3.347e-10
  7.30287     23.2 9.467e+03 2.820e-10
  7.34255     23.1 9.261e+03 2.339e-10
  7.37246     23.2 9.194e+03 2.190e-10
  7.39230     22.3 9.562e+03 2.698e-10
  7.41190     22.8 9.484e+03 2.538e-10
  7.42728     22.9 9.502e+03 2.555e-10
  7.43730     23.1 9.561e+03 2.515e-10
  7.45158     23.7 9.538e+03 2.672e-10
  7.47133     23.8 9.618e+03 2.825e-10
  7.49117     23.9 9.697e+03 3.069e-10
  7.50420     24.1 9.869e+03 3.405e-10
  7.51412     22.7 1.043e+04 4.237e-10
  7.53085     21.5 1.148e+04 5.869e-10
  7.55070     18.1 1.389e+04 1.170e-09
  7.57054     13.5 1.502e+04 2.553e-09
  7.59038     13.5 1.500e+04 4.582e-09
  7.61022     14.5 1.489e+04 6.017e-09
  7.62621     15.7 1.489e+04 5.910e-09
  7.63613     15.6 1.515e+04 5.778e-09
  7.64991     15.1 1.519e+04 4.018e-09
  7.66615     12.5 1.485e+04 2.397e-09
  7.67608     14.5 1.473e+04 2.388e-09
  7.68959     10.1 1.352e+04 1.402e-09
  7.70943      6.0 1.194e+04 1.171e-09
  7.72927      4.2 1.178e+04 1.312e-09
  7.74822      3.2 1.218e+04 1.763e-09
  7.75814      3.0 1.233e+04 2.034e-09
  7.76896      2.6 1.307e+04 2.597e-09
  7.78880      2.4 1.373e+04 3.039e-09
  7.80864      2.1 1.378e+04 2.902e-09
  7.82848      2.4 1.315e+04 2.338e-09
  7.84832      2.0 1.249e+04 1.555e-09
  7.86817      0.8 1.191e+04 1.022e-09
  7.88016     -1.1 1.141e+04 6.708e-10
  7.89008     -1.4 1.116e+04 6.118e-10
  7.90503     -3.5 1.117e+04 5.351e-10
  7.91495     -2.0 1.112e+04 5.098e-10
  7.92769     -3.9 1.089e+04 5.520e-10
  7.94753     -5.4 1.075e+04 6.276e-10
  7.96738     -5.2 1.069e+04 8.614e-10
  7.98722     -4.0 1.055e+04 1.001e-09
  8.00217     -2.7 1.072e+04 9.971e-10
  8.01209     -3.4 1.153e+04 1.468e-09
  8.02690     -2.4 1.197e+04 1.536e-09
  8.04674     -2.2 1.236e+04 1.450e-09
  8.06659     -2.6 1.260e+04 1.442e-09
  8.08643     -3.1 1.270e+04 1.508e-09
  8.10627     -3.4 1.285e+04 1.644e-09
  8.12418     -3.0 1.290e+04 1.846e-09
  8.13410     -4.3 1.500e+04 5.066e-09
  8.14390     -3.4 1.492e+04 5.210e-09
  8.15383     -2.2 1.371e+04 3.147e-09
  8.16579     -0.6 1.347e+04 2.996e-09
  8.18564      1.0 1.319e+04 2.623e-09
  8.20548      2.2 1.288e+04 2.162e-09
  8.22532      3.4 1.249e+04 1.734e-09
  8.24516      4.1 1.211e+04 1.348e-09
  8.25611      4.1 1.197e+04 1.213e-09
  8.26603      3.6 1.257e+04 1.630e-09
  8.29486      4.9 1.197e+04 1.279e-09
  8.33465      7.2 1.124e+04 9.037e-10
  8.36840      9.5 1.071e+04 7.118e-10
  8.38697      8.8 1.085e+04 9.279e-10
  8.39290     10.0 1.117e+04 1.114e-09
  8.41401     12.8 1.081e+04 9.124e-10
  8.45370     15.6 1.046e+04 7.272e-10
  8.49338     18.4 1.023e+04 6.171e-10
  8.53307     21.1 1.017e+04 5.916e-10
  8.57275     23.8 1.030e+04 6.539e-10
  8.61242     26.4 1.100e+04 8.934e-10
  8.65211     28.4 1.126e+04 1.008e-09
  8.69180     29.7 1.229e+04 1.624e-09
  8.72147     30.2 1.314e+04 2.646e-09
  8.74121     31.4 1.358e+04 3.540e-09
  8.75408     32.6 1.393e+04 4.229e-09
  8.76400     32.8 1.369e+04 3.545e-09
  8.78089     33.6 1.375e+04 3.714e-09
  8.80074     34.1 1.368e+04 3.643e-09
  8.82058     34.5 1.348e+04 3.403e-09
  8.84042     34.8 1.320e+04 3.084e-09
  8.86026     34.9 1.293e+04 2.785e-09
  8.87045     35.2 1.269e+04 2.533e-09
  8.87636     35.7 1.289e+04 2.869e-09
  8.88602     35.7 1.261e+04 2.534e-09
  8.89995     36.2 1.243e+04 2.351e-09
  8.91979     36.6 1.230e+04 2.192e-09
  8.93963     37.2 1.224e+04 2.058e-09
  8.95947     37.5 1.220e+04 1.946e-09
  8.97931     37.7 1.218e+04 1.852e-09
  8.99811     37.9 1.217e+04 1.807e-09
  9.00803     37.7 1.246e+04 1.665e-09
  9.01900     37.6 1.264e+04 1.755e-09
  9.03884     37.4 1.279e+04 1.935e-09
  9.05868     37.2 1.298e+04 2.166e-09
  9.07852     36.9 1.320e+04 2.444e-09
  9.09836     36.9 1.339e+04 2.682e-09
  9.10933     37.0 1.345e+04 2.731e-09
  9.11925     38.0 1.313e+04 2.447e-09
  9.13004     38.0 1.318e+04 2.390e-09
  9.13996     36.8 1.355e+04 3.087e-09
  9.15789     36.6 1.330e+04 2.908e-09
  9.17773     36.2 1.295e+04 2.670e-09
  9.19757     35.8 1.266e+04 2.574e-09
  9.21742     35.5 1.258e+04 2.573e-09
  9.23726     35.3 1.268e+04 2.616e-09
  9.25205     35.4 1.307e+04 2.726e-09
  9.26197     33.6 1.423e+04 3.147e-09
  9.27694     33.6 1.427e+04 3.142e-09
  9.29678     33.8 1.403e+04 2.977e-09
  9.31662     34.1 1.364e+04 2.700e-09
  9.33647     34.5 1.323e+04 2.412e-09
  9.34820     34.9 1.292e+04 2.114e-09
  9.35812     36.1 1.321e+04 2.376e-09
  9.37406     36.6 1.295e+04 2.139e-09
  9.38399     35.0 1.288e+04 1.955e-09
  9.39599     35.2 1.290e+04 1.736e-09
  9.41583     35.0 1.300e+04 1.591e-09
  9.43568     34.7 1.332e+04 1.534e-09
  9.45552     34.3 1.367e+04 1.566e-09
  9.47536     33.5 1.378e+04 1.727e-09
  9.49520     33.0 1.353e+04 1.970e-09
