# Columns:
#   distance along LOS (in CHIMPs)
#   peculiar velocity  (in km/s)
#   temperature (K)
#   HI number density
# pos=(156.858,162.635,157.47), angles=(1.31168,4.68636)
  0.00925     57.7 1.009e+04 3.473e-10
  0.02035     57.9 1.005e+04 3.487e-10
  0.04242     59.5 9.952e+03 3.194e-10
  0.08284     61.2 9.802e+03 2.654e-10
  0.12327     62.8 9.650e+03 2.057e-10
  0.15722     64.2 9.547e+03 1.826e-10
  0.17743     64.1 9.148e+03 1.381e-10
  0.20412     65.6 9.167e+03 1.428e-10
  0.24455     67.2 9.285e+03 1.757e-10
  0.28497     69.2 9.571e+03 2.568e-10
  0.31429     71.5 9.985e+03 3.775e-10
  0.33451     71.4 9.894e+03 3.613e-10
  0.35562     72.1 1.019e+04 4.724e-10
  0.37573     72.8 1.044e+04 5.932e-10
  0.39264     73.6 1.069e+04 7.336e-10
  0.40274     73.4 1.066e+04 7.302e-10
  0.41616     74.2 1.091e+04 8.545e-10
  0.43637     74.7 1.122e+04 9.819e-10
  0.45658     74.6 1.163e+04 1.157e-09
  0.47118     74.1 1.224e+04 1.531e-09
  0.48128     74.0 1.197e+04 1.382e-09
  0.49701     73.3 1.257e+04 1.863e-09
  0.51722     73.2 1.319e+04 2.580e-09
  0.53743     73.4 1.365e+04 3.255e-09
  0.54971     73.6 1.383e+04 3.416e-09
  0.55982     73.5 1.351e+04 2.902e-09
  0.57786     73.3 1.353e+04 2.846e-09
  0.59807     73.0 1.340e+04 2.535e-09
  0.61815     72.1 1.307e+04 2.042e-09
  0.62825     71.9 1.296e+04 1.976e-09
  0.63850     70.7 1.264e+04 1.602e-09
  0.65871     69.2 1.249e+04 1.391e-09
  0.67093     67.3 1.258e+04 1.417e-09
  0.68104     67.2 1.295e+04 1.603e-09
  0.69669     62.7 1.477e+04 2.376e-09
  0.70679     59.0 1.677e+04 4.355e-09
  0.71935     54.0 1.866e+04 9.570e-09
  0.73956     51.0 1.887e+04 1.504e-08
  0.75977     50.2 1.831e+04 1.429e-08
  0.77522     49.6 1.762e+04 1.126e-08
  0.78533     48.4 1.769e+04 8.847e-09
  0.80020     43.2 1.791e+04 5.448e-09
  0.82041     37.4 1.582e+04 3.434e-09
  0.84062     35.1 1.329e+04 2.404e-09
  0.85376     35.5 1.208e+04 1.753e-09
  0.86387     35.1 1.240e+04 2.149e-09
  0.88105     36.6 1.215e+04 1.382e-09
  0.90126     35.8 1.193e+04 7.924e-10
  0.92229     34.0 1.082e+04 4.055e-10
  0.94260     32.8 1.097e+04 4.555e-10
  0.97220     32.5 1.017e+04 3.617e-10
  1.01263     33.9 9.908e+03 3.417e-10
  1.05305     35.9 9.736e+03 3.122e-10
  1.07947     37.9 9.573e+03 2.778e-10
  1.09968     37.7 9.655e+03 2.857e-10
  1.13390     39.8 9.468e+03 2.567e-10
  1.17433     41.9 9.244e+03 2.297e-10
  1.21475     44.2 9.062e+03 2.013e-10
  1.23654     46.6 8.895e+03 1.670e-10
  1.25676     46.9 8.980e+03 2.003e-10
  1.29560     49.2 8.905e+03 1.709e-10
  1.33603     51.5 8.993e+03 1.753e-10
  1.37341     53.8 9.244e+03 2.096e-10
  1.39362     53.8 9.721e+03 2.921e-10
  1.40667     55.2 9.707e+03 3.057e-10
  1.42679     55.6 9.760e+03 3.302e-10
  1.44309     56.1 1.004e+04 4.357e-10
  1.45320     55.8 1.006e+04 4.344e-10
  1.46186     56.1 1.056e+04 6.319e-10
  1.47196     56.1 1.092e+04 8.184e-10
  1.48743     56.6 1.152e+04 1.175e-09
  1.50764     57.0 1.217e+04 1.665e-09
  1.52785     57.4 1.279e+04 2.255e-09
  1.54040     57.7 1.339e+04 2.894e-09
  1.55050     57.3 1.368e+04 3.187e-09
  1.56828     57.0 1.423e+04 3.702e-09
  1.58849     55.9 1.503e+04 4.615e-09
  1.60870     54.9 1.565e+04 5.842e-09
  1.61894     54.1 1.556e+04 5.924e-09
  1.62904     54.0 1.469e+04 3.784e-09
  1.64913     53.5 1.421e+04 3.220e-09
  1.66934     53.0 1.339e+04 2.445e-09
  1.68737     52.2 1.252e+04 1.737e-09
  1.69747     50.6 1.198e+04 1.425e-09
  1.70977     50.6 1.166e+04 1.276e-09
  1.72998     50.9 1.144e+04 1.128e-09
  1.75019     51.0 1.154e+04 1.029e-09
  1.76591     50.9 1.166e+04 1.030e-09
  1.77601     51.3 1.210e+04 1.426e-09
  1.79062     50.7 1.271e+04 1.608e-09
  1.81083     49.3 1.329e+04 2.097e-09
  1.83104     48.8 1.396e+04 3.096e-09
  1.84444     49.3 1.407e+04 3.417e-09
  1.85455     48.8 1.530e+04 6.172e-09
  1.87147     50.3 1.515e+04 5.762e-09
  1.89168     52.4 1.474e+04 4.202e-09
  1.91189     52.6 1.437e+04 2.347e-09
  1.92298     51.3 1.383e+04 1.051e-09
  1.93309     52.9 1.513e+04 1.741e-09
  1.95232     49.5 1.392e+04 6.455e-10
  1.97253     46.8 1.133e+04 3.501e-10
  1.99142     46.4 1.099e+04 3.394e-10
  2.00152     46.3 1.120e+04 3.564e-10
  2.02316     47.1 1.052e+04 2.798e-10
  2.06368     48.5 1.030e+04 2.416e-10
  2.10411     50.2 1.047e+04 2.537e-10
  2.13858     51.9 1.081e+04 3.144e-10
  2.15879     52.6 1.096e+04 3.355e-10
  2.18496     54.4 1.127e+04 4.404e-10
  2.21544     56.2 1.157e+04 5.890e-10
  2.23566     56.6 1.161e+04 6.074e-10
  2.26581     58.5 1.202e+04 7.995e-10
  2.29556     59.1 1.235e+04 9.921e-10
  2.30557     59.5 1.244e+04 1.060e-09
  2.31615     59.5 1.288e+04 1.340e-09
  2.33636     59.6 1.328e+04 1.712e-09
  2.35657     59.8 1.372e+04 2.288e-09
  2.37400     60.2 1.407e+04 3.019e-09
  2.38411     60.5 1.430e+04 3.181e-09
  2.39700     61.3 1.456e+04 3.784e-09
  2.41721     61.8 1.463e+04 3.865e-09
  2.43742     62.2 1.456e+04 3.694e-09
  2.45254     62.5 1.429e+04 3.106e-09
  2.46265     62.5 1.415e+04 2.833e-09
  2.47785     62.3 1.376e+04 2.280e-09
  2.50826     62.3 1.318e+04 1.707e-09
  2.54879     62.3 1.258e+04 1.245e-09
  2.58921     62.6 1.207e+04 9.262e-10
  2.60981     62.9 1.169e+04 7.057e-10
  2.63003     63.8 1.177e+04 7.581e-10
  2.67006     64.3 1.154e+04 6.601e-10
  2.70028     64.8 1.151e+04 6.757e-10
  2.72040     65.4 1.139e+04 6.368e-10
  2.74061     66.2 1.123e+04 5.636e-10
  2.75659     66.9 1.113e+04 4.788e-10
  2.76669     67.5 1.120e+04 5.390e-10
  2.78104     68.1 1.112e+04 4.472e-10
  2.80125     68.2 1.112e+04 4.003e-10
  2.82146     68.3 1.116e+04 4.044e-10
  2.83513     68.0 1.133e+04 4.445e-10
  2.84523     69.1 1.133e+04 4.633e-10
  2.86189     68.8 1.151e+04 5.649e-10
  2.88210     69.0 1.163e+04 7.558e-10
  2.90231     69.7 1.169e+04 1.005e-09
  2.91367     70.8 1.192e+04 1.249e-09
  2.92377     71.5 1.192e+04 1.230e-09
  2.94274     72.4 1.219e+04 1.341e-09
  2.96295     72.6 1.223e+04 1.332e-09
  2.98210     73.0 1.212e+04 1.223e-09
  2.99220     73.7 1.213e+04 1.228e-09
  2.99751     73.8 1.203e+04 1.151e-09
  3.00762     74.0 1.185e+04 1.017e-09
  3.03379     73.7 1.193e+04 1.072e-09
  3.06073     74.9 1.176e+04 9.623e-10
  3.08095     76.2 1.190e+04 1.032e-09
  3.10454     76.1 1.198e+04 9.948e-10
  3.12465     75.7 1.246e+04 1.074e-09
  3.13918     75.3 1.288e+04 1.352e-09
  3.14928     76.6 1.253e+04 1.151e-09
  3.16508     76.5 1.285e+04 1.397e-09
  3.18529     76.6 1.293e+04 1.557e-09
  3.20550     76.8 1.288e+04 1.535e-09
  3.21771     76.9 1.276e+04 1.373e-09
  3.22782     78.0 1.275e+04 1.328e-09
  3.24593     77.8 1.266e+04 1.121e-09
  3.26614     77.1 1.253e+04 9.217e-10
  3.28615     76.2 1.219e+04 8.072e-10
  3.29625     77.5 1.241e+04 8.761e-10
  3.30656     76.7 1.207e+04 8.606e-10
  3.32678     76.5 1.179e+04 8.694e-10
  3.34699     76.8 1.158e+04 8.474e-10
  3.36468     77.3 1.143e+04 7.767e-10
  3.37479     78.1 1.188e+04 1.086e-09
  3.38741     78.5 1.181e+04 1.003e-09
  3.40763     78.7 1.178e+04 8.337e-10
  3.42784     78.5 1.176e+04 6.677e-10
  3.44322     78.1 1.168e+04 5.503e-10
  3.45333     79.1 1.229e+04 9.290e-10
  3.46827     78.4 1.218e+04 7.960e-10
  3.48848     77.7 1.204e+04 7.830e-10
  3.50869     77.1 1.202e+04 8.207e-10
  3.52176     76.8 1.204e+04 9.426e-10
  3.53187     77.1 1.267e+04 1.354e-09
  3.54912     76.9 1.273e+04 1.540e-09
  3.56933     77.1 1.290e+04 1.772e-09
  3.58954     77.2 1.309e+04 1.918e-09
  3.60030     77.1 1.317e+04 1.933e-09
  3.61041     77.3 1.342e+04 2.141e-09
  3.64017     77.0 1.314e+04 1.943e-09
  3.66893     77.2 1.252e+04 1.353e-09
  3.68914     77.5 1.252e+04 1.324e-09
  3.72112     78.2 1.178e+04 7.983e-10
  3.75976     79.3 1.114e+04 4.327e-10
  3.77997     80.7 1.138e+04 5.474e-10
  3.80197     81.8 1.097e+04 3.419e-10
  3.82600     83.0 1.071e+04 2.112e-10
  3.84622     83.7 1.090e+04 2.837e-10
  3.88282     85.1 1.067e+04 1.849e-10
  3.92324     86.5 1.048e+04 1.433e-10
  3.96287     88.1 1.036e+04 1.309e-10
  3.98308     88.7 1.044e+04 1.335e-10
  4.00410     90.4 1.030e+04 1.253e-10
  4.04452     92.3 1.021e+04 1.233e-10
  4.08495     94.3 1.017e+04 1.216e-10
  4.11995     96.2 1.022e+04 1.155e-10
  4.14016     96.7 1.022e+04 1.109e-10
  4.16580     98.6 1.026e+04 1.049e-10
  4.20622    100.4 1.027e+04 1.046e-10
  4.24665    102.2 1.029e+04 1.070e-10
  4.27702    103.9 1.034e+04 1.156e-10
  4.29724    104.5 1.035e+04 1.149e-10
  4.32750    106.2 1.042e+04 1.315e-10
  4.36792    107.9 1.048e+04 1.415e-10
  4.40835    109.4 1.048e+04 1.406e-10
  4.43410    110.9 1.045e+04 1.343e-10
  4.45431    111.4 1.046e+04 1.411e-10
  4.48920    112.8 1.038e+04 1.259e-10
  4.52962    113.9 1.024e+04 1.126e-10
  4.57005    115.0 1.013e+04 1.108e-10
  4.59118    116.1 1.011e+04 1.124e-10
  4.61139    116.8 1.011e+04 1.135e-10
  4.65090    117.7 1.007e+04 1.218e-10
  4.69132    118.6 1.006e+04 1.398e-10
  4.72804    119.3 1.008e+04 1.648e-10
  4.74826    120.1 1.009e+04 1.661e-10
  4.77218    120.6 1.013e+04 1.952e-10
  4.81260    120.9 1.017e+04 2.284e-10
  4.85303    121.0 1.019e+04 2.674e-10
  4.88512    121.1 1.014e+04 2.852e-10
  4.90533    122.1 1.022e+04 3.033e-10
  4.93388    122.2 1.019e+04 3.039e-10
  4.97430    122.4 1.008e+04 2.868e-10
  5.01473    122.6 9.899e+03 2.339e-10
  5.04220    122.8 9.737e+03 1.732e-10
  5.06241    123.6 9.923e+03 2.288e-10
  5.09558    123.7 9.751e+03 1.647e-10
  5.13600    123.7 9.519e+03 1.372e-10
  5.17643    124.0 9.439e+03 1.370e-10
  5.19927    124.7 9.402e+03 1.394e-10
  5.21949    125.0 9.540e+03 1.573e-10
  5.25728    125.9 9.487e+03 1.703e-10
  5.29770    127.0 9.492e+03 1.921e-10
  5.32428    128.0 9.510e+03 2.067e-10
  5.34250    128.5 9.542e+03 2.133e-10
  5.35635    128.5 9.724e+03 2.465e-10
  5.37855    129.5 9.717e+03 2.464e-10
  5.41898    130.5 9.654e+03 2.381e-10
  5.45940    131.5 9.553e+03 2.160e-10
  5.49322    132.6 9.436e+03 1.849e-10
  5.51343    132.6 9.524e+03 1.920e-10
  5.54026    133.6 9.385e+03 1.565e-10
  5.58068    134.7 9.225e+03 1.315e-10
  5.62111    135.9 9.124e+03 1.262e-10
  5.65029    137.3 9.126e+03 1.270e-10
  5.67051    137.3 9.156e+03 1.293e-10
  5.70196    138.7 9.191e+03 1.360e-10
  5.74238    139.9 9.270e+03 1.517e-10
  5.78281    141.2 9.363e+03 1.728e-10
  5.80737    142.4 9.443e+03 1.961e-10
  5.82758    142.3 9.451e+03 1.921e-10
  5.86366    143.5 9.536e+03 2.089e-10
  5.90408    144.7 9.619e+03 2.195e-10
  5.94423    145.9 9.669e+03 2.202e-10
  5.96445    145.9 9.520e+03 1.647e-10
  5.98493    147.1 9.499e+03 1.461e-10
  6.02536    148.2 9.437e+03 1.264e-10
  6.06578    149.3 9.321e+03 1.122e-10
  6.10131    150.4 9.259e+03 1.101e-10
  6.12152    150.5 9.052e+03 8.456e-11
  6.14663    151.6 9.025e+03 9.821e-11
  6.18706    152.7 9.167e+03 1.292e-10
  6.22748    153.8 9.410e+03 1.811e-10
  6.25839    154.7 9.708e+03 2.542e-10
  6.27860    155.1 9.700e+03 2.537e-10
  6.30834    155.5 9.973e+03 3.351e-10
  6.34876    155.5 1.015e+04 3.943e-10
  6.38919    155.2 1.028e+04 4.240e-10
  6.41547    154.5 1.036e+04 4.301e-10
  6.43568    155.1 1.007e+04 3.501e-10
  6.47004    154.2 9.955e+03 3.067e-10
  6.51046    153.4 9.936e+03 2.998e-10
  6.55089    152.9 1.002e+04 3.121e-10
  6.57244    152.5 1.007e+04 3.187e-10
  6.58245    153.1 9.850e+03 2.683e-10
  6.60122    152.4 1.010e+04 3.164e-10
  6.62144    150.9 1.062e+04 4.614e-10
  6.64078    149.0 1.149e+04 8.181e-10
  6.65089    149.9 1.127e+04 6.794e-10
  6.66186    147.8 1.244e+04 1.371e-09
  6.68207    146.3 1.348e+04 2.548e-09
  6.70229    145.1 1.420e+04 3.582e-09
  6.71932    143.7 1.433e+04 3.630e-09
  6.72942    144.5 1.465e+04 4.165e-09
  6.74271    143.2 1.453e+04 3.862e-09
  6.76292    141.9 1.396e+04 2.722e-09
  6.78314    139.9 1.289e+04 1.439e-09
  6.79786    136.8 1.131e+04 6.607e-10
  6.80796    138.0 1.174e+04 7.312e-10
  6.82356    133.8 9.872e+03 3.754e-10
  6.84377    131.9 9.415e+03 3.439e-10
  6.86399    131.8 9.405e+03 3.438e-10
  6.87640    131.7 9.413e+03 3.474e-10
  6.88081    131.7 9.479e+03 3.756e-10
  6.88861    132.3 9.323e+03 3.432e-10
  6.90441    132.0 9.408e+03 3.593e-10
  6.92463    131.7 9.557e+03 3.907e-10
  6.94483    131.3 9.754e+03 4.477e-10
  6.96504    130.6 1.012e+04 6.022e-10
  6.98526    130.5 1.030e+04 7.040e-10
  7.00548    130.4 1.045e+04 8.046e-10
  7.02337    130.3 1.054e+04 8.648e-10
  7.03347    129.9 1.053e+04 8.548e-10
  7.04590    129.9 1.050e+04 8.364e-10
  7.06611    129.9 1.037e+04 7.729e-10
  7.08633    129.8 1.017e+04 6.730e-10
  7.10190    129.6 9.933e+03 5.655e-10
  7.11201    128.9 9.684e+03 4.925e-10
  7.12675    128.6 9.464e+03 4.297e-10
  7.14696    128.3 9.291e+03 4.064e-10
  7.16718    128.4 9.278e+03 4.062e-10
  7.18044    128.6 9.339e+03 4.155e-10
  7.19055    128.3 9.355e+03 4.214e-10
  7.20760    128.0 9.596e+03 4.738e-10
  7.22781    127.0 1.035e+04 6.689e-10
  7.24803    124.6 1.195e+04 1.221e-09
  7.25898    122.4 1.362e+04 2.508e-09
  7.26909    121.4 1.438e+04 3.438e-09
  7.28845    121.5 1.588e+04 6.726e-09
  7.30867    121.8 1.713e+04 1.064e-08
  7.32741    121.2 1.759e+04 1.131e-08
  7.33752    119.6 1.756e+04 1.101e-08
  7.34909    118.6 1.737e+04 9.909e-09
  7.36930    117.6 1.678e+04 7.297e-09
  7.38952    115.9 1.593e+04 4.952e-09
  7.40595    113.6 1.496e+04 3.674e-09
  7.41606    111.2 1.436e+04 3.244e-09
  7.42994    110.4 1.429e+04 3.269e-09
  7.45015    109.9 1.448e+04 3.497e-09
  7.47037    109.3 1.499e+04 4.101e-09
  7.48449    108.7 1.562e+04 5.088e-09
  7.49460    107.3 1.504e+04 4.244e-09
  7.51079    106.8 1.545e+04 4.904e-09
  7.53100    106.2 1.592e+04 5.356e-09
  7.55122    105.3 1.621e+04 5.284e-09
  7.56303    104.1 1.630e+04 4.751e-09
  7.57314    102.3 1.497e+04 4.044e-09
  7.59164    100.8 1.471e+04 3.489e-09
  7.61185     99.3 1.424e+04 2.669e-09
  7.63146     98.0 1.356e+04 1.920e-09
  7.64157     97.9 1.332e+04 1.840e-09
  7.65066     97.0 1.266e+04 1.369e-09
  7.66077     97.6 1.341e+04 2.092e-09
  7.68270     96.6 1.231e+04 1.171e-09
  7.72322     95.7 1.152e+04 8.001e-10
  7.76364     95.8 1.148e+04 7.634e-10
  7.78873     95.9 1.166e+04 8.056e-10
  7.80895     95.3 1.158e+04 8.058e-10
  7.83429     94.6 1.189e+04 8.891e-10
  7.85441     94.0 1.202e+04 9.450e-10
  7.86708     93.1 1.237e+04 1.126e-09
  7.87718     92.8 1.236e+04 1.151e-09
  7.89483     92.4 1.253e+04 1.293e-09
  7.91504     91.9 1.265e+04 1.317e-09
  7.93526     91.4 1.259e+04 1.289e-09
  7.94562     91.1 1.232e+04 1.123e-09
  7.96593     90.8 1.253e+04 1.185e-09
  8.00620     89.3 1.180e+04 7.319e-10
  8.04662     87.3 1.084e+04 4.155e-10
  8.08268     85.5 1.024e+04 2.822e-10
  8.10289     84.1 1.026e+04 3.082e-10
  8.12747     83.2 1.005e+04 2.477e-10
  8.16790     82.4 9.961e+03 1.877e-10
  8.20832     80.9 9.949e+03 1.577e-10
  8.23975     79.0 9.956e+03 1.638e-10
  8.25997     77.9 9.840e+03 1.625e-10
  8.28917     76.1 9.963e+03 2.148e-10
  8.32960     74.9 1.004e+04 2.784e-10
  8.37002     73.9 1.001e+04 2.777e-10
  8.39683     73.1 9.810e+03 2.338e-10
  8.41704     72.7 9.843e+03 2.377e-10
  8.43312     71.8 9.562e+03 1.500e-10
  8.45334     72.4 9.561e+03 1.490e-10
  8.49130     71.0 9.314e+03 1.003e-10
  8.53172     69.9 9.177e+03 9.857e-11
  8.55391     69.3 9.146e+03 1.119e-10
  8.57412     69.0 9.092e+03 9.823e-11
  8.61258     69.1 9.126e+03 1.212e-10
  8.65300     69.5 9.155e+03 1.251e-10
  8.69077     69.9 9.131e+03 1.172e-10
  8.71098     69.8 9.086e+03 9.137e-11
  8.73385     69.8 9.064e+03 7.509e-11
  8.77428     69.7 9.092e+03 6.605e-11
  8.81470     69.8 9.093e+03 6.852e-11
  8.84785     70.1 9.152e+03 7.916e-11
  8.86806     69.6 9.254e+03 8.643e-11
  8.89555     69.1 9.654e+03 1.494e-10
  8.93598     68.2 1.054e+04 3.697e-10
  8.97640     67.0 1.184e+04 9.070e-10
  9.00493     65.4 1.299e+04 1.713e-09
  9.02514     64.7 1.283e+04 1.580e-09
  9.05725     62.1 1.301e+04 1.767e-09
  9.08337     60.4 1.316e+04 1.879e-09
  9.09338     60.1 1.301e+04 1.776e-09
  9.10759     59.2 1.281e+04 1.654e-09
  9.12780     58.4 1.256e+04 1.482e-09
  9.14801     57.5 1.238e+04 1.283e-09
  9.16181     56.2 1.226e+04 1.122e-09
  9.17191     56.8 1.213e+04 1.054e-09
  9.18844     55.6 1.204e+04 1.026e-09
  9.20508     54.7 1.203e+04 1.053e-09
  9.21519     55.6 1.220e+04 1.210e-09
  9.22887     54.9 1.235e+04 1.344e-09
  9.24035     52.9 1.319e+04 1.781e-09
  9.25045     53.9 1.314e+04 1.773e-09
  9.26929     50.6 1.494e+04 3.192e-09
  9.28950     49.2 1.559e+04 5.495e-09
  9.30878     49.8 1.533e+04 5.447e-09
  9.31889     50.4 1.590e+04 6.540e-09
  9.32993     51.0 1.557e+04 5.768e-09
  9.35014     50.8 1.529e+04 4.094e-09
  9.37035     48.9 1.483e+04 2.541e-09
  9.38732     45.6 1.357e+04 1.593e-09
  9.39742     46.1 1.393e+04 1.897e-09
  9.41078     43.4 1.258e+04 1.387e-09
  9.43099     42.7 1.191e+04 1.246e-09
  9.45120     42.7 1.169e+04 1.184e-09
  9.46586     42.8 1.157e+04 1.140e-09
  9.47596     42.8 1.182e+04 1.283e-09
  9.49163     42.7 1.169e+04 1.179e-09
  9.51184     42.7 1.167e+04 1.171e-09
  9.54226     43.2 1.175e+04 1.208e-09
  9.58278     43.5 1.178e+04 1.135e-09
  9.61302     43.9 1.166e+04 1.043e-09
  9.63323     43.5 1.160e+04 1.005e-09
  9.66363     44.0 1.154e+04 9.732e-10
  9.70406     44.5 1.168e+04 1.039e-09
  9.74448     45.2 1.203e+04 1.208e-09
  9.77010     45.7 1.244e+04 1.411e-09
  9.79031     45.8 1.164e+04 8.961e-10
  9.82533     45.9 1.206e+04 1.140e-09
  9.86576     46.0 1.260e+04 1.541e-09
  9.89598     45.9 1.267e+04 1.562e-09
  9.91609     46.1 1.268e+04 1.625e-09
  9.92698     46.1 1.291e+04 1.703e-09
  9.93709     45.8 1.290e+04 1.772e-09
  9.95652     45.9 1.291e+04 1.837e-09
  9.97673     46.2 1.286e+04 1.780e-09
  9.98735     46.5 1.276e+04 1.725e-09
  9.99755     46.1 1.203e+04 1.186e-09
 10.02746     47.5 1.154e+04 9.317e-10
 10.06404     49.0 1.092e+04 5.861e-10
 10.08425     48.7 1.092e+04 5.373e-10
 10.10831     48.9 1.054e+04 3.223e-10
 10.14874     49.6 1.026e+04 2.733e-10
 10.18916     50.8 1.035e+04 2.906e-10
 10.22112     51.6 1.070e+04 3.940e-10
 10.24133     50.6 1.041e+04 2.458e-10
 10.27001     51.0 1.109e+04 4.437e-10
 10.31044     51.3 1.217e+04 9.116e-10
 10.35086     51.0 1.307e+04 1.538e-09
 10.37810     49.8 1.330e+04 1.724e-09
 10.39831     49.0 1.319e+04 1.491e-09
 10.42151     48.1 1.353e+04 1.538e-09
 10.44162     47.5 1.358e+04 1.449e-09
 10.45654     46.8 1.328e+04 1.192e-09
 10.46664     45.8 1.280e+04 1.032e-09
 10.48205     44.6 1.242e+04 8.429e-10
 10.50226     43.6 1.204e+04 6.640e-10
 10.52247     40.8 1.207e+04 5.559e-10
 10.53508     38.6 1.284e+04 6.462e-10
 10.54518     38.0 1.288e+04 6.216e-10
 10.56290     33.5 1.364e+04 7.846e-10
 10.58311     29.7 1.436e+04 1.227e-09
 10.60332     26.7 1.466e+04 3.311e-09
 10.61362     24.9 1.603e+04 7.154e-09
 10.62372     23.5 1.608e+04 7.294e-09
 10.64375     22.7 1.735e+04 1.109e-08
 10.66396     21.0 1.736e+04 1.131e-08
 10.68205     20.4 1.618e+04 7.221e-09
 10.69215     21.8 1.594e+04 7.939e-09
 10.70439     19.9 1.523e+04 3.807e-09
 10.72460     16.7 1.394e+04 1.705e-09
 10.74481     13.8 1.351e+04 8.626e-10
 10.75950     11.1 1.268e+04 5.633e-10
 10.76517      9.2 1.159e+04 4.659e-10
 10.77069      9.4 1.140e+04 4.556e-10
 10.79544      8.5 1.160e+04 4.438e-10
 10.82921      6.5 1.173e+04 4.827e-10
 10.84943      7.1 1.177e+04 4.950e-10
 10.86619      5.2 1.194e+04 6.467e-10
 10.88630      4.5 1.201e+04 8.039e-10
 10.90651      4.2 1.218e+04 9.320e-10
 10.91766      3.8 1.242e+04 9.677e-10
 10.92777      4.1 1.241e+04 1.007e-09
 10.94694      3.2 1.252e+04 9.727e-10
 10.96715      2.1 1.234e+04 8.635e-10
 10.98610      0.8 1.217e+04 8.158e-10
 10.99620      1.5 1.205e+04 8.068e-10
 11.00758      0.8 1.207e+04 7.971e-10
 11.02779      0.3 1.236e+04 8.476e-10
 11.04800     -0.2 1.260e+04 9.376e-10
 11.06463     -0.5 1.273e+04 1.050e-09
 11.07474     -0.1 1.264e+04 9.346e-10
 11.08843     -0.6 1.276e+04 1.085e-09
 11.10864     -1.5 1.315e+04 1.321e-09
 11.12885     -3.5 1.414e+04 1.825e-09
 11.14317     -6.1 1.525e+04 2.921e-09
 11.15328     -6.0 1.511e+04 2.900e-09
