# Columns:
#   distance along LOS (in CHIMPs)
#   peculiar velocity  (in km/s)
#   temperature (K)
#   HI number density
# pos=(102.602,117.508,223.466), angles=(2.98982,3.77125)
  0.00715    126.9 9.977e+03 3.093e-10
  0.01443    127.6 9.959e+03 3.090e-10
  0.02444    128.5 1.004e+04 3.529e-10
  0.04420    129.2 1.024e+04 4.189e-10
  0.06395    129.9 1.047e+04 4.963e-10
  0.08371    130.4 1.070e+04 5.901e-10
  0.10347    131.0 1.093e+04 6.942e-10
  0.12226    131.7 1.115e+04 8.032e-10
  0.13214    131.2 1.135e+04 8.981e-10
  0.14299    132.0 1.155e+04 9.892e-10
  0.16275    132.9 1.170e+04 1.045e-09
  0.18250    133.7 1.173e+04 1.061e-09
  0.20226    134.6 1.175e+04 1.056e-09
  0.22202    135.6 1.177e+04 1.032e-09
  0.23278    136.6 1.180e+04 1.012e-09
  0.24266    137.2 1.187e+04 1.115e-09
  0.26154    138.3 1.195e+04 1.096e-09
  0.28121    139.2 1.211e+04 1.122e-09
  0.30097    137.5 1.234e+04 1.076e-09
  0.32081    136.6 1.337e+04 1.538e-09
  0.34057    135.8 1.474e+04 2.734e-09
  0.36033    135.1 1.571e+04 4.205e-09
  0.37052    134.9 1.633e+04 5.346e-09
  0.37541    133.8 1.648e+04 5.648e-09
  0.38493    133.3 1.711e+04 7.719e-09
  0.39481    133.3 1.782e+04 1.059e-08
  0.40469    133.3 1.860e+04 1.398e-08
  0.41457    133.1 1.942e+04 1.705e-08
  0.42445    132.6 2.017e+04 1.894e-08
  0.43433    131.3 2.085e+04 1.908e-08
  0.44421    130.1 2.087e+04 1.881e-08
  0.44999    128.4 2.089e+04 1.756e-08
  0.45194    125.1 2.087e+04 1.750e-08
  0.45603    125.9 2.139e+04 2.020e-08
  0.46396    124.8 2.122e+04 1.881e-08
  0.47883    121.4 2.086e+04 1.487e-08
  0.49864    116.7 1.927e+04 9.425e-09
  0.51840    113.0 1.708e+04 5.854e-09
  0.53816    111.2 1.522e+04 3.786e-09
  0.55791    110.4 1.408e+04 2.482e-09
  0.57767    109.9 1.331e+04 1.696e-09
  0.60741    107.3 1.244e+04 7.418e-10
  0.64702    105.8 1.175e+04 5.639e-10
  0.66959    104.8 1.144e+04 5.427e-10
  0.67937    103.8 1.091e+04 4.882e-10
  0.69622    103.0 1.058e+04 5.010e-10
  0.71598    102.9 1.046e+04 5.373e-10
  0.73574    102.8 1.052e+04 6.086e-10
  0.75550    102.5 1.079e+04 7.294e-10
  0.76794    102.2 1.123e+04 9.200e-10
  0.77782    100.2 1.126e+04 9.365e-10
  0.79501     99.5 1.185e+04 1.200e-09
  0.81477     97.8 1.289e+04 1.657e-09
  0.83453     94.8 1.433e+04 2.426e-09
  0.85429     91.0 1.563e+04 3.539e-09
  0.87405     87.6 1.621e+04 4.689e-09
  0.88785     79.5 1.863e+04 7.154e-09
  0.89773     76.0 1.852e+04 8.255e-09
  0.90858     67.0 2.285e+04 1.291e-08
  0.91841     59.0 2.545e+04 1.900e-08
  0.92679     51.0 2.637e+04 3.080e-08
  0.93173     50.7 2.622e+04 3.139e-08
  0.93817     45.2 2.544e+04 3.339e-08
  0.94804     41.0 2.406e+04 3.013e-08
  0.95792     37.2 2.332e+04 2.268e-08
  0.97279     32.0 2.247e+04 1.012e-08
  0.99260     21.3 1.947e+04 2.855e-09
  1.01236     12.9 1.342e+04 1.374e-09
  1.04209     11.1 1.273e+04 1.014e-09
  1.07615      9.5 1.143e+04 5.957e-10
  1.09591     10.6 1.084e+04 4.292e-10
  1.12122     10.9 1.068e+04 4.098e-10
  1.16074     11.2 1.092e+04 4.508e-10
  1.20026     11.4 1.125e+04 5.942e-10
  1.23977     12.5 1.152e+04 7.556e-10
  1.27929     13.3 1.143e+04 7.381e-10
  1.31488     14.7 1.104e+04 5.224e-10
  1.33464     15.2 1.091e+04 4.902e-10
  1.35832     16.0 1.061e+04 3.652e-10
  1.39404     16.9 1.035e+04 3.012e-10
  1.41380     17.8 1.013e+04 2.198e-10
  1.43736     19.0 9.926e+03 1.893e-10
  1.47687     20.5 9.793e+03 1.735e-10
  1.51639     22.0 9.757e+03 1.698e-10
  1.55591     23.0 9.975e+03 1.871e-10
  1.59543     23.6 1.031e+04 2.682e-10
  1.63494     24.8 1.055e+04 4.067e-10
  1.67446     25.9 1.072e+04 4.933e-10
  1.71194     27.4 1.077e+04 5.779e-10
  1.73170     28.0 1.061e+04 5.044e-10
  1.75159     29.7 1.061e+04 4.926e-10
  1.77135     29.1 1.130e+04 7.647e-10
  1.79301     30.7 1.098e+04 6.157e-10
  1.83253     31.6 1.073e+04 4.306e-10
  1.87204     32.5 1.034e+04 2.945e-10
  1.91156     33.4 1.022e+04 2.175e-10
  1.95108     34.5 1.013e+04 1.703e-10
  1.99059     35.5 1.003e+04 1.562e-10
  2.02984     36.5 9.953e+03 1.559e-10
  2.04960     36.4 1.023e+04 2.375e-10
  2.06963     37.4 1.010e+04 2.439e-10
  2.10914     38.8 9.981e+03 2.316e-10
  2.14866     39.8 1.003e+04 2.203e-10
  2.18818     40.0 1.020e+04 2.408e-10
  2.22769     39.1 1.082e+04 4.545e-10
  2.26721     39.9 1.105e+04 6.035e-10
  2.30673     40.3 1.113e+04 6.381e-10
  2.34624     39.9 1.122e+04 6.591e-10
  2.36749     38.6 1.146e+04 7.572e-10
  2.38725     38.7 1.115e+04 6.112e-10
  2.42528     37.8 1.121e+04 7.626e-10
  2.46479     37.5 1.112e+04 7.699e-10
  2.50431     37.6 1.084e+04 6.664e-10
  2.54383     37.2 1.054e+04 5.005e-10
  2.58334     36.3 1.026e+04 4.244e-10
  2.62286     35.6 1.023e+04 4.571e-10
  2.64477     35.6 1.025e+04 5.221e-10
  2.66453     35.6 1.030e+04 5.247e-10
  2.68539     36.2 1.020e+04 5.090e-10
  2.70515     36.5 1.016e+04 4.991e-10
  2.74141     37.5 9.883e+03 4.181e-10
  2.78093     38.2 9.545e+03 2.872e-10
  2.82045     37.9 9.267e+03 1.916e-10
  2.85996     37.6 8.956e+03 1.564e-10
  2.89948     37.8 8.860e+03 1.553e-10
  2.93900     37.8 8.933e+03 1.752e-10
  2.97851     38.0 9.133e+03 2.189e-10
  3.00329     38.1 9.304e+03 2.483e-10
  3.02304     38.4 9.188e+03 2.170e-10
  3.05755     38.6 9.106e+03 1.980e-10
  3.08149     38.8 8.922e+03 1.513e-10
  3.10125     39.2 9.096e+03 1.746e-10
  3.13658     38.7 8.904e+03 1.188e-10
  3.17610     38.0 8.709e+03 1.018e-10
  3.21561     37.5 8.745e+03 1.086e-10
  3.25513     37.2 8.963e+03 1.443e-10
  3.29465     36.8 9.370e+03 2.217e-10
  3.32118     35.8 1.026e+04 4.457e-10
  3.34094     36.9 1.029e+04 4.415e-10
  3.37368     35.9 1.108e+04 7.742e-10
  3.40322     34.6 1.120e+04 8.928e-10
  3.42288     34.0 1.143e+04 1.069e-09
  3.44264     33.4 1.181e+04 1.317e-09
  3.46240     32.7 1.214e+04 1.486e-09
  3.47993     31.4 1.257e+04 1.629e-09
  3.48981     32.0 1.293e+04 1.874e-09
  3.50191     30.3 1.312e+04 1.924e-09
  3.51800     28.5 1.297e+04 1.899e-09
  3.52788     28.7 1.295e+04 1.898e-09
  3.54143     27.5 1.256e+04 1.748e-09
  3.56119     26.9 1.209e+04 1.512e-09
  3.58095     26.5 1.174e+04 1.241e-09
  3.60071     25.7 1.156e+04 9.880e-10
  3.62047     24.6 1.133e+04 8.254e-10
  3.63888     23.3 1.116e+04 7.499e-10
  3.64876     23.1 1.117e+04 7.506e-10
  3.65998     22.0 1.109e+04 7.564e-10
  3.67974     21.1 1.106e+04 8.242e-10
  3.69950     20.7 1.107e+04 8.934e-10
  3.71926     20.5 1.116e+04 9.685e-10
  3.73636     20.4 1.136e+04 9.210e-10
  3.74624     20.6 1.201e+04 1.440e-09
  3.75877     20.6 1.210e+04 1.297e-09
  3.77853     19.5 1.212e+04 1.050e-09
  3.79783     17.8 1.141e+04 8.265e-10
  3.80771     17.5 1.116e+04 7.730e-10
  3.81805     16.2 1.067e+04 6.712e-10
  3.83781     15.7 1.056e+04 6.295e-10
  3.85757     15.3 1.052e+04 6.162e-10
  3.87732     13.9 1.098e+04 6.713e-10
  3.89708     11.2 1.185e+04 8.516e-10
  3.91684      8.9 1.231e+04 1.172e-09
  3.93660      7.5 1.225e+04 1.542e-09
  3.95472      6.3 1.265e+04 1.949e-09
  3.96460      6.3 1.367e+04 2.896e-09
  3.96666      4.0 1.489e+04 3.327e-09
  3.97654      5.3 1.395e+04 2.679e-09
  3.99587      2.0 1.510e+04 3.012e-09
  4.01563     -2.8 1.495e+04 3.074e-09
  4.03539     -6.5 1.434e+04 3.068e-09
  4.05515     -8.5 1.443e+04 3.150e-09
  4.07491    -12.0 1.471e+04 2.573e-09
  4.09467    -17.8 1.448e+04 1.973e-09
  4.11442    -23.9 1.352e+04 1.718e-09
  4.12561    -27.9 1.304e+04 1.689e-09
  4.13549    -25.9 1.312e+04 1.736e-09
  4.15394    -28.7 1.281e+04 1.714e-09
  4.17307    -30.8 1.271e+04 1.601e-09
  4.18295    -31.7 1.313e+04 1.800e-09
  4.19346    -35.0 1.296e+04 1.338e-09
  4.21322    -39.3 1.261e+04 1.044e-09
  4.23298    -43.1 1.242e+04 9.754e-10
  4.25273    -45.9 1.234e+04 9.779e-10
  4.27249    -47.9 1.227e+04 1.041e-09
  4.28455    -49.4 1.229e+04 1.067e-09
  4.29443    -48.5 1.219e+04 9.532e-10
  4.31201    -50.4 1.228e+04 9.382e-10
  4.33177    -53.0 1.242e+04 9.256e-10
  4.35153    -56.4 1.272e+04 9.607e-10
  4.37128    -59.6 1.293e+04 1.197e-09
  4.39104    -61.9 1.306e+04 1.533e-09
  4.40131    -63.4 1.309e+04 1.716e-09
  4.41119    -64.6 1.301e+04 1.699e-09
  4.43056    -65.8 1.289e+04 1.701e-09
  4.44350    -66.7 1.237e+04 1.408e-09
  4.45338    -66.1 1.267e+04 1.577e-09
  4.47008    -67.2 1.201e+04 1.037e-09
  4.48983    -69.1 1.139e+04 6.477e-10
  4.50959    -71.6 1.091e+04 4.434e-10
  4.52935    -74.1 1.058e+04 3.649e-10
  4.54911    -75.7 1.044e+04 3.438e-10
  4.56887    -76.5 1.040e+04 3.393e-10
  4.58863    -77.4 1.039e+04 3.427e-10
  4.60245    -80.3 1.072e+04 4.041e-10
  4.61233    -79.2 1.133e+04 4.655e-10
  4.61966    -85.2 1.300e+04 8.338e-10
  4.62954    -85.2 1.278e+04 8.356e-10
  4.64790    -93.4 1.862e+04 3.438e-09
  4.66267    -97.5 2.043e+04 1.053e-08
  4.67250    -99.1 2.101e+04 1.794e-08
  4.68183   -100.6 2.153e+04 3.093e-08
  4.68677   -101.7 2.167e+04 5.522e-08
  4.69226   -103.0 2.170e+04 9.031e-08
  4.70214   -104.7 2.149e+04 1.092e-07
  4.71202   -106.3 2.133e+04 1.114e-07
  4.72190   -106.9 2.068e+04 9.103e-08
  4.72874   -107.0 2.017e+04 5.643e-08
  4.73368   -106.3 2.029e+04 3.922e-08
  4.74166   -107.2 2.001e+04 2.305e-08
  4.75154   -109.2 1.958e+04 1.303e-08
  4.76130   -112.1 1.864e+04 7.580e-09
  4.76624   -113.2 1.894e+04 8.309e-09
  4.77129   -116.6 1.744e+04 5.437e-09
  4.78117   -119.2 1.656e+04 4.333e-09
  4.79105   -120.9 1.640e+04 4.058e-09
  4.80093   -122.2 1.646e+04 4.026e-09
  4.81081   -123.5 1.684e+04 4.137e-09
  4.82069   -125.9 1.711e+04 4.289e-09
  4.83057   -127.4 1.737e+04 4.634e-09
  4.83792   -129.6 1.738e+04 5.114e-09
  4.84785   -130.6 1.712e+04 4.816e-09
  4.86524   -133.2 1.697e+04 5.867e-09
  4.88500   -135.0 1.679e+04 6.322e-09
  4.90476   -136.4 1.635e+04 6.275e-09
  4.92035   -137.4 1.572e+04 5.273e-09
  4.93023   -137.9 1.554e+04 4.945e-09
  4.94428   -138.9 1.461e+04 3.293e-09
  4.96404   -140.2 1.329e+04 1.871e-09
  4.98379   -141.3 1.202e+04 1.101e-09
  5.00355   -142.0 1.123e+04 7.445e-10
  5.02331   -142.2 1.085e+04 5.644e-10
  5.04307   -142.2 1.065e+04 4.662e-10
  5.05638   -142.1 1.047e+04 4.061e-10
  5.06625   -141.4 1.020e+04 3.476e-10
  5.07930   -141.4 1.008e+04 3.130e-10
  5.08917   -141.4 1.025e+04 3.519e-10
  5.10234   -141.4 1.014e+04 3.283e-10
  5.12210   -141.3 1.009e+04 3.223e-10
  5.14186   -141.3 1.007e+04 3.229e-10
  5.16162   -141.3 1.005e+04 3.278e-10
  5.19136   -141.5 9.980e+03 3.282e-10
  5.22856   -141.1 9.708e+03 2.874e-10
  5.24832   -141.1 9.692e+03 2.751e-10
  5.26505   -140.7 9.312e+03 2.124e-10
  5.28481   -140.0 9.293e+03 2.102e-10
  5.31000   -139.7 9.018e+03 1.716e-10
  5.34952   -139.5 8.863e+03 1.510e-10
  5.38904   -139.3 8.818e+03 1.449e-10
  5.42855   -139.3 8.808e+03 1.437e-10
  5.46807   -139.3 8.816e+03 1.453e-10
  5.50759   -139.7 8.877e+03 1.519e-10
  5.54646   -142.1 9.207e+03 1.799e-10
  5.56621   -140.3 9.041e+03 1.760e-10
  5.58662   -144.1 9.800e+03 2.745e-10
  5.61616   -149.1 1.230e+04 8.039e-10
  5.63582   -151.3 1.378e+04 1.595e-09
  5.65558   -153.2 1.522e+04 3.122e-09
  5.67534   -155.5 1.643e+04 4.937e-09
  5.69510   -158.9 1.695e+04 5.902e-09
  5.71144   -162.9 1.698e+04 6.018e-09
  5.72132   -163.1 1.719e+04 6.053e-09
  5.72497   -167.7 1.665e+04 5.017e-09
  5.73485   -165.8 1.718e+04 5.899e-09
  5.75437   -170.8 1.603e+04 3.859e-09
  5.77413   -175.9 1.414e+04 2.152e-09
  5.79389   -179.9 1.224e+04 1.288e-09
  5.81365   -182.2 1.111e+04 8.941e-10
  5.83341   -183.3 1.055e+04 6.715e-10
  5.85316   -183.9 1.006e+04 5.028e-10
  5.87292   -184.6 9.648e+03 3.876e-10
  5.88401   -185.4 9.387e+03 3.223e-10
  5.89389   -185.1 9.404e+03 3.326e-10
  5.91244   -185.5 9.348e+03 3.171e-10
  5.94217   -186.3 9.333e+03 3.069e-10
  5.98179   -187.1 9.309e+03 3.016e-10
  6.02131   -187.4 9.395e+03 3.194e-10
  6.06082   -187.4 9.476e+03 3.494e-10
  6.10034   -187.1 9.477e+03 3.727e-10
  6.13847   -186.8 9.460e+03 3.818e-10
  6.15823   -188.1 9.346e+03 3.655e-10
  6.17937   -187.6 9.115e+03 3.170e-10
  6.20201   -186.9 8.851e+03 2.616e-10
  6.22177   -187.0 8.784e+03 2.410e-10
  6.25841   -186.0 8.482e+03 1.928e-10
  6.29792   -184.9 8.319e+03 1.706e-10
  6.33744   -183.7 8.284e+03 1.664e-10
  6.37696   -182.8 8.289e+03 1.668e-10
  6.41647   -182.5 8.467e+03 1.868e-10
  6.45599   -182.5 9.022e+03 2.702e-10
  6.49551   -182.7 9.600e+03 4.125e-10
  6.51990   -183.3 1.010e+04 5.914e-10
  6.53966   -183.6 1.072e+04 7.703e-10
  6.57454   -184.4 1.106e+04 9.574e-10
  6.59494   -184.9 1.114e+04 1.006e-09
  6.61470   -183.4 1.081e+04 8.150e-10
  6.64360   -183.4 1.077e+04 8.245e-10
  6.66326   -183.6 1.076e+04 8.262e-10
  6.67866   -183.8 1.065e+04 8.129e-10
  6.68854   -184.7 1.089e+04 9.307e-10
  6.70277   -184.9 1.084e+04 9.175e-10
  6.72253   -184.9 1.080e+04 9.079e-10
  6.74229   -184.7 1.079e+04 9.058e-10
  6.76205   -184.3 1.076e+04 9.075e-10
  6.78181   -183.8 1.066e+04 9.010e-10
  6.80157   -183.1 1.055e+04 8.705e-10
  6.81310   -182.4 1.042e+04 8.220e-10
  6.82298   -181.6 1.047e+04 8.461e-10
  6.83760   -180.8 1.029e+04 7.593e-10
  6.84748   -181.3 1.029e+04 7.548e-10
  6.86084   -180.5 1.009e+04 6.662e-10
  6.88060   -179.8 9.894e+03 5.853e-10
  6.90036   -178.9 9.682e+03 5.102e-10
  6.92012   -177.8 9.495e+03 4.466e-10
  6.93988   -176.8 9.405e+03 4.096e-10
  6.96961   -176.2 9.417e+03 3.950e-10
  7.00922   -174.7 9.411e+03 3.903e-10
  7.03166   -173.0 9.415e+03 3.894e-10
  7.05141   -171.9 9.424e+03 3.970e-10
  7.08826   -170.2 9.448e+03 4.023e-10
  7.12778   -168.5 9.457e+03 4.021e-10
  7.15570   -166.7 9.446e+03 3.944e-10
  7.17545   -166.6 9.600e+03 4.415e-10
  7.20681   -164.8 9.535e+03 4.172e-10
  7.24633   -162.9 9.455e+03 3.881e-10
  7.28584   -160.8 9.394e+03 3.633e-10
  7.32536   -158.8 9.364e+03 3.479e-10
  7.36488   -156.9 9.359e+03 3.401e-10
  7.40439   -155.1 9.362e+03 3.382e-10
  7.44391   -153.3 9.373e+03 3.381e-10
  7.46837   -151.5 9.435e+03 3.468e-10
  7.47829   -151.0 9.677e+03 4.031e-10
  7.49335   -151.3 9.628e+03 3.696e-10
  7.52294   -149.7 9.729e+03 3.870e-10
  7.56246   -148.2 9.816e+03 4.055e-10
  7.60198   -146.7 9.888e+03 4.177e-10
  7.63152   -145.6 9.834e+03 4.112e-10
  7.64222   -145.1 9.858e+03 4.147e-10
  7.65210   -145.1 9.789e+03 3.799e-10
  7.67094   -144.2 9.808e+03 3.799e-10
  7.68653   -143.8 9.822e+03 3.754e-10
  7.69641   -143.5 9.964e+03 4.004e-10
  7.71045   -142.9 9.968e+03 3.916e-10
  7.73021   -142.3 9.963e+03 3.843e-10
  7.74997   -141.8 9.967e+03 3.824e-10
  7.76973   -141.3 9.981e+03 3.823e-10
  7.78949   -140.9 1.005e+04 3.884e-10
  7.80117   -140.6 1.013e+04 3.993e-10
  7.81115   -141.0 9.895e+03 3.317e-10
  7.83908   -140.3 1.005e+04 3.698e-10
  7.86862   -140.0 1.014e+04 4.200e-10
  7.88828   -140.4 1.023e+04 5.350e-10
  7.90488   -142.0 1.153e+04 8.091e-10
  7.91476   -143.3 1.218e+04 9.925e-10
  7.92779   -145.8 1.433e+04 1.973e-09
  7.94755   -147.8 1.594e+04 3.815e-09
  7.96012   -149.3 1.695e+04 6.275e-09
  7.97000   -149.7 1.779e+04 8.786e-09
  7.98707   -151.0 1.818e+04 1.099e-08
  8.00683   -152.5 1.820e+04 1.141e-08
  8.02659   -153.3 1.758e+04 1.026e-08
  8.04635   -153.7 1.651e+04 6.929e-09
  8.06610   -154.2 1.527e+04 4.277e-09
  8.08586   -155.1 1.415e+04 2.573e-09
  8.10562   -156.2 1.326e+04 1.686e-09
  8.11907   -157.2 1.275e+04 1.289e-09
  8.12681   -158.6 1.285e+04 1.332e-09
  8.13312   -160.9 1.327e+04 1.519e-09
  8.14514   -161.6 1.336e+04 1.677e-09
  8.16490   -162.0 1.387e+04 2.102e-09
  8.18465   -161.9 1.432e+04 2.744e-09
  8.20441   -161.5 1.468e+04 3.480e-09
  8.22417   -161.0 1.492e+04 4.118e-09
  8.24393   -160.3 1.500e+04 4.450e-09
  8.26369   -159.7 1.499e+04 4.502e-09
  8.27802   -158.9 1.465e+04 3.912e-09
  8.28790   -159.2 1.466e+04 3.835e-09
  8.30320   -158.5 1.432e+04 3.249e-09
  8.32296   -158.0 1.395e+04 2.527e-09
  8.34160   -157.7 1.355e+04 1.900e-09
  8.35148   -159.6 1.289e+04 1.173e-09
  8.36248   -159.8 1.233e+04 8.144e-10
  8.38224   -160.0 1.178e+04 5.805e-10
  8.40200   -160.3 1.126e+04 4.330e-10
  8.42175   -160.6 1.082e+04 3.452e-10
  8.43696   -160.8 1.055e+04 3.013e-10
  8.44684   -161.4 1.046e+04 2.936e-10
  8.46127   -161.4 1.038e+04 2.872e-10
  8.48103   -161.2 1.036e+04 2.857e-10
  8.50079   -160.9 1.037e+04 2.861e-10
  8.52055   -160.8 1.042e+04 2.969e-10
  8.54031   -160.6 1.049e+04 3.200e-10
  8.55995   -160.7 1.059e+04 3.530e-10
  8.56983   -161.1 1.062e+04 3.557e-10
  8.57982   -161.4 1.075e+04 4.118e-10
  8.59591   -161.6 1.092e+04 4.763e-10
  8.60579   -162.7 1.115e+04 5.498e-10
  8.61934   -162.9 1.134e+04 6.397e-10
  8.63910   -163.1 1.149e+04 7.228e-10
  8.65886   -163.1 1.154e+04 7.806e-10
  8.67861   -163.1 1.152e+04 8.022e-10
  8.69837   -162.9 1.150e+04 8.055e-10
  8.71813   -162.6 1.131e+04 7.843e-10
  8.73789   -162.2 1.111e+04 7.067e-10
  8.75486   -161.8 1.090e+04 6.060e-10
  8.76474   -162.6 1.096e+04 6.250e-10
  8.77741   -162.1 1.073e+04 5.189e-10
  8.78819   -161.6 1.049e+04 4.344e-10
  8.79807   -161.5 1.044e+04 4.193e-10
  8.81692   -160.9 1.038e+04 3.871e-10
  8.83668   -160.6 1.039e+04 3.820e-10
  8.85644   -162.0 1.115e+04 3.886e-10
  8.87620   -166.9 1.566e+04 6.584e-10
  8.89596   -170.3 1.813e+04 2.143e-09
  8.91381   -171.3 1.888e+04 5.856e-09
  8.92369   -172.8 1.981e+04 1.218e-08
  8.93048   -172.2 1.970e+04 1.754e-08
  8.94032   -171.5 1.969e+04 2.016e-08
  8.95019   -170.7 1.962e+04 2.337e-08
  8.96007   -169.8 1.947e+04 2.525e-08
  8.96995   -169.0 1.935e+04 2.587e-08
  8.97983   -168.5 1.928e+04 2.239e-08
  8.98971   -168.7 2.024e+04 1.682e-08
  8.99813   -170.6 2.197e+04 1.384e-08
  9.00307   -174.3 2.495e+04 1.308e-08
  9.00645   -184.5 3.724e+04 9.255e-09
  9.01139   -183.7 2.493e+04 6.552e-09
  9.01935   -192.3 3.292e+04 4.920e-09
  9.02923   -200.6 4.256e+04 3.724e-09
  9.03911   -208.8 5.257e+04 2.923e-09
  9.04899   -216.2 5.026e+04 5.199e-09
  9.05887   -220.9 3.949e+04 1.594e-08
  9.06874   -223.5 3.037e+04 4.087e-08
  9.07760   -224.1 2.618e+04 6.391e-08
  9.08254   -222.0 2.676e+04 4.002e-08
  9.08850   -222.0 2.438e+04 4.372e-08
  9.09838   -221.1 2.298e+04 3.939e-08
  9.10826   -219.7 2.223e+04 3.254e-08
  9.11562   -218.4 2.173e+04 2.648e-08
  9.12056   -216.8 2.211e+04 2.115e-08
  9.12802   -216.2 2.125e+04 1.843e-08
  9.13790   -215.9 2.039e+04 1.578e-08
  9.15277   -215.7 1.962e+04 1.371e-08
  9.17257   -214.0 1.841e+04 1.046e-08
  9.19233   -212.3 1.748e+04 8.199e-09
  9.21209   -210.8 1.659e+04 6.249e-09
  9.22490   -209.8 1.600e+04 4.907e-09
  9.23464   -209.1 1.582e+04 4.205e-09
  9.24159   -209.9 1.544e+04 3.438e-09
  9.25161   -209.6 1.507e+04 3.106e-09
  9.27137   -209.3 1.491e+04 3.020e-09
  9.29112   -209.1 1.487e+04 3.009e-09
  9.31088   -208.8 1.484e+04 3.096e-09
  9.33064   -208.5 1.489e+04 3.365e-09
  9.35040   -208.2 1.489e+04 3.610e-09
  9.37016   -208.1 1.485e+04 3.683e-09
  9.38992   -208.2 1.475e+04 3.698e-09
  9.40053   -208.2 1.441e+04 3.560e-09
  9.41041   -209.0 1.396e+04 3.180e-09
  9.42943   -209.1 1.377e+04 2.926e-09
  9.44326   -209.4 1.359e+04 2.636e-09
  9.45314   -209.3 1.331e+04 2.027e-09
  9.46895   -209.9 1.307e+04 1.800e-09
  9.48871   -210.7 1.287e+04 1.645e-09
  9.50847   -211.4 1.277e+04 1.582e-09
  9.52822   -212.1 1.274e+04 1.566e-09
  9.54798   -212.8 1.277e+04 1.609e-09
  9.55948   -213.5 1.309e+04 1.858e-09
  9.56936   -213.1 1.299e+04 1.797e-09
  9.58750   -213.6 1.335e+04 2.068e-09
  9.60726   -214.1 1.369e+04 2.364e-09
  9.62702   -214.7 1.387e+04 2.523e-09
  9.64678   -215.6 1.390e+04 2.539e-09
  9.66161   -216.4 1.377e+04 2.369e-09
  9.67149   -214.9 1.372e+04 2.289e-09
  9.68629   -215.6 1.361e+04 2.162e-09
  9.70605   -216.4 1.346e+04 2.004e-09
  9.71843   -217.3 1.329e+04 1.873e-09
  9.72831   -217.2 1.312e+04 1.788e-09
  9.74557   -218.1 1.298e+04 1.718e-09
  9.76533   -218.9 1.284e+04 1.645e-09
  9.78508   -219.6 1.264e+04 1.538e-09
  9.80484   -220.3 1.237e+04 1.378e-09
  9.82460   -220.7 1.201e+04 1.179e-09
  9.84436   -221.0 1.161e+04 9.680e-10
  9.86412   -221.0 1.120e+04 7.719e-10
  9.87738   -220.9 1.080e+04 6.032e-10
  9.88335   -220.9 1.071e+04 5.683e-10
  9.88985   -220.1 1.102e+04 6.956e-10
