# Columns:
#   distance along LOS (in CHIMPs)
#   peculiar velocity  (in km/s)
#   temperature (K)
#   HI number density
# pos=(221.115,213.361,2.38021), angles=(1.60399,4.74162)
  0.00885     42.4 8.846e+03 1.265e-10
  0.03725     43.1 8.817e+03 1.195e-10
  0.07635     43.9 8.797e+03 1.202e-10
  0.11545     44.8 8.846e+03 1.267e-10
  0.15455     45.6 9.012e+03 1.472e-10
  0.19365     46.2 9.242e+03 1.983e-10
  0.23275     46.6 9.462e+03 3.109e-10
  0.27185     47.4 9.885e+03 5.029e-10
  0.30108     47.7 1.007e+04 5.918e-10
  0.32053     48.0 1.021e+04 6.426e-10
  0.34008     48.1 1.036e+04 6.819e-10
  0.35963     48.1 1.054e+04 7.054e-10
  0.37918     47.9 1.073e+04 7.084e-10
  0.39873     47.2 1.110e+04 6.825e-10
  0.41828     45.9 1.157e+04 6.831e-10
  0.43783     44.3 1.186e+04 7.332e-10
  0.45738     42.5 1.171e+04 8.559e-10
  0.47693     41.3 1.154e+04 1.039e-09
  0.49648     40.7 1.145e+04 1.278e-09
  0.51603     40.6 1.204e+04 1.276e-09
  0.53558     40.2 1.227e+04 1.212e-09
  0.55513     38.7 1.259e+04 1.021e-09
  0.57469     35.6 1.256e+04 9.292e-10
  0.59424     32.2 1.208e+04 9.490e-10
  0.60866     29.1 1.180e+04 1.137e-09
  0.61843     30.1 1.274e+04 1.745e-09
  0.63334     29.2 1.224e+04 1.818e-09
  0.65289     29.5 1.198e+04 1.728e-09
  0.67244     29.8 1.179e+04 1.532e-09
  0.70186     30.4 1.136e+04 9.903e-10
  0.74106     29.3 1.017e+04 2.903e-10
  0.78016     28.8 9.476e+03 2.053e-10
  0.81926     29.7 9.312e+03 2.062e-10
  0.85836     31.4 9.445e+03 2.550e-10
  0.89746     32.9 9.905e+03 3.666e-10
  0.92669     32.9 1.033e+04 5.078e-10
  0.94614     33.4 1.056e+04 6.533e-10
  0.96569     34.2 1.073e+04 8.104e-10
  0.98524     35.0 1.090e+04 9.539e-10
  1.00479     35.8 1.106e+04 1.114e-09
  1.02434     36.6 1.112e+04 1.212e-09
  1.04389     37.5 1.112e+04 1.183e-09
  1.06344     38.3 1.111e+04 1.085e-09
  1.08299     38.5 1.111e+04 9.351e-10
  1.10255     38.1 1.114e+04 7.866e-10
  1.12210     36.8 1.125e+04 7.151e-10
  1.14165     33.1 1.181e+04 8.248e-10
  1.16120     26.7 1.305e+04 1.440e-09
  1.18075     23.9 1.274e+04 2.396e-09
  1.19620     24.6 1.228e+04 2.411e-09
  1.20598     25.3 1.337e+04 3.016e-09
  1.21985     26.0 1.233e+04 2.580e-09
  1.23940     26.6 1.164e+04 1.943e-09
  1.25895     26.3 1.117e+04 1.189e-09
  1.27850     23.7 1.062e+04 5.977e-10
  1.29805     19.5 8.975e+03 2.782e-10
  1.32747     18.0 7.976e+03 2.206e-10
  1.36667     18.5 7.111e+03 1.394e-10
  1.40577     18.7 6.866e+03 1.037e-10
  1.44487     18.8 6.661e+03 8.326e-11
  1.48397     19.2 6.597e+03 8.062e-11
  1.52307     19.5 6.670e+03 8.708e-11
  1.56217     20.1 6.842e+03 1.044e-10
  1.60127     20.5 7.141e+03 1.341e-10
  1.64038     20.4 7.608e+03 1.920e-10
  1.67948     20.4 8.227e+03 3.051e-10
  1.71858     21.2 8.639e+03 4.273e-10
  1.75768     22.1 8.932e+03 4.870e-10
  1.78395     22.6 9.039e+03 4.947e-10
  1.80350     22.8 8.862e+03 4.477e-10
  1.83588     23.4 8.786e+03 4.084e-10
  1.87498     23.9 8.700e+03 3.630e-10
  1.91408     24.2 8.713e+03 3.423e-10
  1.95318     24.6 8.705e+03 3.309e-10
  1.99228     25.3 8.605e+03 2.989e-10
  2.03138     26.3 8.413e+03 2.437e-10
  2.05498     27.4 8.221e+03 1.896e-10
  2.07453     27.0 8.458e+03 2.442e-10
  2.10958     28.1 8.296e+03 1.832e-10
  2.14868     29.4 8.401e+03 1.674e-10
  2.18779     29.7 8.849e+03 1.977e-10
  2.22689     28.7 1.008e+04 3.880e-10
  2.26599     27.9 1.125e+04 9.890e-10
  2.30509     28.6 1.184e+04 1.728e-09
  2.34419     29.0 1.192e+04 1.777e-09
  2.38329     29.9 1.148e+04 1.418e-09
  2.42239     31.1 1.066e+04 6.892e-10
  2.46149     31.0 9.880e+03 2.838e-10
  2.50059     30.8 9.278e+03 1.489e-10
  2.53969     31.5 8.892e+03 1.119e-10
  2.57879     33.2 8.762e+03 1.000e-10
  2.61789     35.1 8.749e+03 9.092e-11
  2.65699     37.0 8.735e+03 8.130e-11
  2.69609     38.7 8.666e+03 7.468e-11
  2.73520     40.5 8.567e+03 7.356e-11
  2.77430     42.3 8.624e+03 7.599e-11
  2.81340     44.0 8.706e+03 8.635e-11
  2.85250     45.8 8.781e+03 1.045e-10
  2.89160     47.7 8.865e+03 1.259e-10
  2.93070     49.7 8.948e+03 1.429e-10
  2.95904     51.6 8.988e+03 1.505e-10
  2.97859     52.0 8.801e+03 1.173e-10
  3.00890     54.0 8.848e+03 1.253e-10
  3.04800     56.0 8.883e+03 1.325e-10
  3.08710     58.1 8.929e+03 1.404e-10
  3.12620     60.1 8.992e+03 1.510e-10
  3.16530     62.2 9.064e+03 1.652e-10
  3.20440     64.3 9.140e+03 1.781e-10
  3.24350     66.2 9.214e+03 1.884e-10
  3.28261     68.0 9.321e+03 1.930e-10
  3.32171     69.6 9.342e+03 1.910e-10
  3.36081     71.1 9.348e+03 1.795e-10
  3.38841     72.5 9.299e+03 1.525e-10
  3.40796     71.9 9.154e+03 9.423e-11
  3.43901     73.0 9.152e+03 7.533e-11
  3.47811     73.8 9.038e+03 6.067e-11
  3.51721     74.4 8.681e+03 5.864e-11
  3.55631     75.2 8.648e+03 5.919e-11
  3.59541     76.0 8.592e+03 6.306e-11
  3.63451     76.9 8.566e+03 7.384e-11
  3.67361     77.9 8.597e+03 9.252e-11
  3.71271     79.0 8.678e+03 1.229e-10
  3.75181     80.3 8.824e+03 1.707e-10
  3.79092     81.7 9.039e+03 2.380e-10
  3.83002     83.1 9.258e+03 3.074e-10
  3.86912     84.3 9.373e+03 3.279e-10
  3.90822     85.3 9.353e+03 3.192e-10
  3.94732     86.3 9.225e+03 2.734e-10
  3.98642     87.5 8.978e+03 2.050e-10
  4.02552     88.6 8.626e+03 1.526e-10
  4.06462     89.8 8.290e+03 1.397e-10
  4.10372     91.4 8.269e+03 1.424e-10
  4.13413     93.1 8.317e+03 1.647e-10
  4.15368     93.3 8.403e+03 1.913e-10
  4.18192     95.1 8.691e+03 2.611e-10
  4.22102     95.7 9.080e+03 3.593e-10
  4.25025     95.8 9.378e+03 4.556e-10
  4.26970     96.0 9.830e+03 6.301e-10
  4.28925     96.1 1.042e+04 9.287e-10
  4.30880     96.3 1.102e+04 1.330e-09
  4.32835     96.6 1.153e+04 1.705e-09
  4.34791     96.5 1.178e+04 1.797e-09
  4.36746     96.1 1.174e+04 1.752e-09
  4.38701     95.5 1.143e+04 1.502e-09
  4.40656     94.8 1.077e+04 1.076e-09
  4.42611     93.6 9.962e+03 7.031e-10
  4.44566     91.8 9.125e+03 4.425e-10
  4.46521     90.8 8.796e+03 3.643e-10
  4.49463     89.7 8.575e+03 3.420e-10
  4.53383     89.5 8.602e+03 3.517e-10
  4.57293     89.5 8.703e+03 3.794e-10
  4.60216     89.6 8.746e+03 3.924e-10
  4.62161     89.7 8.839e+03 4.140e-10
  4.64116     89.5 9.075e+03 4.801e-10
  4.66071     89.2 9.337e+03 5.623e-10
  4.68026     88.4 9.709e+03 6.728e-10
  4.69981     86.3 1.049e+04 8.997e-10
  4.71936     83.4 1.161e+04 1.386e-09
  4.73126     81.1 1.251e+04 2.172e-09
  4.73355     80.6 1.229e+04 2.052e-09
  4.74120     80.2 1.256e+04 2.334e-09
  4.75846     78.7 1.258e+04 2.394e-09
  4.77801     77.9 1.235e+04 2.173e-09
  4.80744     77.2 1.158e+04 1.217e-09
  4.84663     74.7 9.650e+03 3.210e-10
  4.88574     71.2 8.085e+03 1.058e-10
  4.92484     70.9 7.914e+03 1.010e-10
  4.96394     71.6 7.907e+03 1.028e-10
  5.00304     72.9 8.009e+03 1.185e-10
  5.04214     74.3 8.342e+03 1.601e-10
  5.08124     75.6 8.750e+03 2.216e-10
  5.12034     76.2 9.110e+03 2.823e-10
  5.14957     75.9 9.719e+03 3.901e-10
  5.16902     75.8 1.008e+04 4.752e-10
  5.19844     76.2 1.043e+04 5.672e-10
  5.23764     76.4 1.073e+04 7.086e-10
  5.27674     76.2 1.097e+04 8.529e-10
  5.30923     75.9 1.122e+04 1.004e-09
  5.32878     74.0 1.145e+04 1.088e-09
  5.35494     73.7 1.154e+04 1.154e-09
  5.39404     73.5 1.165e+04 1.246e-09
  5.43315     73.4 1.169e+04 1.256e-09
  5.47225     73.5 1.163e+04 1.167e-09
  5.51135     73.8 1.144e+04 9.337e-10
  5.55045     74.0 1.116e+04 6.766e-10
  5.58955     74.2 1.078e+04 4.981e-10
  5.62865     74.8 1.031e+04 3.901e-10
  5.66775     76.1 9.843e+03 3.071e-10
  5.70685     77.9 9.470e+03 2.259e-10
  5.74595     79.7 9.252e+03 1.487e-10
  5.78505     81.1 9.176e+03 9.225e-11
  5.82415     82.1 9.052e+03 6.988e-11
  5.86325     83.1 9.061e+03 7.151e-11
  5.90235     83.8 9.149e+03 9.393e-11
  5.94145     84.6 9.538e+03 1.669e-10
  5.98056     85.2 1.005e+04 2.861e-10
  6.00978     85.2 1.026e+04 3.429e-10
  6.02924     84.9 1.051e+04 4.172e-10
  6.04879     84.5 1.075e+04 5.335e-10
  6.06485     84.1 1.095e+04 6.768e-10
  6.07463     83.4 1.079e+04 6.235e-10
  6.08789     83.2 1.099e+04 7.598e-10
  6.10744     83.1 1.119e+04 8.914e-10
  6.12699     82.9 1.142e+04 9.801e-10
  6.14654     82.6 1.156e+04 9.858e-10
  6.16609     82.2 1.157e+04 9.740e-10
  6.18564     81.7 1.155e+04 9.210e-10
  6.20519     81.3 1.147e+04 8.236e-10
  6.22474     80.9 1.135e+04 7.126e-10
  6.24429     80.4 1.119e+04 6.181e-10
  6.26384     79.9 1.101e+04 5.635e-10
  6.28339     79.6 1.090e+04 5.576e-10
  6.30294     79.4 1.089e+04 5.619e-10
  6.32249     79.2 1.089e+04 5.821e-10
  6.34204     78.9 1.092e+04 6.382e-10
  6.37147     78.6 1.102e+04 6.989e-10
  6.41066     78.5 1.109e+04 7.902e-10
  6.44976     78.6 1.103e+04 7.711e-10
  6.48432     78.6 1.081e+04 6.728e-10
  6.50387     78.5 1.091e+04 7.542e-10
  6.52797     78.5 1.063e+04 6.118e-10
  6.56707     78.0 1.041e+04 5.151e-10
  6.60617     77.2 1.042e+04 5.211e-10
  6.64527     76.1 1.046e+04 5.474e-10
  6.68437     74.7 1.039e+04 5.378e-10
  6.72347     74.4 1.004e+04 4.581e-10
  6.76257     74.5 9.520e+03 3.066e-10
  6.80167     74.9 9.006e+03 1.690e-10
  6.84077     75.1 8.592e+03 8.509e-11
  6.87987     75.3 8.319e+03 5.978e-11
  6.91897     76.0 8.292e+03 5.989e-11
  6.95807     77.0 8.279e+03 6.471e-11
  6.99717     78.0 8.338e+03 8.110e-11
  7.03628     79.0 8.463e+03 1.044e-10
  7.07538     79.9 8.555e+03 1.131e-10
  7.11448     80.6 8.554e+03 1.106e-10
  7.15358     81.3 8.527e+03 9.813e-11
  7.19268     81.9 8.467e+03 8.025e-11
  7.23178     82.4 8.408e+03 7.081e-11
  7.27088     83.0 8.404e+03 7.084e-11
  7.30998     83.5 8.432e+03 7.454e-11
  7.34908     84.0 8.538e+03 8.991e-11
  7.38818     84.6 8.714e+03 1.223e-10
  7.40825     85.1 8.944e+03 1.710e-10
  7.42780     85.2 8.990e+03 1.766e-10
  7.46638     85.7 9.275e+03 2.428e-10
  7.50548     85.8 9.539e+03 2.904e-10
  7.54458     85.8 9.737e+03 3.088e-10
  7.58369     85.6 9.852e+03 3.149e-10
  7.62279     85.2 9.930e+03 3.236e-10
  7.65941     84.8 9.993e+03 3.443e-10
  7.67897     85.1 9.917e+03 3.343e-10
  7.70099     84.8 1.001e+04 3.687e-10
  7.74009     84.5 1.013e+04 4.005e-10
  7.77919     84.3 1.018e+04 4.087e-10
  7.80842     84.2 1.014e+04 3.905e-10
  7.82787     84.1 1.014e+04 3.875e-10
  7.84742     84.2 1.013e+04 3.854e-10
  7.86697     84.1 1.013e+04 3.829e-10
  7.88652     84.1 1.014e+04 3.856e-10
  7.90607     84.1 1.015e+04 3.879e-10
  7.92562     83.9 1.022e+04 4.064e-10
  7.94517     83.8 1.027e+04 4.183e-10
  7.97459     83.3 1.040e+04 4.526e-10
  8.01379     82.1 1.068e+04 5.831e-10
  8.05289     80.4 1.129e+04 9.208e-10
  8.09199     78.6 1.180e+04 1.280e-09
  8.13110     76.5 1.180e+04 1.272e-09
  8.17020     74.9 1.141e+04 1.004e-09
  8.20930     73.4 1.070e+04 5.641e-10
  8.24840     71.6 9.931e+03 2.922e-10
  8.28750     70.3 9.531e+03 2.253e-10
  8.32660     70.2 9.476e+03 2.158e-10
  8.36570     70.2 9.457e+03 2.114e-10
  8.40480     70.2 9.423e+03 2.079e-10
  8.44390     70.1 9.421e+03 2.143e-10
  8.48300     70.1 9.441e+03 2.351e-10
  8.52210     70.0 9.534e+03 2.660e-10
  8.56120     69.9 9.657e+03 3.011e-10
  8.60030     69.6 9.841e+03 3.515e-10
  8.63940     69.3 1.006e+04 4.273e-10
  8.67851     68.9 1.010e+04 4.460e-10
  8.71761     68.8 1.004e+04 4.306e-10
  8.74168     68.9 9.782e+03 3.597e-10
  8.76123     69.1 9.944e+03 4.331e-10
  8.79581     69.4 9.610e+03 3.142e-10
  8.83451     69.6 9.272e+03 2.182e-10
  8.85406     68.9 9.211e+03 2.134e-10
  8.87401     69.4 8.932e+03 1.641e-10
  8.91311     70.3 8.798e+03 1.589e-10
  8.95221     71.6 8.796e+03 1.622e-10
  8.99131     72.9 8.853e+03 1.790e-10
  9.03041     74.4 9.020e+03 2.126e-10
  9.06951     75.8 9.225e+03 2.596e-10
  9.10861     77.2 9.419e+03 3.124e-10
  9.14771     78.6 9.618e+03 3.699e-10
  9.18682     79.9 9.785e+03 4.264e-10
  9.22592     81.2 9.959e+03 4.679e-10
  9.26502     82.5 1.008e+04 4.862e-10
  9.30412     83.6 1.009e+04 4.819e-10
  9.34322     84.8 1.009e+04 4.618e-10
  9.38232     86.0 1.004e+04 4.204e-10
  9.42142     87.3 9.968e+03 3.752e-10
  9.46052     88.8 9.889e+03 3.446e-10
  9.49962     90.6 9.907e+03 3.470e-10
  9.53872     92.5 1.006e+04 3.715e-10
  9.57782     93.7 1.026e+04 4.179e-10
  9.60705     94.5 1.039e+04 4.676e-10
  9.62650     95.4 1.059e+04 5.368e-10
  9.64605     96.3 1.083e+04 6.292e-10
  9.66560     97.0 1.107e+04 7.404e-10
  9.68515     97.8 1.131e+04 8.777e-10
  9.70470     98.7 1.157e+04 1.052e-09
  9.72425     99.5 1.186e+04 1.267e-09
  9.74381    100.3 1.217e+04 1.528e-09
  9.76336    101.1 1.249e+04 1.841e-09
  9.78291    101.9 1.279e+04 2.198e-09
  9.80246    102.8 1.307e+04 2.563e-09
  9.82201    103.8 1.333e+04 2.882e-09
  9.84156    104.8 1.358e+04 3.064e-09
  9.86111    105.6 1.370e+04 3.067e-09
  9.88066    106.3 1.374e+04 3.009e-09
  9.90021    107.1 1.380e+04 2.898e-09
  9.91976    107.8 1.388e+04 2.832e-09
  9.93931    108.5 1.391e+04 2.830e-09
  9.95886    109.4 1.405e+04 2.888e-09
  9.97841    110.5 1.430e+04 3.077e-09
  9.99796    111.5 1.465e+04 3.410e-09
 10.01751    112.6 1.502e+04 3.878e-09
 10.02896    113.9 1.534e+04 4.440e-09
 10.03873    113.9 1.488e+04 2.563e-09
 10.05661    115.1 1.535e+04 2.760e-09
 10.07492    116.4 1.578e+04 3.003e-09
 10.08464    117.2 1.776e+04 4.720e-09
 10.09073    117.6 1.887e+04 5.510e-09
 10.10050    117.7 2.019e+04 6.522e-09
 10.11028    117.6 2.194e+04 7.899e-09
 10.12005    117.3 2.388e+04 9.601e-09
 10.12983    116.6 2.624e+04 1.217e-08
 10.13960    115.9 2.778e+04 1.652e-08
 10.14938    115.7 2.805e+04 2.680e-08
 10.15915    115.8 2.705e+04 5.377e-08
 10.16893    115.7 2.603e+04 1.040e-07
 10.17870    114.8 2.640e+04 1.510e-07
 10.18848    111.7 2.746e+04 1.472e-07
 10.19825    108.0 2.821e+04 1.278e-07
 10.20803    104.8 2.863e+04 9.530e-08
 10.21780    102.6 2.769e+04 7.061e-08
 10.22758    101.6 2.568e+04 5.521e-08
 10.23735    101.4 2.342e+04 4.571e-08
 10.24713    101.2 2.175e+04 3.914e-08
 10.25690    101.1 2.110e+04 3.444e-08
 10.26668    100.7 2.105e+04 3.054e-08
 10.27645    100.3 2.100e+04 2.677e-08
 10.28623    100.4 2.082e+04 2.360e-08
 10.29601    100.4 2.066e+04 2.056e-08
 10.31072    100.4 2.002e+04 1.422e-08
 10.33032    100.2 1.936e+04 1.008e-08
 10.34987    100.1 1.846e+04 7.032e-09
 10.36942    100.1 1.739e+04 5.084e-09
 10.38897    100.0 1.630e+04 3.849e-09
 10.40852     99.9 1.527e+04 3.067e-09
 10.42807    100.0 1.441e+04 2.552e-09
 10.44762    100.3 1.375e+04 2.179e-09
 10.46717    100.9 1.326e+04 1.877e-09
 10.48672    101.6 1.288e+04 1.623e-09
 10.50627    102.4 1.256e+04 1.414e-09
 10.52582    103.3 1.233e+04 1.255e-09
 10.54537    104.0 1.215e+04 1.138e-09
 10.56492    104.8 1.199e+04 1.065e-09
 10.58447    105.6 1.189e+04 1.050e-09
 10.60402    106.4 1.188e+04 1.050e-09
 10.61650    107.3 1.187e+04 1.057e-09
 10.62628    107.1 1.152e+04 8.706e-10
 10.64312    108.1 1.151e+04 8.954e-10
 10.66267    109.1 1.154e+04 9.269e-10
 10.68222    110.0 1.158e+04 9.549e-10
 10.70177    110.9 1.161e+04 9.851e-10
 10.72132    111.7 1.170e+04 1.013e-09
 10.74087    112.3 1.185e+04 1.039e-09
 10.75141    112.4 1.203e+04 1.087e-09
 10.76118    112.2 1.264e+04 1.644e-09
 10.77997    112.0 1.306e+04 1.842e-09
 10.79952    111.3 1.353e+04 2.217e-09
 10.81907    110.5 1.395e+04 2.809e-09
 10.83863    109.8 1.422e+04 3.565e-09
 10.85818    109.6 1.442e+04 4.273e-09
 10.87773    109.5 1.474e+04 4.529e-09
 10.89728    109.2 1.488e+04 4.480e-09
 10.91683    108.6 1.511e+04 4.089e-09
 10.93638    107.2 1.528e+04 3.139e-09
 10.95593    104.9 1.482e+04 2.126e-09
 10.97548    102.2 1.353e+04 1.448e-09
 10.99503     99.5 1.192e+04 1.100e-09
 11.01458     98.9 1.120e+04 9.622e-10
 11.03413     98.0 1.054e+04 8.437e-10
 11.06355     99.4 1.047e+04 8.003e-10
 11.10275     99.3 1.004e+04 6.789e-10
 11.14185     99.0 9.810e+03 5.718e-10
 11.18095     98.8 9.521e+03 4.795e-10
 11.20425     98.7 9.153e+03 4.007e-10
 11.22380     98.0 8.502e+03 2.701e-10
 11.25915     98.5 8.104e+03 2.001e-10
 11.29825     99.1 7.765e+03 1.415e-10
 11.33735     99.8 7.450e+03 9.905e-11
 11.37646    100.6 7.154e+03 7.525e-11
 11.40854    101.8 6.980e+03 6.899e-11
 11.42809    101.9 6.965e+03 6.799e-11
 11.45466    103.5 6.962e+03 6.874e-11
 11.49376    105.3 6.997e+03 7.389e-11
 11.53286    107.3 7.104e+03 8.523e-11
 11.57196    109.3 7.248e+03 1.010e-10
 11.61106    111.4 7.407e+03 1.195e-10
 11.65016    113.5 7.570e+03 1.392e-10
 11.68926    115.4 7.737e+03 1.587e-10
 11.72836    117.3 7.919e+03 1.786e-10
 11.76746    119.2 8.168e+03 2.040e-10
 11.80656    121.3 8.541e+03 2.440e-10
 11.84566    122.9 8.959e+03 3.023e-10
 11.87489    123.3 9.169e+03 3.426e-10
 11.89434    123.2 9.507e+03 4.124e-10
 11.91390    123.2 1.017e+04 5.829e-10
 11.93345    123.3 1.103e+04 9.056e-10
 11.95300    123.5 1.191e+04 1.413e-09
 11.97255    123.6 1.274e+04 2.059e-09
 11.99210    123.4 1.351e+04 2.748e-09
 12.01165    122.8 1.423e+04 3.339e-09
 12.03120    121.0 1.471e+04 3.655e-09
 12.05075    118.1 1.475e+04 3.666e-09
 12.07030    114.7 1.462e+04 3.649e-09
 12.08484    111.6 1.436e+04 3.658e-09
 12.09461    112.0 1.323e+04 2.498e-09
 12.10940    110.0 1.316e+04 2.610e-09
 12.12895    109.0 1.313e+04 2.586e-09
 12.14850    108.9 1.309e+04 2.464e-09
 12.16805    108.9 1.297e+04 2.107e-09
 12.18760    108.8 1.280e+04 1.601e-09
 12.20715    107.8 1.254e+04 1.105e-09
 12.22670    105.7 1.187e+04 7.341e-10
 12.24625    102.9 1.078e+04 5.378e-10
 12.26580    100.6 9.930e+03 5.229e-10
 12.28535     98.7 9.984e+03 5.758e-10
 12.30490     95.4 1.078e+04 9.065e-10
 12.32445     90.5 1.332e+04 2.065e-09
 12.34400     86.0 1.558e+04 4.580e-09
 12.36355     82.2 1.684e+04 7.537e-09
 12.37915     78.2 1.803e+04 8.370e-09
 12.38892     79.5 1.687e+04 7.318e-09
 12.40265     75.2 1.704e+04 6.991e-09
 12.42220     68.1 1.798e+04 6.092e-09
 12.43682     62.8 1.892e+04 6.704e-09
 12.44654     58.6 1.956e+04 7.911e-09
 12.45632     53.8 2.057e+04 1.081e-08
 12.46610     48.8 2.207e+04 1.693e-08
 12.47587     44.7 2.298e+04 2.960e-08
 12.48565     42.3 2.257e+04 5.310e-08
 12.49542     41.1 2.172e+04 8.781e-08
 12.50520     41.0 2.120e+04 1.074e-07
 12.51497     40.9 2.112e+04 1.037e-07
 12.52475     41.0 2.091e+04 8.394e-08
 12.53452     41.2 2.054e+04 5.251e-08
 12.54430     41.0 2.032e+04 2.730e-08
 12.55407     40.3 2.038e+04 1.565e-08
 12.56385     39.2 2.015e+04 7.082e-09
 12.57856     37.5 2.002e+04 2.769e-09
 12.59816     29.7 1.339e+04 7.524e-10
 12.61771     30.5 1.148e+04 5.809e-10
 12.63726     28.4 8.929e+03 3.888e-10
 12.66668     28.7 9.597e+03 3.025e-10
 12.70588     30.3 9.527e+03 2.727e-10
 12.74197     32.3 9.624e+03 2.780e-10
 12.76152     33.2 9.707e+03 2.897e-10
 12.78408     35.3 9.920e+03 3.190e-10
 12.81331     36.7 1.034e+04 4.025e-10
 12.83276     37.4 1.053e+04 4.483e-10
 12.85231     38.5 1.073e+04 5.079e-10
 12.87186     39.7 1.085e+04 5.518e-10
 12.89141     40.8 1.099e+04 5.958e-10
 12.91096     41.9 1.116e+04 6.417e-10
 12.93051     42.8 1.138e+04 6.936e-10
 12.95006     43.6 1.161e+04 7.584e-10
 12.96669     44.1 1.187e+04 8.455e-10
 12.97647     43.8 1.295e+04 1.303e-09
 12.98917     44.1 1.350e+04 1.641e-09
 13.00872     44.4 1.397e+04 2.128e-09
 13.02827     44.7 1.433e+04 2.715e-09
 13.04782     45.4 1.463e+04 3.243e-09
 13.06737     46.2 1.484e+04 3.425e-09
 13.08692     46.9 1.486e+04 3.342e-09
 13.10647     47.4 1.473e+04 2.948e-09
 13.12602     47.5 1.455e+04 2.282e-09
 13.14557     47.2 1.426e+04 1.624e-09
 13.16512     46.3 1.372e+04 1.141e-09
 13.18467     45.4 1.298e+04 8.683e-10
 13.20422     44.9 1.238e+04 6.863e-10
 13.22377     44.7 1.183e+04 5.695e-10
 13.24332     44.8 1.140e+04 5.186e-10
 13.26287     44.9 1.143e+04 5.281e-10
 13.28242     44.3 1.200e+04 6.222e-10
 13.30197     41.7 1.385e+04 1.140e-09
 13.32152     38.2 1.575e+04 2.677e-09
 13.34107     37.0 1.705e+04 6.463e-09
 13.35569     37.2 1.782e+04 9.992e-09
 13.36541     37.6 1.848e+04 1.468e-08
 13.37519     38.4 1.921e+04 2.095e-08
 13.38496     38.5 2.014e+04 2.799e-08
 13.39474     37.9 2.109e+04 3.379e-08
 13.40451     36.0 2.237e+04 3.915e-08
