# Columns:
#   distance along LOS (in CHIMPs)
#   peculiar velocity  (in km/s)
#   temperature (K)
#   HI number density
# pos=(176.527,71.3768,1.42098), angles=(1.41411,4.76463)
  0.01024   -122.8 1.081e+04 1.908e-10
  0.04028   -120.9 1.085e+04 2.037e-10
  0.06980   -119.1 1.091e+04 2.179e-10
  0.08960   -118.5 1.106e+04 2.274e-10
  0.11948   -116.8 1.107e+04 2.423e-10
  0.15908   -115.2 1.115e+04 2.683e-10
  0.19868   -113.7 1.127e+04 3.115e-10
  0.23829   -112.1 1.144e+04 3.642e-10
  0.27789   -110.7 1.166e+04 4.155e-10
  0.31376   -109.5 1.199e+04 4.785e-10
  0.33356   -109.1 1.247e+04 7.365e-10
  0.35709   -108.7 1.289e+04 9.293e-10
  0.39669   -108.7 1.327e+04 1.192e-09
  0.42629   -108.4 1.338e+04 1.226e-09
  0.44545   -108.7 1.353e+04 1.421e-09
  0.45535   -108.7 1.385e+04 1.895e-09
  0.46580   -109.2 1.404e+04 2.241e-09
  0.48560   -109.8 1.415e+04 2.480e-09
  0.50540   -110.6 1.419e+04 2.551e-09
  0.52520   -111.3 1.414e+04 2.509e-09
  0.54500   -111.9 1.397e+04 2.193e-09
  0.56480   -112.5 1.377e+04 1.837e-09
  0.57733   -112.9 1.355e+04 1.580e-09
  0.58723   -113.8 1.393e+04 1.881e-09
  0.60440   -114.1 1.369e+04 1.690e-09
  0.62420   -114.1 1.351e+04 1.581e-09
  0.64400   -113.8 1.337e+04 1.493e-09
  0.66380   -113.4 1.323e+04 1.414e-09
  0.67458   -112.9 1.309e+04 1.347e-09
  0.68458   -113.7 1.295e+04 1.193e-09
  0.71350   -112.0 1.252e+04 9.375e-10
  0.75310   -110.4 1.219e+04 7.091e-10
  0.79270   -108.4 1.198e+04 5.596e-10
  0.82149   -106.4 1.187e+04 4.945e-10
  0.84129   -106.7 1.197e+04 3.981e-10
  0.87190   -104.5 1.195e+04 3.950e-10
  0.91150   -102.6 1.200e+04 4.139e-10
  0.95110   -100.9 1.218e+04 4.824e-10
  0.99070    -99.6 1.232e+04 5.927e-10
  1.03031    -98.7 1.237e+04 7.129e-10
  1.05211    -98.0 1.244e+04 7.559e-10
  1.06191    -97.5 1.238e+04 7.481e-10
  1.07515    -97.4 1.243e+04 7.701e-10
  1.08515    -96.8 1.249e+04 7.510e-10
  1.09951    -96.8 1.247e+04 7.939e-10
  1.11921    -96.8 1.252e+04 8.102e-10
  1.13901    -96.8 1.252e+04 8.226e-10
  1.15881    -96.7 1.250e+04 8.272e-10
  1.17861    -96.5 1.246e+04 8.208e-10
  1.19713    -96.3 1.245e+04 8.014e-10
  1.20704    -96.6 1.254e+04 9.130e-10
  1.21822    -96.6 1.255e+04 9.410e-10
  1.23802    -97.1 1.262e+04 1.003e-09
  1.25782    -98.2 1.282e+04 1.147e-09
  1.27762    -99.5 1.304e+04 1.401e-09
  1.29742   -100.8 1.326e+04 1.746e-09
  1.31722   -102.2 1.347e+04 2.054e-09
  1.32902   -103.6 1.365e+04 2.180e-09
  1.33892   -103.7 1.376e+04 2.429e-09
  1.35682   -105.5 1.382e+04 2.216e-09
  1.37662   -107.6 1.368e+04 1.794e-09
  1.39642   -109.8 1.340e+04 1.429e-09
  1.41622   -111.9 1.311e+04 1.151e-09
  1.42944   -113.6 1.281e+04 9.409e-10
  1.43934   -115.8 1.316e+04 1.032e-09
  1.45100   -117.5 1.311e+04 8.994e-10
  1.46090   -119.3 1.302e+04 9.586e-10
  1.47562   -120.8 1.305e+04 9.406e-10
  1.49542   -121.8 1.299e+04 9.896e-10
  1.51522   -122.5 1.292e+04 1.180e-09
  1.53502   -122.9 1.300e+04 1.433e-09
  1.55482   -123.0 1.312e+04 1.710e-09
  1.57298   -122.9 1.326e+04 1.953e-09
  1.58288   -123.6 1.329e+04 2.008e-09
  1.59443   -123.4 1.330e+04 2.131e-09
  1.61423   -123.1 1.326e+04 2.146e-09
  1.63403   -122.8 1.307e+04 2.083e-09
  1.65383   -122.5 1.278e+04 1.900e-09
  1.67363   -122.0 1.245e+04 1.656e-09
  1.69343   -121.3 1.210e+04 1.403e-09
  1.70486   -120.6 1.174e+04 1.162e-09
  1.71476   -120.7 1.168e+04 1.099e-09
  1.73303   -119.8 1.138e+04 9.068e-10
  1.75283   -118.7 1.110e+04 7.397e-10
  1.77263   -117.7 1.086e+04 6.026e-10
  1.79243   -116.7 1.067e+04 4.988e-10
  1.81704   -115.3 1.054e+04 3.962e-10
  1.83684   -115.5 1.052e+04 3.672e-10
  1.85183   -114.3 1.047e+04 3.357e-10
  1.87163   -113.6 1.042e+04 3.215e-10
  1.89143   -112.2 1.039e+04 3.024e-10
  1.91123   -111.5 1.038e+04 2.979e-10
  1.93103   -110.6 1.043e+04 2.975e-10
  1.94882   -110.4 1.048e+04 3.002e-10
  1.95872   -111.1 1.073e+04 3.250e-10
  1.97063   -111.5 1.118e+04 4.013e-10
  1.99044   -112.4 1.177e+04 5.700e-10
  2.01024   -113.5 1.255e+04 1.015e-09
  2.03004   -114.2 1.318e+04 1.644e-09
  2.04984   -114.7 1.379e+04 3.024e-09
  2.06964   -114.9 1.421e+04 3.917e-09
  2.08071   -115.1 1.438e+04 4.213e-09
  2.09061   -115.5 1.454e+04 4.506e-09
  2.10924   -115.9 1.399e+04 3.314e-09
  2.12904   -116.6 1.326e+04 2.143e-09
  2.14884   -117.5 1.244e+04 1.318e-09
  2.16864   -118.6 1.169e+04 8.375e-10
  2.18430   -119.4 1.114e+04 5.891e-10
  2.19420   -119.0 1.122e+04 6.194e-10
  2.20269   -119.7 1.082e+04 4.743e-10
  2.21259   -120.8 1.069e+04 4.527e-10
  2.22804   -121.1 1.055e+04 4.058e-10
  2.24784   -121.2 1.045e+04 3.783e-10
  2.26764   -121.3 1.041e+04 3.715e-10
  2.28744   -121.1 1.042e+04 3.769e-10
  2.30724   -121.0 1.048e+04 4.036e-10
  2.32467   -120.9 1.053e+04 4.338e-10
  2.33457   -121.9 1.062e+04 4.793e-10
  2.34684   -121.7 1.060e+04 4.939e-10
  2.36665   -121.4 1.057e+04 5.078e-10
  2.38645   -121.1 1.057e+04 5.230e-10
  2.40625   -120.8 1.060e+04 5.486e-10
  2.42605   -120.6 1.067e+04 5.817e-10
  2.44585   -120.4 1.077e+04 6.297e-10
  2.45655   -120.3 1.088e+04 6.877e-10
  2.46645   -120.9 1.080e+04 6.502e-10
  2.48545   -120.8 1.089e+04 6.962e-10
  2.50525   -120.9 1.096e+04 7.320e-10
  2.52505   -121.0 1.104e+04 7.701e-10
  2.54485   -121.1 1.111e+04 8.149e-10
  2.56173   -121.3 1.119e+04 8.716e-10
  2.57163   -121.1 1.095e+04 7.444e-10
  2.57853   -121.4 1.109e+04 8.216e-10
  2.58843   -122.1 1.102e+04 7.572e-10
  2.60425   -122.6 1.114e+04 8.348e-10
  2.62405   -123.2 1.123e+04 8.982e-10
  2.64385   -124.0 1.126e+04 9.346e-10
  2.66365   -124.9 1.128e+04 9.477e-10
  2.68345   -126.1 1.130e+04 9.556e-10
  2.70051   -127.7 1.137e+04 9.764e-10
  2.71041   -128.4 1.125e+04 9.632e-10
  2.72305   -129.8 1.138e+04 1.067e-09
  2.74285   -131.0 1.165e+04 1.302e-09
  2.76266   -131.8 1.196e+04 1.624e-09
  2.78246   -132.3 1.222e+04 1.937e-09
  2.80226   -132.6 1.236e+04 2.137e-09
  2.82206   -132.9 1.240e+04 2.195e-09
  2.83239   -133.1 1.237e+04 2.190e-09
  2.84229   -133.1 1.160e+04 1.480e-09
  2.86166   -133.1 1.147e+04 1.442e-09
  2.88146   -133.0 1.137e+04 1.409e-09
  2.90126   -132.8 1.130e+04 1.382e-09
  2.92106   -132.4 1.125e+04 1.358e-09
  2.93916   -131.9 1.127e+04 1.344e-09
  2.94906   -132.0 1.115e+04 1.283e-09
  2.95438   -131.6 1.112e+04 1.213e-09
  2.96428   -131.3 1.057e+04 8.442e-10
  2.98046   -130.9 1.060e+04 8.379e-10
  3.00026   -130.6 1.065e+04 8.429e-10
  3.02006   -130.2 1.070e+04 8.590e-10
  3.03986   -129.7 1.075e+04 8.781e-10
  3.05966   -129.2 1.080e+04 8.939e-10
  3.07636   -128.8 1.091e+04 9.186e-10
  3.08626   -128.4 1.055e+04 7.822e-10
  3.09926   -128.0 1.071e+04 8.335e-10
  3.11906   -127.7 1.097e+04 9.303e-10
  3.13887   -127.4 1.122e+04 1.056e-09
  3.16866   -127.1 1.144e+04 1.179e-09
  3.20836   -126.5 1.203e+04 1.558e-09
  3.24796   -126.3 1.258e+04 1.967e-09
  3.28756   -126.0 1.291e+04 2.195e-09
  3.32051   -125.7 1.298e+04 2.199e-09
  3.34032   -125.2 1.258e+04 2.010e-09
  3.36677   -125.1 1.258e+04 1.928e-09
  3.40637   -125.0 1.227e+04 1.674e-09
  3.44597   -124.6 1.186e+04 1.413e-09
  3.48557   -124.2 1.152e+04 1.191e-09
  3.52517   -123.8 1.134e+04 1.075e-09
  3.56448   -123.4 1.129e+04 1.030e-09
  3.58428   -123.0 1.085e+04 8.237e-10
  3.60437   -122.4 1.082e+04 7.893e-10
  3.63398   -121.7 1.086e+04 7.899e-10
  3.65368   -121.4 1.081e+04 7.796e-10
  3.67348   -120.9 1.075e+04 7.169e-10
  3.69328   -120.3 1.058e+04 6.504e-10
  3.70393   -119.8 1.045e+04 5.779e-10
  3.70681   -119.2 1.028e+04 5.424e-10
  3.71596   -118.8 1.018e+04 4.874e-10
  3.73288   -118.6 1.018e+04 4.716e-10
  3.76268   -118.2 1.015e+04 4.490e-10
  3.80238   -117.3 1.004e+04 4.129e-10
  3.82824   -115.6 9.988e+03 3.881e-10
  3.84804   -115.2 9.831e+03 3.636e-10
  3.88158   -113.8 9.961e+03 3.754e-10
  3.92118   -112.5 1.009e+04 3.894e-10
  3.96078   -111.2 1.015e+04 3.748e-10
  4.00038   -110.0 1.015e+04 3.222e-10
  4.03998   -108.7 1.009e+04 2.392e-10
  4.07220   -107.4 9.980e+03 1.586e-10
  4.09200   -107.3 9.992e+03 1.685e-10
  4.11919   -106.0 9.847e+03 1.017e-10
  4.15879   -104.7 9.654e+03 7.616e-11
  4.19839   -103.2 9.576e+03 7.170e-11
  4.23799   -101.4 9.563e+03 6.978e-11
  4.27759    -99.7 9.559e+03 7.095e-11
  4.31617    -97.9 9.595e+03 7.676e-11
  4.33597    -98.0 9.523e+03 6.736e-11
  4.35679    -96.3 9.576e+03 7.708e-11
  4.39639    -94.6 9.649e+03 8.698e-11
  4.43599    -92.9 9.740e+03 9.564e-11
  4.45898    -91.4 9.846e+03 1.032e-10
  4.47878    -91.5 9.798e+03 1.018e-10
  4.51520    -90.1 9.890e+03 1.099e-10
  4.55480    -88.9 9.964e+03 1.181e-10
  4.57993    -87.9 1.001e+04 1.295e-10
  4.59973    -88.0 9.986e+03 1.292e-10
  4.63400    -87.2 9.989e+03 1.430e-10
  4.67360    -86.4 9.972e+03 1.587e-10
  4.71320    -85.7 9.937e+03 1.707e-10
  4.75280    -85.0 9.899e+03 1.745e-10
  4.79240    -84.2 9.794e+03 1.680e-10
  4.82389    -83.4 9.675e+03 1.490e-10
  4.84369    -83.0 9.624e+03 1.180e-10
  4.87161    -82.1 9.550e+03 1.043e-10
  4.91121    -81.2 9.528e+03 9.860e-11
  4.95081    -80.4 9.535e+03 9.797e-11
  4.99041    -79.7 9.615e+03 1.138e-10
  5.03001    -79.1 9.710e+03 1.648e-10
  5.06785    -78.2 9.888e+03 2.419e-10
  5.08766    -77.7 9.852e+03 2.326e-10
  5.10921    -76.6 1.009e+04 3.157e-10
  5.14881    -75.5 1.023e+04 3.494e-10
  5.18841    -74.5 1.026e+04 3.374e-10
  5.21385    -73.4 1.016e+04 2.600e-10
  5.23365    -72.9 1.032e+04 3.287e-10
  5.26762    -71.8 1.018e+04 2.238e-10
  5.30722    -71.1 1.006e+04 1.409e-10
  5.33162    -70.8 9.998e+03 9.913e-11
  5.35142    -70.0 1.019e+04 1.419e-10
  5.38642    -69.7 1.019e+04 1.277e-10
  5.42602    -69.4 1.036e+04 1.402e-10
  5.46562    -68.6 1.050e+04 1.764e-10
  5.50522    -67.4 1.047e+04 1.912e-10
  5.54482    -65.7 1.030e+04 1.648e-10
  5.57558    -63.8 1.022e+04 1.136e-10
  5.59538    -64.0 1.047e+04 1.756e-10
  5.62402    -62.7 1.049e+04 1.308e-10
  5.66363    -61.5 1.054e+04 1.232e-10
  5.70323    -61.2 1.076e+04 1.308e-10
  5.74283    -62.0 1.125e+04 3.211e-10
  5.78243    -62.8 1.216e+04 8.165e-10
  5.81203    -62.6 1.293e+04 1.519e-09
  5.82925    -62.7 1.312e+04 1.678e-09
  5.83925    -62.4 1.266e+04 1.140e-09
  5.85163    -62.6 1.300e+04 1.275e-09
  5.87134    -63.3 1.310e+04 1.399e-09
  5.89114    -63.7 1.300e+04 1.474e-09
  5.91094    -63.9 1.292e+04 1.506e-09
  5.93074    -64.2 1.287e+04 1.413e-09
  5.95054    -64.7 1.271e+04 1.268e-09
  5.96861    -65.1 1.241e+04 1.101e-09
  5.98851    -65.4 1.249e+04 1.137e-09
  6.02003    -66.0 1.238e+04 1.123e-09
  6.05964    -67.2 1.267e+04 1.293e-09
  6.08331    -69.1 1.314e+04 1.494e-09
  6.10311    -66.9 1.305e+04 1.351e-09
  6.13884    -69.8 1.361e+04 1.669e-09
  6.16844    -72.5 1.380e+04 1.800e-09
  6.18814    -74.2 1.384e+04 1.895e-09
  6.20509    -75.2 1.377e+04 1.950e-09
  6.21499    -74.3 1.384e+04 1.985e-09
  6.22774    -75.3 1.363e+04 1.857e-09
  6.24755    -76.1 1.323e+04 1.648e-09
  6.26735    -76.4 1.303e+04 1.390e-09
  6.28715    -77.4 1.249e+04 9.585e-10
  6.30695    -78.2 1.236e+04 7.065e-10
  6.32675    -79.4 1.202e+04 5.405e-10
  6.33697    -79.9 1.189e+04 4.782e-10
  6.34627    -79.5 1.204e+04 5.861e-10
  6.35584    -80.9 1.211e+04 5.773e-10
  6.36635    -81.1 1.193e+04 5.161e-10
  6.38615    -81.1 1.187e+04 4.938e-10
  6.40595    -80.9 1.178e+04 4.796e-10
  6.42575    -80.3 1.169e+04 4.907e-10
  6.44555    -79.7 1.162e+04 5.105e-10
  6.45896    -79.1 1.161e+04 5.289e-10
  6.46886    -79.1 1.191e+04 5.825e-10
  6.48515    -78.6 1.195e+04 6.080e-10
  6.50495    -77.9 1.196e+04 6.441e-10
  6.52475    -77.1 1.198e+04 6.900e-10
  6.54455    -76.3 1.201e+04 7.387e-10
  6.56435    -75.3 1.206e+04 7.799e-10
  6.58094    -74.4 1.217e+04 8.045e-10
  6.59084    -74.3 1.236e+04 9.079e-10
  6.61395    -73.9 1.279e+04 9.125e-10
  6.64365    -73.6 1.347e+04 1.362e-09
  6.66336    -73.8 1.390e+04 1.667e-09
  6.68316    -74.3 1.441e+04 2.175e-09
  6.70292    -74.7 1.486e+04 2.867e-09
  6.72272    -75.7 1.596e+04 5.200e-09
  6.73328    -75.9 1.605e+04 5.888e-09
  6.74318    -75.4 1.702e+04 9.038e-09
  6.76236    -75.5 1.661e+04 7.900e-09
  6.78216    -76.0 1.623e+04 6.687e-09
  6.80196    -76.7 1.605e+04 6.393e-09
  6.82176    -77.2 1.633e+04 7.241e-09
  6.83480    -77.4 1.685e+04 9.095e-09
  6.84470    -77.5 1.597e+04 6.768e-09
  6.86136    -77.5 1.636e+04 7.983e-09
  6.88116    -77.3 1.704e+04 9.254e-09
  6.90096    -77.1 1.798e+04 1.045e-08
  6.92076    -77.2 1.931e+04 1.147e-08
  6.93556    -78.9 2.377e+04 1.468e-08
  6.94542    -79.5 2.533e+04 1.629e-08
  6.95532    -80.6 2.752e+04 2.044e-08
  6.96163    -81.3 2.841e+04 2.671e-08
  6.96658    -84.2 2.744e+04 5.066e-08
  6.97512    -84.6 2.658e+04 7.294e-08
  6.98502    -84.9 2.527e+04 1.116e-07
  6.99492    -85.0 2.388e+04 1.871e-07
  7.00482    -84.8 2.281e+04 3.472e-07
  7.01472    -84.7 2.200e+04 6.949e-07
  7.02262    -85.9 2.129e+04 1.269e-06
  7.02757    -87.9 2.084e+04 8.984e-07
  7.03452    -90.8 2.078e+04 1.019e-06
  7.04442    -94.0 2.089e+04 9.519e-07
  7.05432    -97.0 2.124e+04 8.113e-07
  7.06422   -100.0 2.168e+04 6.898e-07
  7.07412   -102.6 2.233e+04 5.151e-07
  7.08362   -104.7 2.285e+04 3.450e-07
  7.08857   -103.3 2.372e+04 1.643e-07
  7.09392   -105.0 2.369e+04 1.127e-07
  7.10382   -106.4 2.356e+04 8.453e-08
  7.11061   -107.6 2.334e+04 6.973e-08
  7.11556   -109.0 2.319e+04 2.151e-08
  7.12362   -109.6 2.283e+04 2.135e-08
  7.13352   -110.0 2.255e+04 2.204e-08
  7.14342   -110.1 2.228e+04 2.303e-08
  7.14956   -110.1 2.206e+04 2.405e-08
  7.15451   -109.7 2.107e+04 1.202e-08
  7.16322   -109.7 2.097e+04 1.332e-08
  7.17312   -109.6 2.093e+04 1.478e-08
  7.18302   -109.6 2.089e+04 1.629e-08
  7.19292   -109.6 2.080e+04 1.764e-08
  7.20282   -109.4 2.071e+04 1.886e-08
  7.21055   -109.2 2.071e+04 1.989e-08
  7.21550   -109.0 1.987e+04 1.452e-08
  7.22262   -108.9 2.004e+04 1.616e-08
  7.23252   -108.8 2.013e+04 1.726e-08
  7.24242   -108.5 2.009e+04 1.740e-08
  7.25732   -108.5 1.958e+04 1.489e-08
  7.27717   -108.6 1.951e+04 1.507e-08
  7.29697   -109.1 1.927e+04 1.404e-08
  7.31677   -109.5 1.876e+04 1.216e-08
  7.33263   -109.9 1.827e+04 1.010e-08
  7.34253   -109.5 1.845e+04 1.082e-08
  7.35637   -110.3 1.817e+04 9.648e-09
  7.37617   -111.1 1.785e+04 8.614e-09
  7.39597   -111.9 1.752e+04 7.743e-09
  7.41578   -112.5 1.714e+04 6.981e-09
  7.43558   -112.7 1.672e+04 6.232e-09
  7.45461   -112.8 1.625e+04 5.468e-09
  7.46451   -112.7 1.666e+04 6.908e-09
  7.47518   -112.8 1.614e+04 5.713e-09
  7.48814   -112.8 1.559e+04 4.635e-09
  7.49804   -112.5 1.529e+04 4.203e-09
  7.51478   -112.5 1.490e+04 3.487e-09
  7.53458   -112.6 1.459e+04 2.972e-09
  7.55438   -112.6 1.436e+04 2.629e-09
  7.57418   -112.6 1.419e+04 2.378e-09
  7.58649   -112.5 1.402e+04 2.133e-09
  7.59639   -112.5 1.415e+04 2.416e-09
  7.61378   -112.5 1.398e+04 2.134e-09
  7.63358   -112.6 1.372e+04 1.762e-09
  7.65338   -112.8 1.329e+04 1.371e-09
  7.67318   -113.1 1.280e+04 1.076e-09
  7.69298   -113.4 1.239e+04 9.102e-10
  7.70847   -113.5 1.216e+04 8.448e-10
  7.71837   -113.5 1.221e+04 8.697e-10
  7.73258   -113.5 1.211e+04 8.485e-10
  7.75238   -113.3 1.206e+04 8.362e-10
  7.77218   -112.9 1.200e+04 8.121e-10
  7.79199   -112.5 1.188e+04 7.540e-10
  7.81179   -112.1 1.167e+04 6.567e-10
  7.83045   -111.6 1.141e+04 5.409e-10
  7.84035   -111.7 1.149e+04 5.627e-10
  7.85139   -111.2 1.128e+04 4.646e-10
  7.88119   -110.7 1.118e+04 3.864e-10
  7.92088   -109.8 1.110e+04 3.599e-10
  7.96048   -108.4 1.096e+04 3.455e-10
  8.00009   -106.9 1.083e+04 3.423e-10
  8.03969   -105.2 1.070e+04 3.435e-10
  8.07461   -103.4 1.061e+04 3.468e-10
  8.09441   -103.0 1.086e+04 4.233e-10
  8.11889   -101.2 1.077e+04 4.287e-10
  8.15849    -99.2 1.075e+04 4.428e-10
  8.19809    -97.2 1.081e+04 4.638e-10
  8.23329    -95.3 1.079e+04 4.663e-10
  8.25309    -95.0 1.059e+04 3.834e-10
  8.27729    -93.2 1.056e+04 3.908e-10
  8.31689    -91.4 1.053e+04 3.855e-10
  8.33837    -89.6 1.044e+04 3.576e-10
  8.35817    -89.4 1.068e+04 4.589e-10
  8.39610    -87.6 1.052e+04 3.919e-10
  8.43570    -85.6 1.034e+04 3.152e-10
  8.47530    -83.6 1.019e+04 2.551e-10
  8.51490    -81.6 1.008e+04 2.210e-10
  8.55450    -79.5 1.000e+04 2.062e-10
  8.58234    -77.3 9.966e+03 2.017e-10
  8.60214    -77.2 1.004e+04 2.119e-10
  8.63370    -74.9 1.003e+04 2.123e-10
  8.67330    -72.6 1.004e+04 2.156e-10
  8.71290    -70.4 1.002e+04 2.138e-10
  8.75251    -68.0 1.001e+04 1.983e-10
  8.79211    -65.8 1.001e+04 1.743e-10
  8.82630    -63.6 1.002e+04 1.532e-10
  8.84610    -63.4 1.014e+04 1.775e-10
  8.87131    -61.3 1.017e+04 1.591e-10
  8.91091    -59.2 1.018e+04 1.533e-10
  8.95051    -57.1 1.022e+04 1.566e-10
  8.98816    -55.1 1.027e+04 1.770e-10
  9.00796    -55.2 1.021e+04 1.572e-10
  9.02971    -53.3 1.031e+04 1.862e-10
  9.06931    -51.5 1.046e+04 2.351e-10
  9.09006    -49.8 1.067e+04 3.151e-10
  9.10986    -50.0 1.075e+04 3.345e-10
  9.14852    -48.0 1.101e+04 4.381e-10
  9.18812    -46.1 1.127e+04 5.176e-10
  9.22772    -44.6 1.138e+04 5.334e-10
  9.26732    -43.1 1.142e+04 5.334e-10
  9.30692    -41.5 1.143e+04 5.298e-10
  9.33402    -39.5 1.137e+04 4.835e-10
  9.35382    -39.4 1.127e+04 4.109e-10
  9.38612    -37.0 1.109e+04 3.068e-10
  9.42572    -34.9 1.088e+04 2.120e-10
  9.46532    -32.9 1.078e+04 1.598e-10
  9.50492    -31.1 1.083e+04 1.247e-10
  9.54453    -28.9 1.083e+04 1.169e-10
  9.57799    -26.7 1.088e+04 1.129e-10
  9.59779    -26.6 1.088e+04 1.124e-10
  9.62373    -24.3 1.088e+04 1.061e-10
  9.66333    -22.2 1.092e+04 9.668e-11
  9.70293    -20.0 1.086e+04 9.861e-11
  9.74253    -17.9 1.074e+04 1.074e-10
  9.76282    -15.5 1.067e+04 1.133e-10
  9.78262    -15.3 1.068e+04 1.070e-10
  9.82173    -12.9 1.067e+04 1.066e-10
  9.84175    -10.6 1.068e+04 1.024e-10
  9.86155    -10.5 1.068e+04 9.860e-11
  9.90093     -8.4 1.071e+04 9.639e-11
  9.94054     -6.4 1.073e+04 9.748e-11
  9.98014     -4.6 1.082e+04 1.020e-10
 10.01974     -3.1 1.092e+04 1.181e-10
 10.05934     -1.4 1.097e+04 1.490e-10
 10.08571      0.2 1.100e+04 1.865e-10
 10.10551     -0.2 1.103e+04 2.019e-10
 10.13854      1.2 1.108e+04 2.151e-10
 10.17814      2.4 1.114e+04 2.318e-10
 10.21774      3.1 1.133e+04 2.968e-10
 10.25734      3.2 1.164e+04 4.563e-10
 10.28695      3.0 1.217e+04 8.400e-10
 10.30665      3.2 1.220e+04 8.710e-10
 10.32645      3.1 1.246e+04 1.236e-09
 10.33938      3.3 1.250e+04 1.306e-09
 10.34928      3.0 1.222e+04 1.082e-09
 10.36605      3.1 1.241e+04 1.316e-09
 10.38585      3.4 1.246e+04 1.396e-09
 10.41565      3.5 1.237e+04 1.287e-09
 10.45535      3.8 1.223e+04 1.131e-09
 10.49495      4.2 1.181e+04 8.495e-10
 10.51768      5.1 1.130e+04 5.766e-10
 10.53748      4.8 1.148e+04 7.059e-10
 10.57364      6.1 1.108e+04 4.731e-10
 10.59344      6.7 1.078e+04 3.609e-10
 10.61375      8.0 1.054e+04 2.301e-10
 10.65335      9.3 1.040e+04 1.548e-10
 10.69296     10.7 1.013e+04 1.361e-10
 10.73256     12.7 1.011e+04 1.387e-10
 10.77216     14.7 1.009e+04 1.522e-10
 10.81176     16.7 1.012e+04 1.842e-10
 10.83740     18.7 1.019e+04 2.328e-10
 10.85720     18.9 1.008e+04 2.072e-10
 10.89096     20.9 1.014e+04 2.650e-10
 10.93056     22.8 1.020e+04 3.192e-10
 10.97016     24.5 1.025e+04 3.272e-10
 11.00976     26.2 1.017e+04 3.116e-10
 11.04936     27.7 1.003e+04 2.754e-10
 11.08136     29.2 9.880e+03 2.244e-10
 11.10116     29.3 9.889e+03 2.355e-10
 11.12857     30.6 9.755e+03 1.866e-10
 11.16817     31.9 9.669e+03 1.598e-10
 11.20777     33.4 9.672e+03 1.602e-10
 11.24737     34.7 9.711e+03 1.713e-10
 11.27254     36.0 9.853e+03 2.093e-10
 11.29234     36.0 9.807e+03 2.032e-10
 11.32533     37.2 1.011e+04 2.803e-10
 11.34513     37.3 9.894e+03 2.376e-10
 11.36617     38.4 1.018e+04 3.073e-10
 11.40577     39.2 1.040e+04 3.668e-10
 11.43538     39.5 1.052e+04 4.294e-10
 11.45508     39.7 1.074e+04 5.170e-10
 11.46691     39.5 1.125e+04 6.791e-10
 11.47681     39.9 1.088e+04 5.205e-10
 11.49468     39.1 1.166e+04 8.332e-10
 11.51448     37.2 1.308e+04 1.810e-09
 11.53428     35.6 1.496e+04 4.603e-09
 11.55408     35.0 1.676e+04 1.070e-08
 11.57388     34.7 1.807e+04 1.827e-08
