# Columns:
#   distance along LOS (in CHIMPs)
#   peculiar velocity  (in km/s)
#   temperature (K)
#   HI number density
# pos=(21.0148,138.769,34.8377), angles=(0.309102,3.97894)
  0.00586   -143.2 9.169e+03 1.260e-10
  0.01249   -142.8 9.143e+03 1.257e-10
  0.02014   -142.6 9.255e+03 1.502e-10
  0.04752   -140.2 9.204e+03 1.237e-10
  0.08852   -137.8 9.173e+03 1.064e-10
  0.12953   -135.5 9.161e+03 9.732e-11
  0.16808   -133.1 9.168e+03 9.315e-11
  0.18858   -132.9 9.161e+03 8.062e-11
  0.19729   -130.6 9.190e+03 7.619e-11
  0.21779   -130.2 9.147e+03 6.934e-11
  0.25255   -127.9 9.158e+03 6.821e-11
  0.29355   -125.6 9.162e+03 6.805e-11
  0.33456   -123.3 9.234e+03 6.805e-11
  0.35702   -121.2 9.310e+03 7.078e-11
  0.37717   -121.0 9.330e+03 6.351e-11
  0.39571   -120.7 9.270e+03 5.921e-11
  0.41657   -118.6 9.316e+03 6.539e-11
  0.45758   -116.6 9.363e+03 7.239e-11
  0.49858   -114.5 9.425e+03 7.921e-11
  0.52546   -112.5 9.497e+03 8.536e-11
  0.54597   -112.3 9.512e+03 8.122e-11
  0.57363   -110.4 9.574e+03 8.632e-11
  0.59413   -109.8 9.457e+03 6.498e-11
  0.62160   -107.8 9.515e+03 6.465e-11
  0.66261   -105.9 9.590e+03 6.547e-11
  0.69390   -104.2 9.716e+03 6.833e-11
  0.71441   -104.4 9.778e+03 7.716e-11
  0.74462   -102.8 9.845e+03 9.214e-11
  0.77205   -101.2 9.897e+03 1.143e-10
  0.79255   -100.5 9.910e+03 7.921e-11
  0.82663    -98.9 9.941e+03 1.075e-10
  0.86234    -97.3 1.002e+04 1.461e-10
  0.88285    -97.2 9.969e+03 1.560e-10
  0.90864    -95.6 1.001e+04 1.897e-10
  0.94965    -94.2 1.003e+04 2.273e-10
  0.97047    -92.9 1.005e+04 2.659e-10
  0.99098    -92.2 1.001e+04 2.467e-10
  1.03078    -91.2 9.990e+03 2.692e-10
  1.05129    -91.4 9.726e+03 1.743e-10
  1.07267    -90.2 9.632e+03 1.867e-10
  1.11367    -88.9 9.556e+03 1.931e-10
  1.14839    -87.4 9.502e+03 1.962e-10
  1.16890    -86.9 9.499e+03 1.890e-10
  1.19568    -85.3 9.228e+03 1.886e-10
  1.21973    -83.6 9.199e+03 1.666e-10
  1.24023    -83.8 9.319e+03 1.908e-10
  1.27770    -82.2 9.326e+03 2.058e-10
  1.31870    -80.6 9.318e+03 2.191e-10
  1.34682    -78.9 9.325e+03 2.355e-10
  1.36732    -78.9 9.654e+03 3.102e-10
  1.38817    -77.1 9.685e+03 3.485e-10
  1.40867    -77.1 1.005e+04 4.947e-10
  1.44172    -75.3 1.001e+04 4.901e-10
  1.48272    -73.3 9.809e+03 4.328e-10
  1.52373    -71.5 9.594e+03 3.564e-10
  1.54524    -69.8 9.380e+03 2.936e-10
  1.55761    -70.1 9.558e+03 3.112e-10
  1.57711    -70.7 9.417e+03 2.895e-10
  1.60574    -69.0 9.306e+03 2.726e-10
  1.64675    -67.2 9.291e+03 2.715e-10
  1.68775    -65.5 9.323e+03 2.975e-10
  1.72316    -63.6 9.370e+03 3.358e-10
  1.73995    -64.0 9.456e+03 3.276e-10
  1.74555    -64.1 9.399e+03 3.600e-10
  1.76977    -62.2 9.458e+03 3.727e-10
  1.81077    -60.3 9.468e+03 3.714e-10
  1.85178    -58.5 9.422e+03 3.457e-10
  1.89278    -56.9 9.411e+03 3.329e-10
  1.91399    -55.6 9.482e+03 3.444e-10
  1.92228    -55.5 9.416e+03 3.640e-10
  1.94209    -56.2 9.510e+03 3.827e-10
  1.97480    -55.3 9.727e+03 4.988e-10
  2.01580    -54.0 1.004e+04 6.673e-10
  2.05681    -52.5 1.033e+04 8.377e-10
  2.08243    -51.2 1.043e+04 8.912e-10
  2.10293    -51.0 9.940e+03 7.007e-10
  2.12001    -50.0 9.761e+03 5.939e-10
  2.14051    -50.4 9.044e+03 3.418e-10
  2.17983    -50.5 8.699e+03 2.755e-10
  2.22083    -50.5 8.568e+03 2.691e-10
  2.25087    -50.1 8.587e+03 2.914e-10
  2.27137    -49.8 8.245e+03 2.264e-10
  2.29793    -49.6 8.282e+03 2.332e-10
  2.31843    -50.1 8.211e+03 2.146e-10
  2.34385    -51.1 8.322e+03 2.095e-10
  2.38485    -53.9 8.532e+03 2.165e-10
  2.41931    -55.5 9.159e+03 4.202e-10
  2.43981    -54.3 8.503e+03 2.732e-10
  2.46687    -54.5 9.184e+03 5.316e-10
  2.49635    -54.0 9.671e+03 7.198e-10
  2.51685    -54.3 9.895e+03 8.116e-10
  2.54888    -54.5 9.906e+03 7.516e-10
  2.58775    -56.4 9.897e+03 6.719e-10
  2.60825    -56.2 1.010e+04 7.963e-10
  2.62054    -57.6 1.049e+04 9.385e-10
  2.64095    -58.1 1.060e+04 9.969e-10
  2.66145    -59.2 1.065e+04 1.076e-09
  2.68195    -59.5 1.062e+04 1.082e-09
  2.69458    -58.9 1.072e+04 1.169e-09
  2.70483    -59.0 1.057e+04 1.086e-09
  2.72296    -59.0 1.014e+04 8.031e-10
  2.74346    -59.6 9.644e+03 5.612e-10
  2.76396    -60.3 9.157e+03 4.013e-10
  2.77659    -60.9 8.758e+03 3.000e-10
  2.79719    -60.2 8.724e+03 2.722e-10
  2.83592    -60.5 8.129e+03 1.709e-10
  2.87269    -60.5 7.857e+03 1.374e-10
  2.89319    -60.1 7.804e+03 1.235e-10
  2.91793    -59.3 7.753e+03 1.191e-10
  2.94513    -58.6 7.833e+03 1.371e-10
  2.96563    -58.4 8.066e+03 1.778e-10
  2.99994    -57.2 8.190e+03 2.445e-10
  3.04095    -55.7 8.231e+03 2.804e-10
  3.07111    -54.1 8.208e+03 2.858e-10
  3.09162    -53.8 8.245e+03 2.807e-10
  3.11357    -52.2 8.189e+03 2.634e-10
  3.13407    -51.6 8.319e+03 3.096e-10
  3.16397    -50.1 8.106e+03 2.548e-10
  3.20497    -48.7 7.923e+03 2.046e-10
  3.24598    -47.4 7.854e+03 1.715e-10
  3.26954    -46.8 7.916e+03 1.558e-10
  3.28507    -47.4 8.411e+03 2.117e-10
  3.30251    -46.7 8.570e+03 2.610e-10
  3.32799    -46.6 9.056e+03 3.502e-10
  3.36900    -46.1 9.362e+03 4.495e-10
  3.41000    -45.7 9.422e+03 4.988e-10
  3.44746    -45.2 9.216e+03 4.564e-10
  3.46740    -45.0 9.323e+03 4.769e-10
  3.47095    -44.4 9.591e+03 5.555e-10
  3.49201    -44.7 9.094e+03 3.966e-10
  3.53302    -44.3 8.858e+03 3.343e-10
  3.57403    -43.2 8.807e+03 3.071e-10
  3.61503    -42.3 8.835e+03 2.919e-10
  3.63939    -41.3 8.858e+03 2.829e-10
  3.64974    -40.4 8.948e+03 3.183e-10
  3.66638    -40.2 8.943e+03 3.116e-10
  3.69704    -38.9 8.872e+03 2.748e-10
  3.73805    -37.6 8.713e+03 2.286e-10
  3.77905    -36.2 8.578e+03 1.946e-10
  3.80783    -35.0 8.566e+03 1.857e-10
  3.82834    -34.6 8.555e+03 1.657e-10
  3.84430    -34.4 8.857e+03 2.033e-10
  3.86481    -34.2 8.739e+03 1.593e-10
  3.90207    -34.7 9.386e+03 3.054e-10
  3.93273    -34.5 1.046e+04 5.848e-10
  3.94332    -35.8 1.100e+04 8.793e-10
  3.95357    -35.1 1.068e+04 6.797e-10
  3.97364    -34.7 1.131e+04 1.124e-09
  3.98633    -34.9 1.133e+04 1.330e-09
  3.99658    -35.1 1.135e+04 1.464e-09
  4.01464    -33.8 1.152e+04 1.615e-09
  4.03228    -33.1 1.142e+04 1.356e-09
  4.04253    -32.9 1.116e+04 1.160e-09
  4.05565    -32.5 1.126e+04 7.418e-10
  4.07055    -33.7 1.129e+04 4.068e-10
  4.08080    -32.9 1.115e+04 4.771e-10
  4.10700    -35.6 1.051e+04 2.548e-10
  4.14471    -36.8 9.819e+03 1.941e-10
  4.16522    -35.3 9.806e+03 1.968e-10
  4.18911    -35.4 9.612e+03 1.772e-10
  4.22065    -35.1 9.666e+03 1.893e-10
  4.24115    -34.3 9.744e+03 1.925e-10
  4.27113    -34.2 9.883e+03 2.424e-10
  4.31213    -34.0 1.009e+04 3.076e-10
  4.33366    -33.3 1.024e+04 3.634e-10
  4.35416    -31.8 1.023e+04 3.512e-10
  4.39414    -31.1 1.027e+04 3.602e-10
  4.41907    -30.5 1.010e+04 3.215e-10
  4.43957    -29.8 1.009e+04 3.150e-10
  4.47615    -29.1 1.003e+04 2.808e-10
  4.50209    -28.7 1.020e+04 2.872e-10
  4.52260    -27.9 1.020e+04 2.649e-10
  4.55817    -28.3 1.084e+04 4.695e-10
  4.59699    -28.3 1.195e+04 9.620e-10
  4.61749    -27.8 1.156e+04 8.144e-10
  4.62983    -26.9 1.242e+04 1.314e-09
  4.65023    -27.1 1.256e+04 1.609e-09
  4.67034    -26.2 1.258e+04 1.955e-09
  4.69094    -24.5 1.221e+04 1.300e-09
  4.72219    -24.0 1.194e+04 1.196e-09
  4.75285    -23.8 1.149e+04 9.397e-10
  4.76481    -23.7 1.147e+04 9.121e-10
  4.77506    -23.6 1.145e+04 9.005e-10
  4.79375    -23.2 1.152e+04 9.194e-10
  4.80547    -23.3 1.183e+04 9.828e-10
  4.81582    -23.0 1.129e+04 8.208e-10
  4.83486    -22.3 1.200e+04 1.009e-09
  4.84903    -23.2 1.277e+04 1.337e-09
  4.85938    -21.4 1.190e+04 1.082e-09
  4.87586    -21.7 1.305e+04 1.655e-09
  4.89443    -21.8 1.319e+04 2.215e-09
  4.90468    -20.8 1.268e+04 1.430e-09
  4.91677    -20.7 1.271e+04 1.908e-09
  4.93325    -19.4 1.280e+04 2.208e-09
  4.94350    -19.2 1.265e+04 1.601e-09
  4.96813    -18.4 1.310e+04 2.277e-09
  4.99383    -17.5 1.244e+04 1.668e-09
  5.01252    -16.5 1.228e+04 1.665e-09
  5.02792    -15.6 1.152e+04 8.965e-10
  5.05024    -14.0 1.136e+04 9.366e-10
  5.09124    -12.1 1.109e+04 7.850e-10
  5.13225    -10.2 1.076e+04 4.950e-10
  5.17175     -8.7 1.050e+04 2.922e-10
  5.19226     -6.9 1.074e+04 4.637e-10
  5.19636     -5.5 1.062e+04 2.477e-10
  5.21686     -4.4 1.059e+04 3.211e-10
  5.25527     -3.3 1.053e+04 2.115e-10
  5.29627     -2.3 1.032e+04 1.893e-10
  5.33728     -1.1 1.014e+04 2.312e-10
  5.36480      0.9 1.017e+04 2.904e-10
  5.37719      2.0 1.031e+04 3.405e-10
  5.39068      3.2 1.046e+04 4.196e-10
  5.41929      5.4 1.061e+04 3.963e-10
  5.46030      7.0 1.071e+04 3.418e-10
  5.50130      8.0 1.099e+04 3.370e-10
  5.53324      6.2 1.218e+04 5.424e-10
  5.55374      6.1 1.258e+04 6.480e-10
  5.56850      4.7 1.265e+04 1.240e-09
  5.57866      5.7 1.285e+04 9.707e-10
  5.59337      6.4 1.239e+04 1.906e-09
  5.61387      8.3 1.256e+04 2.454e-09
  5.62751      9.3 1.303e+04 2.386e-09
  5.63776      9.8 1.326e+04 2.554e-09
  5.66523      9.0 1.322e+04 1.751e-09
  5.70168      7.2 1.242e+04 9.629e-10
  5.72218      7.7 1.226e+04 9.826e-10
  5.74652      6.7 1.141e+04 6.849e-10
  5.76702      7.5 1.189e+04 8.576e-10
  5.78834      7.8 1.134e+04 7.044e-10
  5.82935      9.3 1.100e+04 5.830e-10
  5.87012     11.0 1.076e+04 4.503e-10
  5.89062     11.3 1.071e+04 5.111e-10
  5.91136     13.2 1.043e+04 4.177e-10
  5.94494     15.2 1.017e+04 2.812e-10
  5.96545     15.6 1.023e+04 2.602e-10
  5.99337     17.2 1.017e+04 2.132e-10
  6.03438     18.5 1.005e+04 2.011e-10
  6.05906     20.3 9.922e+03 2.062e-10
  6.07956     21.0 9.889e+03 2.033e-10
  6.11639     22.9 9.824e+03 2.073e-10
  6.14337     25.2 9.780e+03 1.999e-10
  6.16387     26.3 9.883e+03 2.346e-10
  6.19840     28.3 9.860e+03 1.979e-10
  6.22750     29.9 9.880e+03 1.810e-10
  6.24800     30.6 9.673e+03 1.547e-10
  6.28041     32.3 9.703e+03 1.515e-10
  6.32129     33.8 9.790e+03 1.591e-10
  6.36229     35.7 1.020e+04 2.402e-10
  6.39594     36.9 1.032e+04 3.280e-10
  6.41644     37.7 1.008e+04 2.461e-10
  6.44444     38.8 1.033e+04 3.963e-10
  6.48544     40.2 1.090e+04 6.797e-10
  6.51971     40.9 1.161e+04 1.048e-09
  6.54011     41.4 1.168e+04 1.065e-09
  6.55701     41.7 1.191e+04 1.247e-09
  6.57443     42.0 1.211e+04 1.395e-09
  6.58469     41.8 1.235e+04 1.599e-09
  6.59801     42.0 1.256e+04 1.795e-09
  6.61852     42.2 1.257e+04 1.885e-09
  6.62898     42.3 1.248e+04 1.872e-09
  6.63923     42.6 1.238e+04 1.555e-09
  6.65865     42.7 1.215e+04 1.537e-09
  6.66891     42.6 1.269e+04 2.179e-09
  6.69037     43.2 1.228e+04 1.764e-09
  6.71813     43.8 1.198e+04 1.470e-09
  6.72829     43.9 1.199e+04 1.826e-09
  6.74153     44.3 1.202e+04 1.832e-09
  6.75313     44.6 1.218e+04 1.909e-09
  6.76338     44.2 1.275e+04 2.083e-09
  6.78254     44.2 1.287e+04 2.128e-09
  6.80304     44.0 1.308e+04 2.307e-09
  6.81715     43.9 1.331e+04 2.610e-09
  6.82740     44.5 1.388e+04 3.249e-09
  6.83735     44.6 1.420e+04 3.751e-09
  6.84760     44.3 1.383e+04 2.987e-09
  6.86455     44.9 1.370e+04 2.779e-09
  6.88506     45.7 1.332e+04 2.307e-09
  6.90556     46.4 1.283e+04 1.729e-09
  6.91636     46.8 1.231e+04 1.218e-09
  6.92212     47.4 1.262e+04 1.442e-09
  6.94217     46.5 1.122e+04 3.772e-10
  6.97751     45.3 9.566e+03 1.643e-10
  7.01852     45.3 8.903e+03 1.330e-10
  7.05953     46.8 8.835e+03 1.508e-10
  7.09020     48.9 9.026e+03 2.008e-10
  7.10465     49.3 8.627e+03 1.457e-10
  7.11498     49.7 8.739e+03 1.508e-10
  7.14154     52.1 8.976e+03 2.007e-10
  7.18254     54.3 9.257e+03 2.634e-10
  7.22355     56.3 9.551e+03 3.400e-10
  7.25864     58.1 9.841e+03 4.418e-10
  7.27914     58.6 9.306e+03 2.319e-10
  7.29290     60.1 9.529e+03 3.027e-10
  7.31340     61.0 9.482e+03 3.387e-10
  7.34657     62.4 9.904e+03 4.668e-10
  7.38757     63.5 1.045e+04 6.865e-10
  7.42708     64.5 1.103e+04 9.841e-10
  7.44758     64.9 1.034e+04 6.105e-10
  7.46958     65.8 1.075e+04 8.151e-10
  7.49132     66.4 1.081e+04 8.748e-10
  7.51182     67.0 1.154e+04 1.268e-09
  7.55160     68.0 1.118e+04 1.056e-09
  7.59260     69.3 1.054e+04 6.816e-10
  7.61602     70.6 9.904e+03 3.794e-10
  7.63653     70.7 9.768e+03 3.836e-10
  7.66924     71.7 9.344e+03 2.462e-10
  7.68974     71.9 9.427e+03 2.320e-10
  7.71562     73.0 9.159e+03 1.891e-10
  7.75663     74.6 9.033e+03 1.780e-10
  7.78446     76.4 8.959e+03 1.721e-10
  7.80497     76.8 9.055e+03 2.129e-10
  7.83864     78.6 9.028e+03 2.062e-10
  7.86766     80.4 8.994e+03 1.917e-10
  7.88817     80.6 9.161e+03 2.047e-10
  7.92065     82.3 9.064e+03 1.818e-10
  7.95290     84.0 9.018e+03 1.704e-10
  7.97341     84.4 9.327e+03 2.620e-10
  8.00266     86.1 9.325e+03 2.451e-10
  8.04367     87.9 9.379e+03 2.349e-10
  8.06609     89.7 9.469e+03 2.285e-10
  8.08659     90.0 9.377e+03 2.030e-10
  8.12134     91.6 9.378e+03 1.743e-10
  8.14185     91.9 9.413e+03 1.756e-10
  8.16668     93.2 9.293e+03 1.278e-10
  8.20769     94.3 9.013e+03 1.043e-10
  8.24401     95.6 8.886e+03 1.038e-10
  8.26451     96.5 8.683e+03 8.276e-11
  8.28970     98.3 8.671e+03 8.577e-11
  8.33071    100.6 8.710e+03 9.808e-11
  8.37171    102.6 8.783e+03 1.174e-10
  8.41272    104.6 8.901e+03 1.432e-10
  8.44243    106.6 9.067e+03 1.781e-10
  8.46293    107.9 8.819e+03 1.203e-10
  8.47873    109.7 8.999e+03 1.507e-10
  8.49923    110.3 9.037e+03 1.509e-10
  8.53574    111.9 9.347e+03 2.021e-10
  8.57674    112.9 9.803e+03 2.897e-10
  8.60740    113.5 1.003e+04 3.322e-10
  8.62781    113.7 1.030e+04 3.970e-10
  8.64066    113.9 1.064e+04 5.325e-10
  8.64957    115.5 1.019e+04 3.717e-10
  8.65722    115.8 1.023e+04 3.531e-10
  8.66881    115.6 1.059e+04 4.875e-10
  8.68931    115.4 1.089e+04 6.823e-10
  8.70982    115.4 1.109e+04 8.469e-10
  8.72962    115.0 1.130e+04 8.893e-10
  8.73987    116.4 1.097e+04 7.379e-10
  8.74144    115.9 1.099e+04 7.310e-10
  8.75169    116.1 1.108e+04 7.871e-10
  8.78167    114.9 1.104e+04 6.983e-10
  8.81561    114.1 1.054e+04 4.783e-10
  8.83210    114.1 1.077e+04 5.542e-10
  8.83918    116.0 1.056e+04 4.441e-10
  8.86369    115.8 1.020e+04 3.697e-10
  8.90479    114.9 9.802e+03 3.535e-10
  8.94580    114.4 9.701e+03 3.654e-10
  8.98405    114.1 9.636e+03 3.646e-10
  9.00455    113.7 9.603e+03 3.594e-10
  9.01719    112.9 9.495e+03 3.055e-10
  9.03770    116.0 9.818e+03 4.176e-10
  9.06881    114.9 9.690e+03 3.549e-10
  9.10982    113.4 9.407e+03 2.687e-10
  9.15083    111.9 8.992e+03 2.026e-10
  9.17299    111.0 8.616e+03 1.644e-10
  9.19349    110.1 8.470e+03 1.513e-10
  9.21562    110.0 8.336e+03 1.340e-10
  9.23612    111.6 8.435e+03 1.525e-10
  9.27384    111.5 8.288e+03 1.242e-10
  9.31485    111.3 8.263e+03 1.058e-10
  9.34143    110.9 8.314e+03 1.077e-10
  9.36193    110.1 8.270e+03 9.781e-11
  9.39354    109.3 8.526e+03 1.358e-10
  9.41404    110.3 8.218e+03 8.634e-11
  9.43787    109.1 8.554e+03 1.451e-10
  9.47887    107.8 9.483e+03 3.109e-10
  9.50987    106.2 1.083e+04 6.778e-10
  9.53037    105.6 1.134e+04 9.188e-10
  9.56088    103.3 1.199e+04 1.259e-09
  9.59196    100.6 1.207e+04 1.269e-09
  9.61246    101.8 1.085e+04 6.594e-10
  9.64290     99.3 1.104e+04 7.573e-10
  9.67355     97.6 1.121e+04 8.481e-10
  9.68836     96.3 1.134e+04 9.266e-10
  9.69563     95.7 1.147e+04 9.994e-10
  9.70123     96.8 1.119e+04 8.436e-10
  9.71446     95.4 1.139e+04 9.613e-10
  9.73496     94.2 1.158e+04 1.071e-09
  9.75547     92.8 1.187e+04 1.133e-09
  9.77258     91.6 1.189e+04 1.136e-09
  9.78284     90.9 1.221e+04 1.288e-09
  9.79029     89.2 1.203e+04 1.227e-09
  9.81089     90.6 1.178e+04 9.807e-10
  9.84675     87.7 1.185e+04 1.115e-09
  9.86725     85.8 1.234e+04 1.432e-09
  9.88893     82.7 1.232e+04 1.425e-09
  9.92994     79.6 1.191e+04 1.231e-09
  9.96830     76.9 1.115e+04 8.989e-10
  9.98881     77.6 1.145e+04 1.049e-09
 10.01195     75.6 1.036e+04 5.575e-10
 10.03569     73.5 9.256e+03 2.664e-10
 10.05619     72.5 9.086e+03 2.404e-10
 10.09396     71.3 8.782e+03 1.899e-10
 10.13497     71.1 8.746e+03 1.922e-10
 10.16673     71.4 8.757e+03 2.090e-10
 10.18723     71.7 8.816e+03 2.254e-10
 10.20413     72.4 8.892e+03 2.377e-10
 10.22463     72.5 8.925e+03 2.342e-10
 10.25798     73.3 8.952e+03 2.384e-10
 10.29899     74.1 9.052e+03 2.534e-10
 10.34000     74.9 9.308e+03 3.015e-10
 10.36515     75.0 9.611e+03 3.794e-10
 10.37722     75.8 9.590e+03 3.560e-10
 10.39307     76.0 9.622e+03 3.514e-10
 10.41166     75.9 1.003e+04 5.031e-10
 10.43206     76.1 1.049e+04 7.167e-10
 10.45257     76.4 1.101e+04 1.023e-09
 10.46416     77.0 1.160e+04 1.417e-09
 10.46819     77.7 1.160e+04 1.394e-09
 10.47710     78.0 1.151e+04 1.262e-09
 10.49357     78.0 1.227e+04 1.758e-09
 10.51408     77.0 1.358e+04 2.618e-09
 10.53458     74.5 1.516e+04 3.770e-09
 10.54991     71.4 1.706e+04 5.620e-09
 10.55609     69.2 1.806e+04 7.334e-09
 10.55926     67.6 1.898e+04 1.016e-08
 10.56328     67.3 2.000e+04 1.339e-08
 10.57036     66.5 2.010e+04 1.642e-08
 10.58061     65.6 2.005e+04 1.690e-08
 10.59086     65.2 1.972e+04 1.582e-08
 10.59820     64.5 1.924e+04 1.390e-08
 10.60333     64.5 1.932e+04 1.595e-08
 10.61654     63.9 1.886e+04 1.326e-08
 10.63529     63.0 1.684e+04 6.989e-09
 10.64554     61.6 1.673e+04 6.523e-09
 10.65234     58.5 1.424e+04 3.386e-09
 10.66259     57.7 1.485e+04 4.222e-09
 10.67810     55.9 1.336e+04 2.772e-09
 10.69860     55.6 1.286e+04 2.258e-09
 10.71911     56.2 1.268e+04 2.113e-09
 10.72976     56.7 1.276e+04 2.162e-09
 10.74001     56.8 1.227e+04 1.639e-09
 10.75155     57.5 1.228e+04 1.614e-09
 10.76180     56.5 1.262e+04 1.952e-09
 10.78061     57.4 1.262e+04 2.003e-09
 10.80112     58.3 1.259e+04 1.987e-09
 10.81398     59.3 1.242e+04 1.883e-09
 10.82423     59.0 1.153e+04 1.122e-09
 10.84051     59.8 1.121e+04 9.977e-10
 10.85076     59.6 1.145e+04 1.247e-09
 10.86263     60.5 1.104e+04 1.041e-09
 10.88313     61.2 1.065e+04 8.566e-10
 10.89820     61.8 1.032e+04 7.185e-10
 10.90845     62.0 9.806e+03 5.315e-10
 10.92413     62.7 9.669e+03 4.834e-10
 10.93972     63.8 9.508e+03 4.509e-10
 10.94997     63.8 9.668e+03 5.015e-10
 10.96514     64.9 9.653e+03 4.990e-10
 10.98242     65.9 9.657e+03 5.019e-10
 10.99267     66.2 9.434e+03 4.371e-10
 11.00615     67.3 9.412e+03 4.406e-10
 11.02665     68.5 9.431e+03 4.562e-10
 11.03893     69.6 9.635e+03 5.013e-10
 11.04918     69.9 1.003e+04 5.647e-10
 11.06664     70.5 1.071e+04 7.003e-10
 11.07689     70.8 9.715e+03 5.095e-10
 11.08816     71.3 1.036e+04 6.262e-10
 11.10866     71.1 1.161e+04 8.624e-10
 11.12789     70.8 1.332e+04 1.340e-09
 11.13814     70.4 1.465e+04 2.227e-09
 11.14967     70.4 1.578e+04 3.816e-09
 11.16111     70.4 1.673e+04 5.632e-09
 11.17136     70.6 1.575e+04 2.842e-09
 11.19067     70.2 1.652e+04 4.084e-09
 11.21118     69.6 1.732e+04 5.609e-09
 11.22710     68.8 1.765e+04 6.702e-09
 11.23735     67.9 1.946e+04 1.227e-08
 11.24533     66.3 1.949e+04 1.413e-08
 11.25558     66.7 1.823e+04 6.432e-09
 11.27268     65.3 1.772e+04 6.701e-09
 11.29319     64.2 1.715e+04 6.581e-09
 11.31369     63.5 1.646e+04 6.139e-09
 11.32631     62.8 1.576e+04 5.360e-09
 11.33192     62.2 1.668e+04 7.897e-09
 11.33980     62.3 1.544e+04 4.710e-09
 11.35470     61.1 1.500e+04 4.374e-09
 11.37520     59.1 1.485e+04 4.420e-09
 11.39570     57.1 1.469e+04 4.698e-09
 11.41377     56.2 1.472e+04 5.396e-09
 11.42304     56.1 1.495e+04 5.767e-09
 11.42543     54.7 1.589e+04 6.865e-09
 11.43149     50.5 1.893e+04 1.100e-08
 11.44174     43.2 2.337e+04 2.129e-08
 11.45199     38.6 2.446e+04 3.776e-08
 11.46091     36.1 2.270e+04 4.725e-08
 11.46603     36.4 2.276e+04 5.179e-08
 11.46991     35.2 2.184e+04 4.664e-08
 11.47503     34.1 2.158e+04 4.007e-08
 11.48274     32.1 2.097e+04 2.658e-08
 11.49299     30.2 2.140e+04 1.502e-08
 11.50302     26.8 2.122e+04 7.915e-09
 11.50819     29.7 2.204e+04 1.115e-08
 11.51448     17.6 1.940e+04 2.111e-09
 11.52474     10.7 1.427e+04 1.261e-09
 11.53922      4.8 1.054e+04 6.986e-10
 11.55973      4.2 1.020e+04 6.348e-10
 11.58023      4.2 9.966e+03 5.842e-10
 11.59246      4.6 9.658e+03 5.258e-10
 11.60271      4.3 9.641e+03 5.081e-10
