# Columns:
#   distance along LOS (in CHIMPs)
#   peculiar velocity  (in km/s)
#   temperature (K)
#   HI number density
# pos=(221.5,16.6434,225.232), angles=(0.515333,4.58555)
  0.00048   -240.2 9.699e+03 2.452e-10
  0.00232   -239.6 9.702e+03 2.439e-10
  0.02495   -239.4 9.685e+03 2.438e-10
  0.04740   -238.4 9.712e+03 2.456e-10
  0.07102   -238.3 9.634e+03 2.322e-10
  0.10980   -238.3 9.476e+03 2.101e-10
  0.13225   -237.5 9.734e+03 2.580e-10
  0.16080   -237.7 9.581e+03 2.347e-10
  0.19464   -237.8 9.473e+03 2.185e-10
  0.21709   -237.6 9.881e+03 3.120e-10
  0.25059   -238.0 9.827e+03 3.030e-10
  0.27949   -237.9 9.750e+03 2.993e-10
  0.30194   -239.4 1.019e+04 4.656e-10
  0.32181   -240.6 9.120e+03 4.939e-10
  0.33294   -242.6 9.436e+03 6.341e-10
  0.35140   -248.0 1.184e+04 1.065e-09
  0.36414   -254.7 1.681e+04 2.317e-09
  0.37536   -257.2 1.798e+04 3.808e-09
  0.39534   -263.6 2.074e+04 1.071e-08
  0.40656   -264.9 2.040e+04 1.199e-08
  0.41874   -270.0 2.118e+04 2.120e-08
  0.43553   -273.5 2.097e+04 2.303e-08
  0.44327   -275.5 2.096e+04 2.354e-08
  0.44893   -275.5 2.056e+04 2.079e-08
  0.46363   -279.4 1.975e+04 1.957e-08
  0.48013   -281.5 1.804e+04 1.298e-08
  0.49136   -282.2 1.722e+04 9.602e-09
  0.50853   -284.2 1.533e+04 4.816e-09
  0.52261   -285.8 1.357e+04 2.401e-09
  0.53383   -286.1 1.253e+04 1.507e-09
  0.55342   -287.3 1.123e+04 8.343e-10
  0.56503   -287.6 1.073e+04 5.557e-10
  0.57625   -287.3 1.044e+04 4.244e-10
  0.59623   -287.1 1.037e+04 3.384e-10
  0.61646   -286.6 1.027e+04 2.886e-10
  0.62977   -286.3 1.029e+04 3.039e-10
  0.65453   -286.2 1.022e+04 2.754e-10
  0.68127   -285.8 1.005e+04 2.240e-10
  0.70371   -285.3 9.785e+03 1.800e-10
  0.74367   -284.8 9.718e+03 1.625e-10
  0.76611   -283.9 9.654e+03 1.482e-10
  0.78930   -283.2 9.668e+03 1.480e-10
  0.82851   -282.6 9.844e+03 1.686e-10
  0.85096   -281.4 9.847e+03 1.671e-10
  0.87909   -280.8 1.003e+04 2.057e-10
  0.91336   -280.3 1.013e+04 2.381e-10
  0.93580   -279.0 1.016e+04 2.389e-10
  0.96887   -278.5 1.017e+04 2.493e-10
  0.99820   -278.0 1.016e+04 2.493e-10
  1.02065   -276.7 1.027e+04 2.568e-10
  1.05866   -276.0 1.015e+04 2.333e-10
  1.08305   -274.9 1.000e+04 1.950e-10
  1.10549   -273.7 1.021e+04 2.368e-10
  1.14544   -272.5 1.010e+04 2.007e-10
  1.16789   -271.5 1.044e+04 3.128e-10
  1.19334   -270.4 1.041e+04 2.865e-10
  1.23029   -269.3 1.045e+04 2.762e-10
  1.24946   -268.4 1.078e+04 4.314e-10
  1.25740   -267.8 1.086e+04 4.819e-10
  1.28312   -267.0 1.090e+04 4.630e-10
  1.31513   -266.5 1.094e+04 4.434e-10
  1.33758   -265.7 1.124e+04 6.224e-10
  1.37291   -265.5 1.123e+04 5.611e-10
  1.39998   -265.3 1.110e+04 4.623e-10
  1.42243   -264.5 1.134e+04 6.032e-10
  1.46238   -264.3 1.107e+04 4.487e-10
  1.48482   -263.3 1.130e+04 5.704e-10
  1.50759   -262.7 1.097e+04 3.891e-10
  1.54722   -261.7 1.061e+04 2.544e-10
  1.56967   -260.5 1.093e+04 3.367e-10
  1.59737   -259.4 1.060e+04 2.189e-10
  1.63207   -258.1 1.042e+04 1.569e-10
  1.65451   -257.0 1.068e+04 2.108e-10
  1.68716   -255.6 1.049e+04 1.548e-10
  1.71691   -254.1 1.042e+04 1.322e-10
  1.73936   -253.1 1.060e+04 1.697e-10
  1.77694   -251.4 1.055e+04 1.420e-10
  1.80176   -249.6 1.055e+04 1.349e-10
  1.82420   -248.6 1.069e+04 1.791e-10
  1.86250   -246.7 1.073e+04 1.679e-10
  1.88237   -246.3 1.075e+04 1.663e-10
  1.88660   -245.2 1.087e+04 2.493e-10
  1.91162   -243.4 1.093e+04 2.412e-10
  1.94900   -241.9 1.098e+04 2.380e-10
  1.97145   -240.7 1.127e+04 3.916e-10
  2.00141   -239.6 1.146e+04 3.894e-10
  2.03385   -238.8 1.157e+04 3.821e-10
  2.05629   -237.5 1.186e+04 6.966e-10
  2.09119   -236.9 1.190e+04 6.610e-10
  2.11869   -236.4 1.187e+04 5.990e-10
  2.14114   -235.0 1.231e+04 1.064e-09
  2.18098   -234.6 1.218e+04 9.277e-10
  2.22587   -232.8 1.258e+04 1.337e-09
  2.26593   -232.7 1.241e+04 1.170e-09
  2.28838   -231.5 1.300e+04 1.757e-09
  2.31566   -231.6 1.282e+04 1.528e-09
  2.35078   -232.2 1.251e+04 1.312e-09
  2.37313   -230.6 1.279e+04 1.490e-09
  2.39301   -231.0 1.266e+04 1.397e-09
  2.40423   -230.7 1.285e+04 1.476e-09
  2.41647   -231.2 1.254e+04 1.309e-09
  2.43543   -231.7 1.217e+04 1.141e-09
  2.44665   -230.8 1.255e+04 1.309e-09
  2.46136   -231.1 1.224e+04 1.121e-09
  2.47785   -231.1 1.203e+04 1.014e-09
  2.48907   -230.7 1.219e+04 1.065e-09
  2.50107   -230.8 1.204e+04 9.877e-10
  2.51229   -230.4 1.199e+04 1.074e-09
  2.52027   -230.4 1.191e+04 1.036e-09
  2.53150   -229.8 1.215e+04 1.150e-09
  2.55115   -229.7 1.207e+04 1.121e-09
  2.56270   -229.6 1.199e+04 1.078e-09
  2.57392   -229.1 1.213e+04 1.188e-09
  2.59390   -228.9 1.204e+04 1.117e-09
  2.60512   -228.3 1.219e+04 1.226e-09
  2.61849   -228.1 1.211e+04 1.123e-09
  2.63632   -228.0 1.201e+04 1.010e-09
  2.64754   -227.5 1.211e+04 1.057e-09
  2.66338   -227.5 1.198e+04 9.316e-10
  2.67874   -227.5 1.181e+04 8.130e-10
  2.68996   -226.9 1.193e+04 8.426e-10
  2.70827   -226.9 1.175e+04 7.384e-10
  2.72116   -226.8 1.156e+04 6.543e-10
  2.73239   -226.2 1.169e+04 6.817e-10
  2.75236   -226.1 1.151e+04 6.186e-10
  2.76359   -225.5 1.168e+04 6.642e-10
  2.77561   -225.2 1.152e+04 6.111e-10
  2.79478   -224.8 1.136e+04 5.645e-10
  2.80601   -224.4 1.147e+04 5.988e-10
  2.81484   -224.1 1.131e+04 5.414e-10
  2.82606   -224.0 1.131e+04 5.448e-10
  2.83731   -223.8 1.106e+04 4.627e-10
  2.85985   -222.5 1.128e+04 5.322e-10
  2.89926   -221.7 1.097e+04 4.241e-10
  2.92225   -221.2 1.068e+04 3.170e-10
  2.94469   -219.9 1.091e+04 3.886e-10
  2.98465   -219.6 1.069e+04 3.025e-10
  3.00709   -218.7 1.098e+04 4.136e-10
  3.03394   -218.7 1.083e+04 3.437e-10
  3.06949   -218.5 1.078e+04 3.047e-10
  3.09194   -218.0 1.116e+04 4.851e-10
  3.11758   -217.4 1.100e+04 4.049e-10
  3.14003   -216.9 1.076e+04 3.151e-10
  3.15434   -216.0 1.068e+04 2.695e-10
  3.17678   -215.3 1.085e+04 3.556e-10
  3.21351   -214.1 1.075e+04 2.925e-10
  3.23918   -212.9 1.074e+04 2.611e-10
  3.26163   -211.9 1.083e+04 3.115e-10
  3.30158   -210.6 1.081e+04 2.707e-10
  3.32403   -209.4 1.090e+04 3.212e-10
  3.34819   -208.0 1.087e+04 2.684e-10
  3.38642   -206.7 1.089e+04 2.283e-10
  3.40887   -205.4 1.096e+04 2.475e-10
  3.43798   -204.2 1.095e+04 2.094e-10
  3.47127   -203.0 1.096e+04 1.826e-10
  3.49372   -201.8 1.101e+04 2.066e-10
  3.52776   -200.7 1.101e+04 1.835e-10
  3.55611   -199.6 1.099e+04 1.646e-10
  3.57856   -198.4 1.102e+04 1.884e-10
  3.61755   -197.3 1.095e+04 1.676e-10
  3.64096   -196.2 1.087e+04 1.530e-10
  3.66341   -195.0 1.090e+04 1.668e-10
  3.70336   -193.8 1.085e+04 1.552e-10
  3.72580   -192.6 1.090e+04 1.656e-10
  3.74512   -191.6 1.086e+04 1.567e-10
  3.76757   -191.3 1.083e+04 1.395e-10
  3.78820   -190.2 1.082e+04 1.381e-10
  3.81065   -189.2 1.085e+04 1.420e-10
  3.84201   -188.2 1.082e+04 1.344e-10
  3.87305   -187.3 1.079e+04 1.239e-10
  3.89549   -186.4 1.078e+04 1.213e-10
  3.93180   -185.6 1.072e+04 1.067e-10
  3.95789   -184.7 1.067e+04 9.431e-11
  3.98034   -183.7 1.066e+04 9.284e-11
  4.02029   -182.7 1.062e+04 8.402e-11
  4.04274   -181.6 1.068e+04 8.505e-11
  4.06648   -180.5 1.062e+04 7.738e-11
  4.10514   -179.3 1.060e+04 7.204e-11
  4.12758   -178.0 1.062e+04 7.313e-11
  4.15626   -176.7 1.059e+04 6.595e-11
  4.18998   -175.5 1.058e+04 6.041e-11
  4.21243   -174.1 1.059e+04 6.011e-11
  4.24605   -172.8 1.058e+04 5.446e-11
  4.27483   -171.5 1.058e+04 5.097e-11
  4.29727   -170.1 1.059e+04 5.071e-11
  4.33583   -168.8 1.058e+04 4.836e-11
  4.35967   -167.4 1.058e+04 4.808e-11
  4.37406   -166.0 1.059e+04 4.963e-11
  4.39511   -165.6 1.059e+04 4.738e-11
  4.42207   -164.2 1.059e+04 4.690e-11
  4.44452   -162.8 1.053e+04 5.380e-11
  4.47051   -161.4 1.054e+04 5.387e-11
  4.50691   -160.3 1.061e+04 5.461e-11
  4.52936   -158.9 1.054e+04 6.496e-11
  4.56030   -158.2 1.081e+04 7.956e-11
  4.59176   -157.6 1.090e+04 1.304e-10
  4.61421   -156.4 1.105e+04 1.725e-10
  4.65008   -155.7 1.118e+04 2.874e-10
  4.67660   -155.1 1.133e+04 4.202e-10
  4.69905   -154.0 1.148e+04 4.906e-10
  4.73900   -153.4 1.153e+04 5.773e-10
  4.76145   -152.4 1.148e+04 5.579e-10
  4.78476   -151.7 1.146e+04 5.644e-10
  4.82385   -150.8 1.130e+04 5.240e-10
  4.84629   -149.4 1.115e+04 3.830e-10
  4.87455   -148.5 1.109e+04 3.221e-10
  4.90869   -147.5 1.107e+04 2.712e-10
  4.93114   -146.5 1.108e+04 2.178e-10
  4.96433   -145.6 1.108e+04 2.017e-10
  4.99354   -144.5 1.107e+04 1.924e-10
  5.00697   -143.4 1.106e+04 1.960e-10
  5.02265   -142.7 1.100e+04 1.650e-10
  5.05412   -141.6 1.100e+04 1.638e-10
  5.07838   -140.7 1.105e+04 1.653e-10
  5.10083   -140.0 1.117e+04 2.152e-10
  5.14078   -139.3 1.126e+04 2.578e-10
  5.16323   -138.4 1.135e+04 4.090e-10
  5.18880   -137.5 1.142e+04 4.970e-10
  5.22563   -136.7 1.148e+04 5.710e-10
  5.24807   -135.5 1.151e+04 6.795e-10
  5.27858   -134.6 1.151e+04 6.785e-10
  5.31047   -133.7 1.146e+04 6.635e-10
  5.33292   -132.4 1.146e+04 6.070e-10
  5.36837   -131.6 1.144e+04 5.610e-10
  5.39532   -130.9 1.144e+04 5.152e-10
  5.41776   -130.2 1.147e+04 4.600e-10
  5.45772   -129.8 1.155e+04 4.774e-10
  5.48016   -129.2 1.154e+04 4.712e-10
  5.50305   -128.9 1.164e+04 5.911e-10
  5.54256   -128.7 1.174e+04 7.533e-10
  5.56501   -127.6 1.162e+04 6.403e-10
  5.59283   -127.5 1.173e+04 7.851e-10
  5.62741   -127.5 1.189e+04 9.590e-10
  5.63988   -126.7 1.167e+04 5.939e-10
  5.65019   -125.8 1.160e+04 5.947e-10
  5.68262   -126.2 1.167e+04 6.922e-10
  5.71225   -126.7 1.164e+04 7.692e-10
  5.73470   -126.3 1.138e+04 5.582e-10
  5.77240   -126.6 1.128e+04 5.828e-10
  5.79710   -126.6 1.120e+04 5.829e-10
  5.81954   -125.8 1.093e+04 4.240e-10
  5.85949   -125.7 1.071e+04 4.130e-10
  5.88194   -124.8 1.051e+04 2.918e-10
  5.90708   -124.6 1.041e+04 2.857e-10
  5.94434   -124.4 1.033e+04 2.832e-10
  5.96678   -123.3 1.015e+04 2.175e-10
  5.99687   -123.0 1.005e+04 2.326e-10
  6.02918   -122.6 9.973e+03 2.394e-10
  6.05163   -121.2 9.820e+03 1.914e-10
  6.08665   -120.7 9.769e+03 1.952e-10
  6.11403   -120.1 9.658e+03 1.942e-10
  6.13647   -118.4 9.635e+03 1.530e-10
  6.17643   -117.6 9.493e+03 1.518e-10
  6.22132   -115.1 9.418e+03 1.199e-10
  6.25529   -114.1 9.305e+03 1.151e-10
  6.27278   -113.2 9.377e+03 1.035e-10
  6.28372   -111.6 9.462e+03 9.610e-11
  6.31112   -110.6 9.392e+03 9.696e-11
  6.34612   -109.5 9.359e+03 9.693e-11
  6.36856   -107.9 9.388e+03 1.001e-10
  6.40090   -106.7 9.380e+03 1.006e-10
  6.43096   -105.7 9.415e+03 1.018e-10
  6.45341   -103.9 9.392e+03 1.032e-10
  6.49069   -102.9 9.496e+03 1.049e-10
  6.51581   -102.1 9.612e+03 1.212e-10
  6.53825   -100.2 9.592e+03 1.061e-10
  6.57821    -99.6 9.671e+03 1.324e-10
  6.60065    -97.8 9.680e+03 1.095e-10
  6.62537    -97.3 9.714e+03 1.444e-10
  6.66305    -96.8 9.722e+03 1.808e-10
  6.68550    -95.1 9.750e+03 1.610e-10
  6.71515    -94.7 9.743e+03 2.020e-10
  6.74790    -94.1 9.747e+03 2.312e-10
  6.77034    -92.6 9.821e+03 2.459e-10
  6.80494    -92.1 9.843e+03 2.749e-10
  6.83274    -91.5 9.834e+03 2.831e-10
  6.85519    -90.1 9.953e+03 3.113e-10
  6.88283    -89.6 9.939e+03 3.100e-10
  6.90528    -89.4 1.002e+04 3.155e-10
  6.91759    -88.7 9.882e+03 2.924e-10
  6.94003    -87.5 9.935e+03 2.935e-10
  6.97998    -86.6 9.811e+03 2.543e-10
  7.00243    -85.3 9.841e+03 2.486e-10
  7.02940    -84.4 9.757e+03 2.128e-10
  7.06483    -83.4 9.718e+03 1.862e-10
  7.08728    -82.1 9.734e+03 1.697e-10
  7.11919    -81.2 9.727e+03 1.454e-10
  7.14967    -80.3 9.740e+03 1.276e-10
  7.17212    -78.9 9.775e+03 1.083e-10
  7.20897    -78.0 9.788e+03 9.586e-11
  7.23452    -77.0 9.793e+03 9.149e-11
  7.25697    -75.5 9.793e+03 7.813e-11
  7.29692    -74.4 9.798e+03 7.692e-11
  7.31936    -72.8 9.765e+03 7.110e-11
  7.34365    -71.6 9.782e+03 7.051e-11
  7.38176    -70.3 9.856e+03 7.332e-11
  7.40421    -68.5 9.808e+03 6.876e-11
  7.43344    -67.1 9.885e+03 7.019e-11
  7.46661    -65.7 9.931e+03 7.182e-11
  7.48905    -63.8 9.922e+03 6.501e-11
  7.51037    -62.2 9.976e+03 6.260e-11
  7.53282    -62.1 9.998e+03 6.054e-11
  7.55145    -60.5 1.002e+04 5.858e-11
  7.57390    -58.6 1.002e+04 5.371e-11
  7.61301    -56.9 1.005e+04 5.065e-11
  7.63630    -55.2 1.004e+04 4.858e-11
  7.65874    -53.3 1.004e+04 4.848e-11
  7.69870    -51.5 1.004e+04 4.753e-11
  7.72114    -49.7 1.006e+04 4.967e-11
  7.74769    -48.0 1.006e+04 5.115e-11
  7.78354    -46.3 1.004e+04 5.468e-11
  7.80599    -44.5 1.004e+04 6.431e-11
  7.83747    -42.8 1.001e+04 7.086e-11
  7.86839    -40.9 1.001e+04 7.835e-11
  7.89083    -39.0 1.002e+04 8.843e-11
  7.92726    -37.1 1.003e+04 9.423e-11
  7.95323    -35.3 1.008e+04 1.005e-10
  7.97568    -33.3 1.007e+04 9.815e-11
  8.01563    -31.5 1.011e+04 1.006e-10
  8.03808    -29.6 1.007e+04 9.289e-11
  8.06194    -27.9 1.013e+04 9.355e-11
  8.10047    -26.2 1.025e+04 9.956e-11
  8.12292    -24.2 1.017e+04 8.971e-11
  8.13791    -22.8 1.033e+04 1.071e-10
  8.16036    -22.9 1.026e+04 1.205e-10
  8.18532    -21.5 1.039e+04 1.594e-10
  8.20777    -19.6 1.039e+04 1.809e-10
  8.24151    -18.4 1.064e+04 2.795e-10
  8.27016    -17.5 1.108e+04 4.708e-10
  8.29261    -15.4 1.123e+04 5.818e-10
  8.33129    -14.5 1.190e+04 1.018e-09
  8.35501    -13.8 1.260e+04 1.601e-09
  8.37746    -11.9 1.269e+04 1.731e-09
  8.41741    -11.9 1.312e+04 2.136e-09
  8.43985    -10.1 1.309e+04 2.113e-09
  8.46597    -11.0 1.317e+04 2.163e-09
  8.50225    -12.0 1.293e+04 1.890e-09
  8.52470    -10.0 1.286e+04 1.845e-09
  8.55576    -10.6 1.258e+04 1.591e-09
  8.58710    -11.1 1.247e+04 1.529e-09
  8.60954     -9.1 1.209e+04 1.228e-09
  8.64554     -9.5 1.189e+04 1.158e-09
  8.67194     -9.6 1.161e+04 1.038e-09
  8.69439     -8.0 1.126e+04 8.055e-10
  8.73434     -7.9 1.098e+04 6.798e-10
  8.75679     -6.3 1.076e+04 5.713e-10
  8.76546     -6.3 1.055e+04 4.985e-10
  8.78790     -6.5 1.037e+04 4.154e-10
  8.81919     -6.3 1.034e+04 4.199e-10
  8.84163     -4.8 1.034e+04 4.198e-10
  8.87001     -5.0 1.035e+04 4.188e-10
  8.90403     -5.6 1.052e+04 4.458e-10
  8.92648     -4.9 1.056e+04 4.740e-10
  8.94636     -6.2 1.078e+04 5.585e-10
  8.95748     -6.0 1.079e+04 5.923e-10
  8.97082     -6.6 1.091e+04 7.153e-10
  8.98868     -6.9 1.096e+04 7.784e-10
  8.99990     -6.7 1.092e+04 7.587e-10
  9.01571     -7.2 1.094e+04 7.618e-10
  9.03110     -7.9 1.096e+04 7.245e-10
  9.04233     -8.0 1.091e+04 6.957e-10
  9.06060     -9.7 1.094e+04 6.905e-10
  9.07353    -13.4 1.148e+04 7.360e-10
  9.08073    -14.3 1.131e+04 8.014e-10
  9.09025    -12.8 1.134e+04 7.829e-10
  9.10472    -18.0 1.259e+04 1.530e-09
  9.11595    -18.7 1.328e+04 1.929e-09
  9.12794    -23.1 1.608e+04 4.859e-09
  9.14715    -27.1 1.833e+04 9.986e-09
  9.15837    -27.4 1.800e+04 9.719e-09
  9.17284    -31.9 1.903e+04 1.294e-08
  9.18957    -36.7 1.917e+04 1.345e-08
  9.20079    -37.2 1.850e+04 1.199e-08
  9.21773    -41.2 1.749e+04 8.570e-09
  9.23199    -44.9 1.547e+04 4.480e-09
  9.24322    -44.5 1.502e+04 3.997e-09
  9.26262    -47.2 1.319e+04 2.255e-09
  9.27441    -48.7 1.219e+04 1.575e-09
  9.28564    -48.0 1.210e+04 1.459e-09
  9.30561    -48.6 1.180e+04 1.209e-09
  9.31684    -47.9 1.167e+04 1.083e-09
  9.32996    -48.1 1.158e+04 9.660e-10
  9.34804    -48.2 1.156e+04 9.253e-10
  9.35926    -47.7 1.135e+04 7.719e-10
  9.37485    -47.9 1.131e+04 7.535e-10
  9.39046    -48.1 1.130e+04 7.528e-10
  9.39718    -47.6 1.099e+04 6.152e-10
  9.40402    -46.1 1.107e+04 5.806e-10
  9.41975    -46.5 1.105e+04 5.765e-10
  9.43288    -46.7 1.102e+04 5.882e-10
  9.44410    -46.4 1.077e+04 4.843e-10
  9.46408    -46.6 1.069e+04 4.999e-10
  9.47530    -46.3 1.051e+04 4.227e-10
  9.49841    -46.5 1.050e+04 4.439e-10
  9.53790    -46.3 1.037e+04 4.507e-10
  9.56034    -45.3 1.008e+04 3.657e-10
  9.58829    -45.5 9.993e+03 3.743e-10
  9.62274    -45.5 9.899e+03 3.710e-10
  9.64519    -44.8 9.816e+03 3.645e-10
  9.67808    -44.6 9.867e+03 3.889e-10
  9.70759    -44.1 9.926e+03 4.046e-10
  9.73003    -43.5 1.012e+04 4.860e-10
  9.76786    -42.9 1.028e+04 5.184e-10
  9.79243    -42.0 1.036e+04 5.271e-10
  9.80356    -41.7 1.050e+04 6.002e-10
  9.82344    -41.6 1.049e+04 6.016e-10
  9.83466    -41.5 1.063e+04 6.924e-10
  9.84623    -41.0 1.049e+04 6.704e-10
  9.86586    -40.5 1.042e+04 5.866e-10
  9.87708    -40.0 1.046e+04 6.773e-10
  9.90244    -39.6 1.046e+04 4.831e-10
  9.93968    -39.3 1.033e+04 3.760e-10
  9.96212    -39.1 1.032e+04 3.538e-10
  9.99233    -38.2 9.946e+03 2.404e-10
 10.02054    -37.0 9.594e+03 1.633e-10
 10.03029    -36.3 9.997e+03 2.310e-10
 10.04697    -36.0 9.926e+03 2.096e-10
 10.08211    -34.8 9.598e+03 1.508e-10
 10.10937    -33.5 9.432e+03 1.219e-10
 10.13181    -33.0 9.476e+03 1.321e-10
 10.17176    -31.7 9.446e+03 1.275e-10
 10.21666    -30.1 9.642e+03 1.686e-10
 10.25661    -28.9 9.781e+03 2.052e-10
 10.27906    -28.5 1.014e+04 2.895e-10
 10.30657    -27.2 1.034e+04 3.537e-10
 10.34145    -26.1 1.042e+04 3.890e-10
 10.36380    -26.1 1.054e+04 4.485e-10
 10.38368    -25.3 1.054e+04 4.533e-10
 10.39490    -25.7 1.065e+04 5.222e-10
 10.40739    -25.0 1.060e+04 4.723e-10
 10.42620    -24.3 1.058e+04 4.154e-10
 10.43743    -24.7 1.067e+04 4.526e-10
 10.45228    -24.3 1.062e+04 4.095e-10
 10.48605    -24.1 1.065e+04 3.672e-10
 10.51114    -23.5 1.073e+04 3.321e-10
 10.52227    -24.4 1.084e+04 3.696e-10
 10.54207    -24.2 1.086e+04 3.666e-10
 10.56451    -25.1 1.108e+04 4.585e-10
 10.58457    -24.9 1.108e+04 4.724e-10
 10.59579    -25.7 1.132e+04 6.403e-10
 10.60941    -25.5 1.131e+04 6.619e-10
 10.62699    -25.2 1.131e+04 6.808e-10
 10.63822    -25.7 1.155e+04 8.720e-10
 10.64788    -25.3 1.155e+04 8.584e-10
 10.65911    -25.5 1.219e+04 1.339e-09
 10.66942    -25.1 1.215e+04 1.279e-09
 10.68064    -25.7 1.227e+04 1.310e-09
 10.69919    -25.4 1.207e+04 1.139e-09
 10.71184    -25.1 1.187e+04 9.813e-10
 10.72306    -25.8 1.181e+04 9.321e-10
 10.74304    -25.5 1.162e+04 7.924e-10
 10.75426    -26.2 1.163e+04 7.800e-10
 10.76653    -25.9 1.150e+04 6.958e-10
 10.78546    -25.6 1.140e+04 6.338e-10
 10.79668    -26.3 1.145e+04 6.737e-10
 10.81142    -25.9 1.136e+04 6.425e-10
 10.82788    -25.4 1.126e+04 6.101e-10
 10.83911    -25.9 1.127e+04 6.994e-10
 10.85632    -25.4 1.117e+04 6.458e-10
 10.87031    -24.9 1.109e+04 5.800e-10
 10.88153    -25.4 1.114e+04 6.081e-10
 10.90121    -25.2 1.102e+04 5.255e-10
 10.91283    -24.6 1.089e+04 4.537e-10
 10.93537    -25.3 1.084e+04 4.541e-10
 10.97532    -24.1 1.066e+04 3.996e-10
 10.99777    -24.9 1.059e+04 3.925e-10
 11.02486    -23.8 1.059e+04 3.877e-10
 11.06017    -22.9 1.082e+04 4.520e-10
 11.08261    -23.6 1.077e+04 4.675e-10
 11.11465    -22.6 1.106e+04 5.989e-10
 11.14501    -21.6 1.130e+04 7.350e-10
 11.16746    -22.0 1.119e+04 7.085e-10
 11.20443    -21.1 1.129e+04 7.850e-10
 11.22986    -20.5 1.130e+04 8.122e-10
 11.25230    -20.8 1.107e+04 6.941e-10
 11.27562    -20.4 1.110e+04 7.343e-10
 11.29611    -20.0 1.102e+04 5.999e-10
 11.31470    -20.5 1.089e+04 5.523e-10
 11.33911    -20.2 1.117e+04 7.392e-10
 11.37710    -19.8 1.144e+04 9.916e-10
 11.39955    -20.4 1.151e+04 1.027e-09
 11.42889    -20.2 1.169e+04 1.254e-09
 11.46194    -20.0 1.175e+04 1.348e-09
 11.48439    -20.8 1.155e+04 1.181e-09
 11.51868    -20.2 1.130e+04 1.077e-09
 11.54679    -19.4 1.094e+04 8.558e-10
 11.56924    -19.9 1.049e+04 5.373e-10
 11.60847    -19.1 1.021e+04 4.314e-10
 11.63163    -18.3 1.007e+04 3.875e-10
 11.65408    -19.0 9.866e+03 3.347e-10
 11.69403    -18.0 9.953e+03 3.916e-10
 11.71648    -18.3 9.968e+03 4.048e-10
 11.74314    -17.3 1.007e+04 4.610e-10
 11.77888    -16.4 1.010e+04 4.720e-10
 11.80132    -16.8 1.015e+04 5.036e-10
 11.83293    -16.3 1.008e+04 4.796e-10
 11.86372    -15.8 9.909e+03 4.151e-10
 11.88617    -16.1 9.836e+03 4.003e-10
 11.90316    -15.6 9.600e+03 3.233e-10
 11.92561    -15.3 1.026e+04 5.849e-10
 11.94857    -14.7 9.868e+03 4.118e-10
 11.97101    -15.0 9.667e+03 3.202e-10
 12.01097    -14.4 9.394e+03 2.341e-10
 12.03341    -14.8 9.320e+03 2.063e-10
 12.05739    -14.1 9.161e+03 1.730e-10
 12.09581    -13.2 9.023e+03 1.449e-10
 12.11826    -13.3 9.019e+03 1.423e-10
 12.14718    -12.4 8.903e+03 1.190e-10
