# Columns:
#   distance along LOS (in CHIMPs)
#   peculiar velocity  (in km/s)
#   temperature (K)
#   HI number density
# pos=(136.31,154.747,3.84219), angles=(0.168983,0.838636)
  0.00178   -101.0 1.042e+04 7.905e-10
  0.01448   -101.4 1.049e+04 7.776e-10
  0.04522   -102.5 1.050e+04 7.805e-10
  0.08485   -103.3 1.030e+04 6.997e-10
  0.12447   -103.7 9.858e+03 5.163e-10
  0.16410   -103.9 9.433e+03 3.633e-10
  0.20373   -104.0 9.136e+03 2.798e-10
  0.24335   -104.1 9.038e+03 2.557e-10
  0.26354   -103.8 9.025e+03 2.533e-10
  0.28335   -103.8 9.590e+03 4.350e-10
  0.30932   -103.6 9.628e+03 4.582e-10
  0.32914   -103.1 1.042e+04 7.558e-10
  0.36223   -102.8 1.044e+04 7.675e-10
  0.40186   -102.2 1.027e+04 6.811e-10
  0.44149   -101.7 9.963e+03 5.098e-10
  0.48112   -101.6 9.817e+03 4.009e-10
  0.52074   -101.7 9.824e+03 3.786e-10
  0.56037   -102.6 1.024e+04 4.029e-10
  0.59577   -104.0 1.109e+04 5.943e-10
  0.61559   -105.9 1.190e+04 1.019e-09
  0.62398   -107.0 1.217e+04 1.349e-09
  0.64379   -105.0 1.234e+04 1.370e-09
  0.67925   -105.8 1.237e+04 1.451e-09
  0.71888   -106.1 1.190e+04 1.191e-09
  0.74850   -106.3 1.123e+04 8.070e-10
  0.76822   -106.0 1.091e+04 6.381e-10
  0.78111   -105.8 1.043e+04 4.544e-10
  0.78450   -105.5 1.060e+04 4.978e-10
  0.79142   -105.8 1.046e+04 4.686e-10
  0.80784   -105.3 1.016e+04 3.701e-10
  0.83766   -104.8 9.964e+03 3.064e-10
  0.87738   -103.8 9.757e+03 2.564e-10
  0.91701   -102.0 9.554e+03 2.221e-10
  0.93864   -100.1 9.467e+03 2.090e-10
  0.94963    -99.9 9.738e+03 2.671e-10
  0.96764    -99.8 9.773e+03 2.777e-10
  0.99627    -97.9 9.753e+03 2.721e-10
  1.03589    -96.4 9.810e+03 2.758e-10
  1.07552    -95.1 1.011e+04 3.376e-10
  1.11515    -94.0 1.048e+04 4.705e-10
  1.15477    -92.9 1.081e+04 6.456e-10
  1.19440    -92.0 1.103e+04 7.929e-10
  1.23348    -91.2 1.106e+04 8.490e-10
  1.25329    -90.9 1.085e+04 7.294e-10
  1.27365    -90.0 1.084e+04 7.410e-10
  1.29987    -88.9 1.060e+04 7.021e-10
  1.31968    -88.3 1.034e+04 5.158e-10
  1.35291    -87.0 1.011e+04 4.523e-10
  1.39253    -85.7 9.905e+03 3.724e-10
  1.43216    -84.5 9.742e+03 3.099e-10
  1.47179    -83.1 9.682e+03 2.833e-10
  1.51142    -81.7 9.677e+03 2.796e-10
  1.54814    -80.4 9.801e+03 3.046e-10
  1.56795    -80.1 9.626e+03 2.384e-10
  1.59067    -78.8 9.794e+03 2.907e-10
  1.63030    -77.3 9.910e+03 3.478e-10
  1.65192    -75.8 9.922e+03 3.729e-10
  1.67173    -75.1 1.003e+04 3.988e-10
  1.70955    -73.5 1.002e+04 4.033e-10
  1.74918    -71.6 9.802e+03 3.594e-10
  1.78880    -69.5 9.519e+03 2.643e-10
  1.82843    -67.5 9.295e+03 1.830e-10
  1.86279    -65.6 9.163e+03 1.341e-10
  1.88261    -65.4 9.136e+03 1.195e-10
  1.90768    -63.5 9.096e+03 1.105e-10
  1.94731    -61.5 9.084e+03 1.087e-10
  1.98415    -59.5 9.093e+03 1.105e-10
  2.00397    -58.6 9.016e+03 1.021e-10
  2.02657    -56.6 9.018e+03 9.858e-11
  2.06619    -54.5 9.064e+03 9.509e-11
  2.10582    -52.5 9.115e+03 9.366e-11
  2.14545    -50.6 9.195e+03 9.512e-11
  2.17745    -48.8 9.309e+03 1.039e-10
  2.19726    -48.2 9.106e+03 7.425e-11
  2.22470    -46.4 9.328e+03 7.594e-11
  2.26433    -44.7 9.522e+03 8.778e-11
  2.30395    -43.0 9.681e+03 1.172e-10
  2.33620    -41.6 9.871e+03 1.777e-10
  2.35602    -40.5 9.704e+03 1.636e-10
  2.38321    -39.1 9.933e+03 2.396e-10
  2.42284    -37.7 1.023e+04 3.655e-10
  2.46246    -36.3 1.058e+04 5.369e-10
  2.49211    -34.8 1.088e+04 6.755e-10
  2.51192    -34.8 1.061e+04 4.924e-10
  2.54172    -33.4 1.080e+04 5.609e-10
  2.58134    -32.6 1.081e+04 5.468e-10
  2.62097    -32.3 1.067e+04 4.592e-10
  2.66060    -32.4 1.065e+04 4.320e-10
  2.68825    -32.6 1.081e+04 5.238e-10
  2.70806    -31.6 1.075e+04 4.595e-10
  2.73985    -31.5 1.110e+04 6.968e-10
  2.76947    -31.1 1.129e+04 9.387e-10
  2.78919    -30.2 1.143e+04 1.041e-09
  2.80657    -29.5 1.152e+04 1.080e-09
  2.81647    -29.9 1.132e+04 9.363e-10
  2.82882    -29.4 1.130e+04 8.802e-10
  2.84863    -29.0 1.122e+04 7.976e-10
  2.86408    -28.8 1.111e+04 7.119e-10
  2.87399    -28.5 1.119e+04 7.280e-10
  2.89826    -29.1 1.080e+04 5.906e-10
  2.93799    -28.4 1.048e+04 5.110e-10
  2.97761    -27.4 1.050e+04 5.330e-10
  3.01724    -26.2 1.063e+04 6.150e-10
  3.04020    -25.0 1.060e+04 6.150e-10
  3.06002    -24.1 1.095e+04 7.644e-10
  3.09649    -22.2 1.087e+04 6.460e-10
  3.12142    -21.1 1.044e+04 3.531e-10
  3.14123    -24.1 8.858e+03 1.509e-10
  3.17575    -24.3 8.427e+03 1.025e-10
  3.21537    -23.8 8.310e+03 9.475e-11
  3.25500    -22.6 8.558e+03 1.019e-10
  3.29463    -21.6 8.871e+03 1.353e-10
  3.33425    -20.4 9.088e+03 1.821e-10
  3.37254    -18.8 9.242e+03 2.287e-10
  3.39235    -18.5 9.564e+03 3.122e-10
  3.41351    -16.9 9.863e+03 3.937e-10
  3.43608    -15.4 1.006e+04 4.462e-10
  3.45589    -16.3 1.052e+04 6.532e-10
  3.49276    -14.9 1.068e+04 6.492e-10
  3.53239    -13.9 1.080e+04 6.433e-10
  3.57202    -13.4 1.111e+04 7.130e-10
  3.61164    -13.9 1.187e+04 1.115e-09
  3.64127    -16.1 1.289e+04 1.793e-09
  3.66098    -17.4 1.410e+04 2.822e-09
  3.68079    -18.5 1.516e+04 4.542e-09
  3.70061    -19.2 1.571e+04 6.719e-09
  3.72042    -19.3 1.589e+04 7.970e-09
  3.73430    -19.5 1.582e+04 7.951e-09
  3.74420    -20.5 1.534e+04 4.798e-09
  3.75054    -20.7 1.468e+04 3.147e-09
  3.76044    -22.1 1.369e+04 1.808e-09
  3.77986    -24.6 1.242e+04 1.147e-09
  3.80968    -29.7 1.080e+04 6.810e-10
  3.84940    -32.3 1.124e+04 9.277e-10
  3.88903    -33.7 1.208e+04 1.525e-09
  3.91042    -34.6 1.254e+04 2.266e-09
  3.92023    -34.2 1.244e+04 2.157e-09
  3.93837    -33.6 1.252e+04 2.330e-09
  3.95818    -33.3 1.250e+04 2.338e-09
  3.97800    -33.0 1.232e+04 2.007e-09
  3.99781    -33.7 1.194e+04 1.550e-09
  4.01762    -35.2 1.144e+04 1.169e-09
  4.03744    -36.8 1.091e+04 9.067e-10
  4.05529    -38.3 1.062e+04 7.870e-10
  4.06519    -39.8 1.045e+04 6.354e-10
  4.07644    -41.3 1.048e+04 6.347e-10
  4.09635    -40.1 9.981e+03 4.126e-10
  4.12679    -42.6 1.045e+04 6.266e-10
  4.16642    -44.7 1.125e+04 1.147e-09
  4.20605    -46.5 1.204e+04 1.607e-09
  4.24567    -49.6 1.245e+04 1.753e-09
  4.27530    -52.6 1.256e+04 1.827e-09
  4.29501    -54.7 1.251e+04 1.776e-09
  4.31483    -56.8 1.245e+04 1.746e-09
  4.33464    -59.7 1.285e+04 1.878e-09
  4.35445    -64.3 1.546e+04 2.733e-09
  4.36994    -69.2 1.782e+04 4.469e-09
  4.37985    -66.4 1.664e+04 3.689e-09
  4.39408    -70.7 1.822e+04 5.663e-09
  4.41389    -74.0 1.819e+04 7.526e-09
  4.42849    -76.4 1.795e+04 8.068e-09
  4.43839    -74.4 1.654e+04 5.454e-09
  4.45352    -76.1 1.625e+04 5.606e-09
  4.47333    -77.3 1.571e+04 5.008e-09
  4.49315    -79.0 1.511e+04 3.689e-09
  4.51296    -81.2 1.394e+04 2.509e-09
  4.52727    -83.0 1.263e+04 1.786e-09
  4.53718    -82.2 1.368e+04 2.576e-09
  4.55259    -83.3 1.253e+04 1.954e-09
  4.57240    -83.5 1.196e+04 1.591e-09
  4.59221    -83.5 1.154e+04 1.311e-09
  4.60451    -83.5 1.111e+04 1.076e-09
  4.61442    -82.8 1.117e+04 1.090e-09
  4.63184    -82.8 1.080e+04 9.141e-10
  4.65165    -82.8 1.045e+04 7.568e-10
  4.67147    -82.8 1.014e+04 6.272e-10
  4.68460    -83.0 9.874e+03 5.224e-10
  4.69451    -82.9 9.968e+03 5.494e-10
  4.71110    -83.2 9.717e+03 4.469e-10
  4.73091    -83.6 9.567e+03 3.884e-10
  4.76073    -84.3 9.483e+03 3.517e-10
  4.80045    -84.0 9.424e+03 3.244e-10
  4.84008    -84.7 9.485e+03 3.102e-10
  4.87970    -85.4 9.535e+03 3.070e-10
  4.91933    -86.2 9.704e+03 3.144e-10
  4.95896    -87.0 1.010e+04 3.889e-10
  4.98954    -87.6 1.052e+04 5.549e-10
  5.00936    -87.0 9.865e+03 3.296e-10
  5.03821    -87.1 1.014e+04 4.194e-10
  5.07784    -87.0 1.037e+04 4.791e-10
  5.11297    -86.8 1.046e+04 4.920e-10
  5.13278    -85.9 1.078e+04 6.638e-10
  5.15709    -85.5 1.081e+04 6.685e-10
  5.19672    -84.6 1.069e+04 5.866e-10
  5.22634    -84.0 1.035e+04 4.389e-10
  5.24606    -83.3 1.029e+04 4.282e-10
  5.27588    -82.4 1.021e+04 4.137e-10
  5.30420    -81.1 1.004e+04 3.698e-10
  5.32401    -80.8 9.882e+03 2.905e-10
  5.35523    -79.3 9.740e+03 2.599e-10
  5.39486    -77.7 9.609e+03 2.284e-10
  5.43448    -76.2 9.487e+03 1.938e-10
  5.46501    -74.5 9.380e+03 1.581e-10
  5.48483    -73.4 9.422e+03 1.959e-10
  5.51374    -71.7 9.292e+03 1.544e-10
  5.55336    -69.9 9.169e+03 1.226e-10
  5.59299    -68.0 9.053e+03 1.006e-10
  5.61886    -66.0 8.952e+03 8.623e-11
  5.63867    -66.2 8.970e+03 6.383e-11
  5.67224    -64.1 8.925e+03 5.525e-11
  5.71187    -62.0 8.916e+03 4.962e-11
  5.75150    -60.0 8.939e+03 4.669e-11
  5.79112    -58.0 8.953e+03 4.596e-11
  5.81706    -56.3 8.985e+03 4.704e-11
  5.83688    -55.6 9.035e+03 6.063e-11
  5.87038    -54.0 9.046e+03 7.530e-11
  5.91001    -52.4 9.092e+03 9.432e-11
  5.93351    -50.8 9.195e+03 1.122e-10
  5.95333    -51.0 9.180e+03 1.089e-10
  5.98926    -49.4 9.263e+03 1.137e-10
  6.02889    -48.0 9.285e+03 1.130e-10
  6.06851    -46.5 9.281e+03 9.667e-11
  6.10814    -44.9 9.203e+03 7.481e-11
  6.14777    -43.5 9.091e+03 5.642e-11
  6.16911    -42.2 8.979e+03 4.390e-11
  6.18892    -41.8 9.033e+03 4.620e-11
  6.22702    -40.4 8.935e+03 3.884e-11
  6.24817    -38.9 8.887e+03 3.638e-11
  6.26798    -38.9 8.930e+03 3.747e-11
  6.30627    -37.4 8.973e+03 3.744e-11
  6.34590    -36.3 9.090e+03 4.266e-11
  6.38553    -35.1 9.114e+03 5.570e-11
  6.42516    -33.8 9.084e+03 7.678e-11
  6.46478    -32.2 9.158e+03 1.030e-10
  6.50135    -30.7 9.314e+03 1.312e-10
  6.52116    -30.8 9.478e+03 1.659e-10
  6.54301    -29.5 9.694e+03 2.179e-10
  6.56283    -30.9 1.012e+04 3.365e-10
  6.58366    -29.6 1.017e+04 3.797e-10
  6.62329    -28.2 1.017e+04 3.973e-10
  6.66292    -26.8 1.017e+04 4.133e-10
  6.70254    -25.5 1.027e+04 4.510e-10
  6.74217    -24.4 1.052e+04 5.117e-10
  6.78180    -23.5 1.085e+04 5.959e-10
  6.82142    -22.6 1.116e+04 6.816e-10
  6.85340    -21.7 1.134e+04 7.755e-10
  6.86983    -22.1 1.123e+04 6.679e-10
  6.87748    -22.3 1.132e+04 7.733e-10
  6.90068    -21.5 1.143e+04 7.970e-10
  6.94031    -20.7 1.144e+04 8.115e-10
  6.97993    -19.5 1.136e+04 8.453e-10
  7.01956    -18.0 1.126e+04 8.542e-10
  7.04918    -16.9 1.095e+04 7.869e-10
  7.06890    -16.1 1.091e+04 7.599e-10
  7.09872    -15.5 1.095e+04 7.792e-10
  7.13844    -14.5 1.105e+04 8.807e-10
  7.16806    -13.8 1.120e+04 1.048e-09
  7.18204    -13.2 1.113e+04 1.106e-09
  7.19204    -13.3 1.086e+04 7.675e-10
  7.20535    -12.4 1.100e+04 8.237e-10
  7.21516    -12.2 1.112e+04 8.697e-10
  7.22741    -11.6 1.106e+04 8.064e-10
  7.24722    -10.9 1.094e+04 7.038e-10
  7.26703    -10.6 1.063e+04 5.657e-10
  7.28685    -10.5 1.032e+04 4.448e-10
  7.30666    -10.6 1.018e+04 3.687e-10
  7.32647    -10.6 1.009e+04 3.256e-10
  7.33937    -10.3 1.004e+04 3.154e-10
  7.34927    -10.0 9.594e+03 2.513e-10
  7.36610     -9.6 9.667e+03 2.516e-10
  7.38127    -10.1 1.020e+04 2.819e-10
  7.39118    -12.3 1.234e+04 4.209e-10
  7.40573    -20.0 1.601e+04 1.406e-09
  7.42554    -24.0 1.739e+04 4.924e-09
  7.44035    -25.0 1.805e+04 7.834e-09
  7.45021    -25.6 1.815e+04 1.222e-08
  7.46012    -24.1 1.800e+04 1.750e-08
  7.46919    -22.3 1.786e+04 1.967e-08
  7.47414    -21.8 1.820e+04 2.565e-08
  7.47993    -19.6 1.814e+04 2.566e-08
  7.48984    -17.3 1.790e+04 1.956e-08
  7.49660    -15.5 1.859e+04 1.312e-08
  7.50155    -17.2 1.779e+04 1.412e-08
  7.50965    -18.4 1.689e+04 8.252e-09
  7.52456    -20.7 1.527e+04 4.704e-09
  7.54442    -24.0 1.302e+04 1.312e-09
  7.55730    -26.6 1.164e+04 6.821e-10
  7.56720    -28.4 1.141e+04 6.925e-10
  7.58405    -27.8 1.114e+04 6.140e-10
  7.60386    -26.7 1.108e+04 5.951e-10
  7.62367    -25.8 1.106e+04 5.851e-10
  7.64349    -25.0 1.101e+04 5.784e-10
  7.65402    -24.4 1.101e+04 5.887e-10
  7.66393    -24.7 1.101e+04 5.866e-10
  7.68312    -24.0 1.101e+04 6.177e-10
  7.70293    -23.3 1.097e+04 6.374e-10
  7.72274    -22.6 1.095e+04 6.450e-10
  7.73332    -22.0 1.103e+04 6.541e-10
  7.74323    -22.6 1.088e+04 5.772e-10
  7.76237    -22.3 1.092e+04 5.669e-10
  7.78218    -22.1 1.095e+04 5.665e-10
  7.80144    -21.9 1.098e+04 5.726e-10
  7.81135    -22.7 1.094e+04 6.646e-10
  7.82181    -22.4 1.094e+04 7.140e-10
  7.85163    -21.9 1.101e+04 7.685e-10
  7.88973    -20.5 1.054e+04 6.581e-10
  7.90954    -21.1 1.003e+04 4.161e-10
  7.93098    -19.4 9.670e+03 2.596e-10
  7.97061    -18.1 9.375e+03 1.444e-10
  8.01023    -17.0 9.064e+03 1.023e-10
  8.04986    -15.6 8.887e+03 9.381e-11
  8.08949    -13.7 8.850e+03 9.791e-11
  8.11630    -11.7 8.826e+03 1.077e-10
  8.13611    -12.1 8.692e+03 1.231e-10
  8.16874     -9.9 8.810e+03 1.338e-10
  8.20837     -8.0 9.007e+03 1.316e-10
  8.24178     -7.2 9.476e+03 1.218e-10
  8.26159     -6.8 9.555e+03 1.686e-10
  8.28762     -7.4 1.012e+04 2.234e-10
  8.32725     -7.2 1.060e+04 4.479e-10
  8.35687     -6.2 1.117e+04 6.953e-10
  8.37659     -6.3 1.120e+04 7.302e-10
  8.39640     -5.8 1.118e+04 1.034e-09
  8.41621     -5.4 1.118e+04 1.120e-09
  8.42751     -4.5 1.132e+04 1.289e-09
  8.43215     -4.2 1.132e+04 1.269e-09
  8.44066     -4.6 1.139e+04 1.339e-09
  8.45584     -4.0 1.145e+04 1.360e-09
  8.47565     -3.2 1.145e+04 1.376e-09
  8.49547     -2.2 1.144e+04 1.333e-09
  8.52529     -1.6 1.149e+04 1.206e-09
  8.56501      0.3 1.130e+04 1.061e-09
  8.59382      1.9 1.100e+04 9.318e-10
  8.61364      1.6 1.131e+04 1.054e-09
  8.63426      3.1 1.158e+04 1.072e-09
  8.65398      3.0 1.187e+04 1.158e-09
  8.67379      2.7 1.252e+04 1.549e-09
  8.69360      2.9 1.319e+04 2.069e-09
  8.71342      3.4 1.357e+04 2.711e-09
  8.73323      4.7 1.383e+04 3.170e-09
  8.74541      6.1 1.400e+04 3.622e-09
  8.75532      5.8 1.447e+04 4.643e-09
  8.76965      7.1 1.488e+04 4.978e-09
  8.77956      6.9 1.478e+04 3.987e-09
  8.79267      7.5 1.498e+04 3.433e-09
  8.81248      7.3 1.506e+04 2.786e-09
  8.83230      6.5 1.499e+04 2.342e-09
  8.85211      5.1 1.469e+04 2.092e-09
  8.87192      3.7 1.444e+04 2.083e-09
  8.89174      2.9 1.446e+04 2.232e-09
  8.90274      2.8 1.473e+04 2.463e-09
  8.91265      1.7 1.573e+04 3.870e-09
  8.93136      2.0 1.574e+04 3.832e-09
  8.94568      2.4 1.551e+04 3.446e-09
  8.95558      1.2 1.414e+04 2.267e-09
  8.97099      1.1 1.317e+04 1.902e-09
  8.99080      1.5 1.234e+04 1.656e-09
  9.01062      2.0 1.183e+04 1.381e-09
  9.04036      2.9 1.153e+04 1.033e-09
  9.08008      1.0 1.127e+04 6.194e-10
  9.11979      0.7 1.158e+04 7.301e-10
  9.15941      0.7 1.206e+04 1.141e-09
  9.18904      1.5 1.199e+04 1.313e-09
  9.20749      2.0 1.219e+04 1.680e-09
  9.21740      2.2 1.218e+04 1.841e-09
  9.22857      2.9 1.202e+04 1.814e-09
  9.24838      3.6 1.182e+04 1.693e-09
  9.26819      4.0 1.190e+04 1.489e-09
  9.28782      3.4 1.193e+04 1.282e-09
  9.29773      3.8 1.181e+04 1.278e-09
  9.30782      2.6 1.190e+04 1.203e-09
  9.32763      0.5 1.204e+04 1.251e-09
  9.34745     -2.0 1.237e+04 1.570e-09
  9.36482     -3.4 1.263e+04 2.038e-09
  9.37473     -4.0 1.265e+04 2.049e-09
  9.38707     -4.4 1.277e+04 2.628e-09
  9.40689     -4.2 1.303e+04 3.003e-09
  9.42670     -4.6 1.364e+04 2.798e-09
  9.44651     -6.0 1.352e+04 2.272e-09
  9.46384     -9.0 1.246e+04 1.541e-09
  9.47375     -9.1 1.252e+04 1.734e-09
  9.48614    -11.5 1.185e+04 1.298e-09
  9.50595    -13.8 1.164e+04 1.051e-09
  9.52215    -16.4 1.103e+04 8.852e-10
  9.53206    -16.6 1.073e+04 7.414e-10
  9.54558    -18.2 1.013e+04 6.512e-10
  9.56539    -18.5 9.928e+03 6.174e-10
  9.58521    -18.8 9.818e+03 5.588e-10
  9.60502    -19.5 9.742e+03 4.907e-10
  9.62484    -20.7 9.613e+03 4.494e-10
  9.63987    -21.9 9.516e+03 4.416e-10
  9.64978    -22.8 9.790e+03 5.017e-10
  9.66446    -23.4 9.940e+03 5.845e-10
  9.67948    -23.4 1.015e+04 6.741e-10
  9.68938    -23.9 1.077e+04 1.013e-09
  9.70409    -23.2 1.108e+04 1.118e-09
  9.72390    -22.8 1.138e+04 1.196e-09
  9.75372    -23.6 1.167e+04 1.331e-09
  9.78344    -24.7 1.147e+04 1.246e-09
  9.80316    -25.2 1.173e+04 1.436e-09
  9.81589    -25.6 1.191e+04 1.632e-09
  9.82580    -25.8 1.179e+04 1.539e-09
  9.83681    -25.8 1.191e+04 1.639e-09
  9.84671    -25.8 1.185e+04 1.574e-09
  9.86260    -25.9 1.189e+04 1.620e-09
  9.88241    -25.8 1.176e+04 1.569e-09
  9.90222    -25.8 1.135e+04 1.264e-09
  9.92204    -26.1 1.102e+04 9.995e-10
  9.94185    -27.7 1.074e+04 8.214e-10
  9.96166    -28.9 1.077e+04 7.906e-10
  9.98148    -30.8 1.089e+04 8.016e-10
  9.99192    -32.6 1.152e+04 1.075e-09
  9.99467    -31.5 1.126e+04 9.977e-10
 10.00414    -30.5 1.109e+04 8.887e-10
 10.03121    -32.9 1.202e+04 1.499e-09
 10.06083    -33.7 1.264e+04 2.461e-09
 10.08054    -33.4 1.276e+04 2.664e-09
 10.10036    -33.1 1.279e+04 2.648e-09
 10.12017    -33.1 1.240e+04 2.054e-09
 10.13999    -34.2 1.180e+04 1.543e-09
 10.15146    -34.8 1.141e+04 1.279e-09
 10.15961    -34.9 1.135e+04 1.261e-09
 10.16794    -34.7 1.119e+04 1.200e-09
 10.17961    -35.5 1.069e+04 9.898e-10
 10.19943    -35.9 1.050e+04 9.184e-10
 10.21924    -36.0 1.037e+04 8.836e-10
 10.23905    -36.0 1.035e+04 8.784e-10
 10.25887    -35.9 1.034e+04 8.791e-10
 10.27868    -35.7 1.030e+04 8.747e-10
 10.29849    -35.3 1.020e+04 8.223e-10
 10.30879    -35.0 1.004e+04 7.327e-10
 10.31870    -34.7 1.017e+04 7.782e-10
 10.33406    -34.6 9.975e+03 6.700e-10
 10.35397    -33.9 9.622e+03 5.361e-10
 10.38785    -33.7 9.306e+03 4.071e-10
 10.42748    -34.1 9.175e+03 3.521e-10
 10.46710    -34.8 9.465e+03 4.032e-10
 10.50673    -35.5 1.026e+04 6.690e-10
 10.54636    -36.0 1.100e+04 9.907e-10
 10.57598    -36.3 1.151e+04 1.162e-09
 10.59570    -37.5 1.201e+04 1.302e-09
 10.61354    -39.3 1.274e+04 1.464e-09
 10.62345    -39.5 1.389e+04 1.963e-09
 10.63532    -42.3 1.437e+04 2.533e-09
 10.65514    -44.2 1.435e+04 3.302e-09
 10.67495    -45.0 1.427e+04 3.953e-09
 10.68611    -45.3 1.425e+04 4.143e-09
 10.69601    -45.1 1.429e+04 4.274e-09
 10.71458    -45.2 1.425e+04 4.323e-09
 10.73439    -45.4 1.388e+04 3.678e-09
 10.75420    -46.1 1.328e+04 2.635e-09
 10.77087    -47.5 1.247e+04 1.724e-09
 10.78078    -47.1 1.226e+04 1.701e-09
 10.79383    -48.7 1.130e+04 1.079e-09
 10.81364    -50.5 1.054e+04 7.533e-10
 10.83346    -52.0 1.019e+04 6.282e-10
 10.85223    -53.1 1.009e+04 5.998e-10
 10.86213    -52.2 1.012e+04 6.303e-10
 10.87308    -53.1 1.007e+04 6.177e-10
 10.89290    -54.2 1.008e+04 6.452e-10
 10.91271    -56.2 1.063e+04 8.004e-10
 10.92820    -59.3 1.180e+04 1.146e-09
 10.93810    -58.9 1.147e+04 9.807e-10
 10.95234    -62.7 1.283e+04 1.579e-09
 10.97215    -66.0 1.379e+04 2.436e-09
 10.99196    -68.5 1.407e+04 3.094e-09
 11.01178    -70.3 1.403e+04 3.230e-09
 11.02825    -71.0 1.347e+04 3.060e-09
 11.03816    -70.6 1.406e+04 3.873e-09
 11.05140    -70.8 1.315e+04 2.674e-09
 11.07122    -71.4 1.215e+04 1.664e-09
 11.08553    -72.5 1.130e+04 1.026e-09
 11.09543    -73.3 1.113e+04 1.101e-09
 11.11085    -74.5 1.042e+04 7.635e-10
 11.13066    -75.2 9.902e+03 5.831e-10
 11.15047    -75.4 9.571e+03 4.857e-10
 11.17029    -75.3 9.367e+03 4.257e-10
 11.19010    -74.9 9.325e+03 4.020e-10
 11.20427    -74.5 9.331e+03 3.972e-10
 11.21418    -74.8 9.388e+03 4.163e-10
 11.22973    -74.5 9.402e+03 4.133e-10
 11.24285    -74.3 9.532e+03 4.182e-10
 11.26276    -74.6 9.268e+03 3.325e-10
 11.29927    -74.7 9.409e+03 3.262e-10
 11.32889    -75.0 9.614e+03 3.655e-10
 11.34861    -75.4 9.596e+03 3.688e-10
 11.36842    -75.8 9.564e+03 3.706e-10
 11.38030    -76.2 9.494e+03 3.723e-10
 11.39021    -76.4 9.508e+03 3.775e-10
 11.40018    -76.7 9.484e+03 3.725e-10
 11.41009    -77.1 9.226e+03 3.135e-10
 11.42786    -77.2 9.254e+03 3.186e-10
 11.44767    -77.4 9.356e+03 3.394e-10
 11.46749    -77.5 9.471e+03 3.649e-10
 11.48730    -77.5 9.662e+03 4.222e-10
 11.50711    -77.4 9.820e+03 4.823e-10
 11.52693    -76.9 1.005e+04 5.800e-10
 11.54642    -76.4 1.023e+04 6.529e-10
 11.55632    -76.5 1.017e+04 6.161e-10
 11.55751    -75.8 1.034e+04 6.915e-10
 11.57742    -75.0 9.901e+03 5.037e-10
 11.61628    -73.5 9.890e+03 5.027e-10
 11.65591    -72.0 9.827e+03 4.771e-10
 11.69554    -70.5 9.734e+03 4.375e-10
 11.72264    -68.7 9.610e+03 3.926e-10
 11.74245    -68.4 9.851e+03 4.319e-10
 11.77479    -66.6 9.818e+03 4.171e-10
 11.81442    -64.6 9.843e+03 4.163e-10
