# Columns:
#   distance along LOS (in CHIMPs)
#   peculiar velocity  (in km/s)
#   temperature (K)
#   HI number density
# pos=(169.396,127.226,51.0296), angles=(1.55806,3.40795)
  0.00183    -53.8 1.645e+04 5.181e-09
  0.01378    -55.1 1.669e+04 4.312e-09
  0.03403    -57.2 1.583e+04 3.466e-09
  0.05204    -59.1 1.463e+04 2.998e-09
  0.06216    -57.4 1.432e+04 2.266e-09
  0.07452    -58.6 1.354e+04 2.136e-09
  0.09477    -58.8 1.329e+04 2.127e-09
  0.11502    -58.5 1.320e+04 2.225e-09
  0.12964    -58.2 1.329e+04 2.250e-09
  0.13976    -57.4 1.267e+04 1.804e-09
  0.15551    -57.2 1.287e+04 1.850e-09
  0.17576    -57.8 1.320e+04 1.943e-09
  0.19601    -59.4 1.361e+04 2.204e-09
  0.20723    -61.5 1.404e+04 2.827e-09
  0.21736    -61.3 1.434e+04 2.978e-09
  0.23650    -63.1 1.493e+04 4.240e-09
  0.25675    -64.6 1.573e+04 5.805e-09
  0.27471    -66.4 1.671e+04 7.108e-09
  0.28483    -66.3 1.624e+04 6.339e-09
  0.29724    -69.1 1.658e+04 6.452e-09
  0.31749    -73.0 1.679e+04 5.920e-09
  0.33773    -77.5 1.608e+04 4.674e-09
  0.35230    -81.9 1.462e+04 3.439e-09
  0.36243    -82.6 1.377e+04 2.629e-09
  0.37823    -85.5 1.287e+04 1.981e-09
  0.39847    -87.6 1.217e+04 1.453e-09
  0.41872    -89.3 1.146e+04 1.016e-09
  0.42990    -90.9 1.074e+04 7.034e-10
  0.44002    -91.1 1.051e+04 6.317e-10
  0.45921    -92.2 9.975e+03 4.624e-10
  0.47946    -93.0 9.572e+03 3.645e-10
  0.49737    -93.6 9.355e+03 3.195e-10
  0.50750    -93.8 9.387e+03 3.212e-10
  0.51995    -94.0 9.361e+03 3.149e-10
  0.54020    -94.1 9.362e+03 3.143e-10
  0.56045    -94.4 9.398e+03 3.160e-10
  0.57497    -94.6 9.510e+03 3.387e-10
  0.58510    -94.9 9.420e+03 3.303e-10
  0.60094    -95.0 9.500e+03 3.624e-10
  0.62119    -95.1 9.640e+03 4.143e-10
  0.64144    -95.5 9.965e+03 5.125e-10
  0.65257    -96.6 1.064e+04 7.037e-10
  0.66269    -97.7 1.099e+04 7.220e-10
  0.68193    -99.8 1.218e+04 1.191e-09
  0.70218   -101.7 1.329e+04 1.984e-09
  0.72004   -103.0 1.412e+04 3.021e-09
  0.73017   -104.0 1.456e+04 3.729e-09
  0.74267   -104.7 1.505e+04 4.682e-09
  0.76292   -105.5 1.525e+04 4.989e-09
  0.78316   -106.2 1.529e+04 5.006e-09
  0.79764   -106.9 1.521e+04 4.579e-09
  0.80776   -107.5 1.552e+04 4.199e-09
  0.82366   -108.7 1.507e+04 3.439e-09
  0.84390   -109.9 1.450e+04 2.998e-09
  0.86415   -110.7 1.413e+04 2.772e-09
  0.87524   -111.1 1.394e+04 2.616e-09
  0.88536   -112.4 1.403e+04 2.328e-09
  0.90464   -112.2 1.392e+04 2.103e-09
  0.92489   -111.8 1.381e+04 1.733e-09
  0.94271   -111.4 1.357e+04 1.294e-09
  0.95283   -112.8 1.287e+04 9.779e-10
  0.96538   -112.8 1.191e+04 6.425e-10
  0.98563   -112.8 1.071e+04 4.264e-10
  1.00588   -112.6 9.769e+03 3.090e-10
  1.02031   -112.2 9.395e+03 2.532e-10
  1.03043   -111.8 9.436e+03 2.940e-10
  1.05659   -111.2 9.353e+03 2.546e-10
  1.09718   -109.6 9.117e+03 1.966e-10
  1.13768   -107.8 8.991e+03 1.616e-10
  1.16557   -105.9 8.989e+03 1.525e-10
  1.18582   -105.3 9.193e+03 1.542e-10
  1.21867   -103.7 9.236e+03 1.535e-10
  1.25916   -102.4 9.559e+03 1.673e-10
  1.29965   -101.6 9.886e+03 2.174e-10
  1.32077   -101.1 1.035e+04 3.191e-10
  1.34102   -101.5 1.090e+04 5.702e-10
  1.37042   -101.5 1.098e+04 7.430e-10
  1.38805   -101.4 1.134e+04 9.709e-10
  1.39817   -101.1 1.172e+04 1.152e-09
  1.41081   -101.0 1.216e+04 1.439e-09
  1.43106   -100.9 1.256e+04 1.715e-09
  1.45131   -100.8 1.282e+04 1.899e-09
  1.46564   -100.8 1.290e+04 1.951e-09
  1.47577   -101.9 1.322e+04 2.336e-09
  1.49180   -101.8 1.312e+04 2.312e-09
  1.51205   -101.2 1.283e+04 2.010e-09
  1.53230   -100.5 1.250e+04 1.569e-09
  1.54324    -99.7 1.212e+04 1.162e-09
  1.55336   -100.5 1.208e+04 1.088e-09
  1.57279    -99.8 1.154e+04 8.040e-10
  1.59304    -99.1 1.104e+04 5.781e-10
  1.61072    -98.2 1.064e+04 4.065e-10
  1.62084    -98.9 1.093e+04 5.000e-10
  1.63353    -97.9 1.066e+04 3.600e-10
  1.66400    -97.0 1.042e+04 2.576e-10
  1.70459    -95.5 1.009e+04 1.982e-10
  1.74508    -92.8 9.592e+03 1.329e-10
  1.76610    -90.1 9.257e+03 8.631e-11
  1.78635    -91.3 9.967e+03 2.015e-10
  1.82607    -88.8 9.604e+03 1.505e-10
  1.86656    -86.4 9.379e+03 1.226e-10
  1.90105    -84.1 9.293e+03 1.157e-10
  1.92130    -84.6 9.473e+03 3.145e-10
  1.94755    -82.2 9.424e+03 3.102e-10
  1.98804    -80.0 9.463e+03 3.235e-10
  2.02854    -77.8 9.633e+03 3.644e-10
  2.05625    -75.7 9.806e+03 4.194e-10
  2.07649    -76.3 9.839e+03 3.623e-10
  2.10953    -74.4 9.713e+03 3.133e-10
  2.15002    -72.7 9.484e+03 2.515e-10
  2.19051    -71.1 9.203e+03 1.912e-10
  2.21144    -69.7 8.954e+03 1.416e-10
  2.23169    -70.4 8.598e+03 1.014e-10
  2.27150    -68.8 8.450e+03 7.990e-11
  2.31199    -67.1 8.338e+03 6.412e-11
  2.34639    -65.4 8.265e+03 5.367e-11
  2.36664    -65.1 8.188e+03 4.750e-11
  2.39298    -63.2 8.145e+03 3.943e-11
  2.43347    -61.3 8.131e+03 3.407e-11
  2.47397    -59.4 8.132e+03 3.053e-11
  2.50158    -57.4 8.135e+03 2.836e-11
  2.52183    -57.0 8.100e+03 2.390e-11
  2.55496    -54.9 8.101e+03 2.278e-11
  2.59545    -52.8 8.101e+03 2.249e-11
  2.63594    -50.7 8.132e+03 2.258e-11
  2.65678    -49.0 8.288e+03 2.437e-11
  2.67702    -48.6 8.267e+03 2.630e-11
  2.70026    -47.1 8.282e+03 3.612e-11
  2.72051    -47.8 8.332e+03 6.031e-11
  2.75742    -46.3 8.520e+03 9.228e-11
  2.79172    -45.0 8.820e+03 1.525e-10
  2.81197    -43.9 8.782e+03 1.176e-10
  2.83841    -42.9 9.040e+03 1.849e-10
  2.87890    -42.0 9.297e+03 2.966e-10
  2.91940    -40.9 9.504e+03 4.274e-10
  2.94692    -39.7 9.590e+03 4.931e-10
  2.96717    -38.5 9.540e+03 4.554e-10
  3.00039    -37.2 9.544e+03 4.844e-10
  3.04088    -35.8 9.310e+03 4.528e-10
  3.08137    -34.5 9.000e+03 3.620e-10
  3.10211    -33.2 8.807e+03 3.000e-10
  3.12236    -32.4 9.041e+03 3.414e-10
  3.16236    -31.1 8.986e+03 3.293e-10
  3.20285    -29.4 9.061e+03 3.339e-10
  3.23706    -27.7 9.156e+03 3.340e-10
  3.25731    -27.8 9.580e+03 4.905e-10
  3.28384    -26.3 9.685e+03 5.020e-10
  3.32434    -24.9 9.757e+03 5.027e-10
  3.36483    -23.3 9.842e+03 4.989e-10
  3.39226    -21.4 9.939e+03 4.804e-10
  3.41250    -21.2 9.520e+03 3.157e-10
  3.44582    -20.2 9.289e+03 2.439e-10
  3.48631    -19.1 9.011e+03 2.164e-10
  3.52680    -17.6 8.781e+03 2.064e-10
  3.54745    -15.5 8.572e+03 2.028e-10
  3.56770    -15.2 8.194e+03 1.641e-10
  3.60779    -13.0 8.060e+03 1.615e-10
  3.64828    -10.7 8.000e+03 1.500e-10
  3.68240     -8.4 8.018e+03 1.351e-10
  3.70264     -7.7 7.734e+03 1.163e-10
  3.72927     -5.4 7.781e+03 1.089e-10
  3.76977     -3.3 7.967e+03 1.100e-10
  3.81026     -1.5 8.250e+03 1.344e-10
  3.83759      0.6 8.470e+03 1.911e-10
  3.85784      1.2 8.414e+03 1.322e-10
  3.89125      2.4 8.666e+03 2.053e-10
  3.93174      3.9 8.976e+03 3.861e-10
  3.97223      6.2 9.674e+03 6.551e-10
  3.99279      8.9 1.024e+04 8.611e-10
  4.01303      9.7 9.551e+03 5.806e-10
  4.05322     11.8 9.669e+03 5.777e-10
  4.09371     13.8 9.651e+03 5.081e-10
  4.12773     15.3 9.743e+03 4.386e-10
  4.14798     14.6 9.452e+03 3.249e-10
  4.17470     16.5 9.517e+03 3.364e-10
  4.21520     18.6 9.585e+03 3.500e-10
  4.25569     20.7 9.666e+03 3.684e-10
  4.28293     22.7 9.719e+03 3.966e-10
  4.30317     22.8 9.305e+03 3.406e-10
  4.33668     25.4 9.520e+03 3.963e-10
  4.36043     26.3 9.763e+03 4.580e-10
  4.37045     26.4 9.742e+03 4.493e-10
  4.38710     27.1 9.879e+03 4.840e-10
  4.40735     27.7 9.960e+03 5.459e-10
  4.42759     28.7 1.001e+04 6.361e-10
  4.43793     29.8 1.027e+04 7.948e-10
  4.44805     29.7 1.008e+04 7.000e-10
  4.46809     30.7 1.042e+04 8.844e-10
  4.48833     31.8 1.072e+04 1.082e-09
  4.50540     33.0 1.118e+04 1.347e-09
  4.51552     33.2 1.110e+04 1.212e-09
  4.52883     33.2 1.163e+04 1.604e-09
  4.54907     32.3 1.260e+04 2.312e-09
  4.56932     29.7 1.508e+04 5.972e-09
  4.58295     28.2 1.655e+04 1.015e-08
  4.58796     27.8 1.614e+04 8.874e-09
  4.59453     27.4 1.711e+04 1.358e-08
  4.60465     27.8 1.798e+04 1.993e-08
  4.61478     28.8 1.900e+04 2.798e-08
  4.63001     29.7 1.895e+04 2.445e-08
  4.65031     31.2 1.848e+04 1.871e-08
  4.66060     32.0 1.754e+04 9.129e-09
  4.67072     31.4 1.696e+04 7.601e-09
  4.69080     30.5 1.544e+04 3.265e-09
  4.71105     28.2 1.299e+04 1.251e-09
  4.72817     25.9 1.069e+04 2.970e-10
  4.74851     27.1 1.103e+04 4.248e-10
  4.78211     26.0 9.633e+03 1.262e-10
  4.82260     26.9 9.179e+03 9.564e-11
  4.86309     28.9 9.161e+03 1.005e-10
  4.90359     31.6 9.338e+03 1.744e-10
  4.94408     33.5 9.601e+03 2.547e-10
  4.98457     35.6 9.945e+03 3.724e-10
  5.01841     37.5 1.019e+04 4.884e-10
  5.03865     37.8 9.914e+03 4.232e-10
  5.06556     39.2 1.003e+04 5.256e-10
  5.10606     40.7 1.021e+04 6.653e-10
  5.14655     42.5 1.040e+04 7.873e-10
  5.17360     44.2 1.040e+04 8.022e-10
  5.19385     44.6 1.020e+04 7.336e-10
  5.22754     46.5 1.009e+04 6.961e-10
  5.26803     48.5 9.793e+03 5.861e-10
  5.30852     50.5 9.410e+03 4.528e-10
  5.34902     52.7 8.844e+03 3.255e-10
  5.38951     55.0 8.637e+03 2.967e-10
  5.43001     57.5 8.481e+03 2.711e-10
  5.46374     60.2 8.335e+03 2.422e-10
  5.48399     60.7 8.564e+03 3.007e-10
  5.51099     63.5 8.507e+03 2.860e-10
  5.55149     66.4 8.393e+03 2.524e-10
  5.59198     69.2 8.261e+03 2.133e-10
  5.61894     72.0 8.152e+03 1.791e-10
  5.63918     72.4 8.697e+03 3.007e-10
  5.67297     75.1 8.626e+03 2.752e-10
  5.71346     78.0 8.567e+03 2.554e-10
  5.75224     80.8 8.490e+03 2.370e-10
  5.77242     81.4 8.454e+03 2.677e-10
  5.79438     84.6 9.032e+03 4.313e-10
  5.83494     87.7 9.061e+03 4.286e-10
  5.87544     90.8 9.097e+03 4.162e-10
  5.90908     94.2 9.150e+03 3.983e-10
  5.92933     94.7 9.381e+03 5.131e-10
  5.95642     97.9 9.505e+03 5.157e-10
  5.98658     99.7 9.542e+03 5.014e-10
  5.99660    100.1 9.507e+03 5.166e-10
  6.00684    102.5 9.542e+03 5.187e-10
  6.02709    104.9 9.659e+03 5.278e-10
  6.04734    107.1 9.865e+03 5.536e-10
  6.06408    108.9 1.012e+04 5.993e-10
  6.07420    109.1 9.806e+03 5.441e-10
  6.08783    111.1 1.009e+04 5.994e-10
  6.10808    113.1 1.035e+04 6.606e-10
  6.12833    115.4 1.086e+04 7.782e-10
  6.14167    118.6 1.269e+04 1.084e-09
  6.15180    119.6 1.085e+04 7.323e-10
  6.16882    122.5 1.232e+04 9.189e-10
  6.18042    120.2 2.079e+04 1.572e-09
  6.18544    122.3 1.677e+04 1.098e-09
  6.19403    119.5 2.784e+04 2.041e-09
  6.20415    115.9 3.345e+04 5.578e-09
  6.21411    116.5 3.147e+04 1.481e-08
  6.21917    116.9 3.543e+04 7.932e-09
  6.22440    118.9 3.052e+04 2.276e-08
  6.23452    121.3 2.596e+04 5.405e-08
  6.24465    124.1 2.336e+04 9.889e-08
  6.25291    126.4 2.192e+04 1.459e-07
  6.25795    127.4 2.281e+04 1.508e-07
  6.26231    127.9 2.223e+04 1.684e-07
  6.26738    128.2 2.206e+04 1.693e-07
  6.27226    128.5 2.163e+04 1.692e-07
  6.27479    129.1 2.248e+04 2.008e-07
  6.27750    129.3 2.194e+04 1.930e-07
  6.28512    129.0 2.142e+04 1.867e-07
  6.29171    128.9 2.097e+04 1.419e-07
  6.29677    131.2 2.260e+04 3.428e-07
  6.30539    130.5 2.239e+04 2.062e-07
  6.31551    128.3 2.332e+04 1.159e-07
  6.32545    121.9 2.787e+04 4.905e-08
  6.33051    124.7 2.411e+04 2.015e-07
  6.33576    119.2 2.891e+04 6.348e-08
  6.34588    113.1 3.879e+04 1.136e-08
  6.35600    104.6 5.013e+04 2.267e-09
  6.36429     89.3 3.410e+04 1.046e-09
  6.37447     92.4 4.783e+04 1.138e-09
  6.39153     78.4 1.358e+04 1.329e-09
  6.41178     78.6 1.179e+04 1.295e-09
  6.43182     80.7 1.172e+04 1.299e-09
  6.44194     79.8 1.208e+04 1.412e-09
  6.45227     81.9 1.209e+04 1.476e-09
  6.47252     83.7 1.211e+04 1.549e-09
  6.49277     85.4 1.211e+04 1.601e-09
  6.50941     87.0 1.211e+04 1.636e-09
  6.51954     86.7 1.259e+04 1.922e-09
  6.53326     88.2 1.262e+04 1.992e-09
  6.55351     89.6 1.261e+04 1.998e-09
  6.57376     90.8 1.257e+04 1.976e-09
  6.58701     91.9 1.245e+04 1.891e-09
  6.59713     91.9 1.282e+04 2.199e-09
  6.61425     92.9 1.259e+04 2.038e-09
  6.63450     93.9 1.225e+04 1.799e-09
  6.65448     94.8 1.182e+04 1.525e-09
  6.66461     94.9 1.186e+04 1.547e-09
  6.67499     95.8 1.144e+04 1.306e-09
  6.69524     96.8 1.104e+04 1.106e-09
  6.71548     97.8 1.069e+04 9.453e-10
  6.73208     98.9 1.037e+04 8.116e-10
  6.74221     99.0 1.045e+04 8.269e-10
  6.75598    100.1 1.023e+04 7.334e-10
  6.77622    101.3 1.004e+04 6.462e-10
  6.79647    102.4 9.825e+03 5.310e-10
  6.80968    102.9 9.674e+03 4.667e-10
  6.81980    103.4 9.786e+03 5.044e-10
  6.84719    105.3 9.755e+03 4.640e-10
  6.88778    107.2 9.502e+03 3.691e-10
  6.92827    108.8 9.124e+03 2.827e-10
  6.95495    110.2 8.861e+03 2.406e-10
  6.97519    111.4 9.034e+03 2.606e-10
  7.00926    112.9 8.988e+03 2.566e-10
  7.04975    114.2 9.040e+03 2.679e-10
  7.08989    115.3 9.299e+03 3.157e-10
  7.11014    116.7 9.568e+03 3.428e-10
  7.13074    117.3 9.870e+03 3.985e-10
  7.17123    117.7 1.005e+04 4.242e-10
  7.21173    118.1 1.007e+04 4.194e-10
  7.24509    118.7 1.005e+04 3.938e-10
  7.26533    119.5 1.007e+04 3.901e-10
  7.29271    119.7 9.904e+03 3.391e-10
  7.33321    119.7 9.633e+03 2.846e-10
  7.37370    119.7 9.442e+03 2.614e-10
  7.40028    119.9 9.449e+03 2.656e-10
  7.42053    119.8 9.445e+03 2.638e-10
  7.45469    119.3 9.593e+03 2.976e-10
  7.47778    119.1 9.698e+03 3.343e-10
  7.48781    119.0 9.716e+03 3.334e-10
  7.50511    118.7 9.870e+03 3.847e-10
  7.52536    118.4 1.010e+04 4.762e-10
  7.54516    118.2 1.034e+04 6.031e-10
  7.55528    117.6 1.036e+04 5.813e-10
  7.56585    115.3 1.149e+04 8.971e-10
  7.58610    110.7 1.412e+04 1.862e-09
  7.60634    106.4 1.622e+04 4.174e-09
  7.62275    104.1 1.716e+04 7.352e-09
  7.63288    101.2 1.697e+04 7.677e-09
  7.64684    100.0 1.685e+04 7.420e-09
  7.66708     98.9 1.632e+04 5.674e-09
  7.68733     96.9 1.572e+04 2.977e-09
  7.70035     92.0 1.492e+04 1.209e-09
  7.71048     82.9 1.343e+04 6.949e-10
  7.72782     77.1 1.104e+04 6.682e-10
  7.74807     75.4 1.088e+04 7.111e-10
  7.76783     74.9 1.093e+04 8.734e-10
  7.77795     72.9 1.075e+04 9.468e-10
  7.78856     73.0 1.102e+04 1.078e-09
  7.80881     72.9 1.133e+04 1.124e-09
  7.82906     72.3 1.140e+04 1.107e-09
  7.84542     71.6 1.143e+04 1.021e-09
  7.85555     68.5 1.065e+04 6.770e-10
  7.86955     67.1 1.019e+04 5.530e-10
  7.88980     65.8 9.772e+03 4.681e-10
  7.91005     64.8 9.494e+03 4.228e-10
  7.92302     64.0 9.353e+03 3.827e-10
  7.93314     63.1 9.268e+03 3.406e-10
  7.95054     62.7 9.160e+03 3.255e-10
  7.98047     62.5 9.238e+03 3.287e-10
  8.00081     60.7 8.570e+03 2.325e-10
  8.02160     60.0 8.712e+03 2.462e-10
  8.06209     59.3 9.113e+03 3.035e-10
  8.09236     58.3 9.361e+03 3.583e-10
  8.11251     57.9 9.604e+03 4.309e-10
  8.13276     57.6 1.006e+04 5.811e-10
  8.14569     57.6 1.053e+04 7.871e-10
  8.15581     57.7 1.025e+04 6.793e-10
  8.17325     57.7 1.074e+04 8.905e-10
  8.19350     57.8 1.118e+04 1.108e-09
  8.21316     57.9 1.159e+04 1.328e-09
  8.22329     58.0 1.136e+04 1.170e-09
  8.23400     58.2 1.171e+04 1.342e-09
  8.26446     58.5 1.204e+04 1.509e-09
  8.29095     58.8 1.197e+04 1.481e-09
  8.31120     59.0 1.171e+04 1.253e-09
  8.34555     59.8 1.162e+04 1.214e-09
  8.38604     61.0 1.127e+04 1.015e-09
  8.42590     62.4 1.092e+04 7.944e-10
  8.44605     61.8 1.119e+04 8.491e-10
  8.45671     62.2 1.138e+04 8.646e-10
  8.47696     62.7 1.166e+04 9.180e-10
  8.49720     63.1 1.197e+04 1.005e-09
  8.51343     63.4 1.226e+04 1.125e-09
  8.52355     62.5 1.336e+04 1.836e-09
  8.53770     62.9 1.365e+04 2.108e-09
  8.55794     63.3 1.396e+04 2.466e-09
  8.57819     63.7 1.425e+04 2.933e-09
  8.59102     64.1 1.455e+04 3.524e-09
  8.60115     64.0 1.497e+04 4.656e-09
  8.61868     64.6 1.513e+04 5.182e-09
  8.63893     65.3 1.529e+04 5.566e-09
  8.65850     66.0 1.538e+04 5.674e-09
  8.66862     65.8 1.515e+04 5.471e-09
  8.67943     66.2 1.496e+04 5.159e-09
  8.69967     66.5 1.466e+04 4.637e-09
  8.71992     66.8 1.427e+04 3.970e-09
  8.73610     67.0 1.378e+04 3.211e-09
  8.74622     65.9 1.324e+04 2.333e-09
  8.76041     66.1 1.274e+04 1.917e-09
  8.78066     66.4 1.226e+04 1.516e-09
  8.80091     66.7 1.178e+04 1.217e-09
  8.82437     67.2 1.108e+04 8.517e-10
  8.84471     65.0 1.058e+04 7.330e-10
  8.87124     66.0 9.955e+03 5.486e-10
  8.89148     64.5 1.019e+04 5.884e-10
  8.91246     65.6 1.004e+04 5.285e-10
  8.95295     66.9 9.929e+03 4.697e-10
  8.99345     68.5 9.718e+03 3.813e-10
  9.02643     70.4 9.412e+03 2.836e-10
  9.04668     68.4 9.666e+03 3.168e-10
  9.07443     70.1 9.174e+03 1.933e-10
  9.11493     71.6 8.825e+03 1.356e-10
  9.15542     73.5 8.653e+03 1.279e-10
  9.18163     75.8 8.632e+03 1.289e-10
  9.20187     74.7 8.618e+03 1.509e-10
  9.23641     77.3 8.621e+03 1.559e-10
  9.27690     79.9 8.693e+03 1.697e-10
  9.31657     82.3 8.828e+03 1.951e-10
  9.33682     81.4 8.843e+03 2.064e-10
  9.35789     83.7 9.043e+03 2.596e-10
  9.39838     85.8 9.345e+03 3.474e-10
  9.43888     87.8 9.769e+03 4.750e-10
  9.47177     89.7 1.026e+04 6.407e-10
  9.49202     88.8 1.017e+04 5.878e-10
  9.51986     90.0 1.056e+04 6.957e-10
  9.56036     90.9 1.081e+04 7.516e-10
  9.60085     91.6 1.086e+04 7.485e-10
  9.62696     92.1 1.085e+04 7.005e-10
  9.64721     90.4 1.146e+04 1.009e-09
  9.68184     90.7 1.143e+04 9.911e-10
  9.72233     91.4 1.123e+04 8.735e-10
  9.75260     91.6 1.108e+04 8.050e-10
  9.77184     91.9 1.089e+04 7.212e-10
  9.78196     91.1 1.113e+04 8.528e-10
  9.79300     91.6 1.079e+04 6.655e-10
  9.81325     91.9 1.049e+04 5.367e-10
  9.84372     92.4 1.019e+04 4.359e-10
  9.88431     93.4 9.657e+03 3.023e-10
  9.91710     94.4 9.238e+03 2.372e-10
  9.93735     92.4 8.973e+03 2.078e-10
  9.96529     93.8 8.952e+03 2.074e-10
 10.00579     95.4 8.951e+03 2.093e-10
 10.04628     96.9 8.988e+03 2.185e-10
 10.07230     98.2 9.058e+03 2.314e-10
 10.09255     97.0 9.091e+03 2.447e-10
 10.12727     98.3 9.130e+03 2.515e-10
 10.16776     99.5 9.120e+03 2.493e-10
 10.20725    100.6 9.074e+03 2.382e-10
 10.22749     99.6 8.910e+03 1.993e-10
 10.24875    100.4 8.931e+03 1.960e-10
 10.28924    100.9 8.990e+03 2.070e-10
 10.32974    100.7 9.338e+03 2.361e-10
 10.36244    100.0 9.878e+03 3.116e-10
 10.38259     97.4 1.036e+04 4.313e-10
 10.40041     96.8 1.056e+04 5.914e-10
 10.42065     96.6 1.064e+04 7.338e-10
 10.43984     96.7 1.071e+04 8.005e-10
 10.44997     95.8 1.070e+04 7.759e-10
 10.46115     95.9 1.065e+04 7.331e-10
 10.48139     95.7 1.054e+04 6.504e-10
 10.50164     95.3 1.039e+04 5.483e-10
 10.51744     94.7 1.023e+04 4.578e-10
 10.52756     93.1 1.012e+04 3.877e-10
 10.54213     92.2 1.012e+04 3.615e-10
 10.56238     91.4 1.013e+04 3.644e-10
 10.58263     90.7 1.013e+04 3.773e-10
 10.59504     90.2 1.018e+04 4.025e-10
 10.60516     89.5 1.009e+04 4.083e-10
 10.62312     89.2 1.018e+04 4.600e-10
 10.64337     88.8 1.048e+04 5.426e-10
 10.66251     88.3 1.082e+04 6.510e-10
 10.67263     87.6 1.095e+04 7.028e-10
 10.68386     86.8 1.155e+04 8.952e-10
 10.70411     86.4 1.188e+04 1.072e-09
 10.73458     86.5 1.216e+04 1.268e-09
 10.77517     86.1 1.220e+04 1.308e-09
 10.80778     85.8 1.192e+04 1.183e-09
 10.82802     85.5 1.159e+04 1.047e-09
 10.85615     85.6 1.093e+04 7.080e-10
 10.89665     85.5 1.021e+04 4.326e-10
 10.93714     85.4 9.879e+03 3.200e-10
 10.96297     85.6 9.888e+03 3.199e-10
 10.98322     85.3 1.004e+04 3.995e-10
 11.01813     85.8 1.028e+04 4.911e-10
 11.05862     86.3 1.062e+04 6.247e-10
 11.09792     86.6 1.093e+04 7.458e-10
 11.11817     86.9 1.115e+04 8.532e-10
 11.13961     87.0 1.113e+04 8.181e-10
 11.18010     86.6 1.110e+04 7.538e-10
 11.22060     85.8 1.116e+04 7.348e-10
 11.25311     84.6 1.130e+04 7.623e-10
 11.27326     81.2 1.169e+04 7.692e-10
 11.29127     79.8 1.236e+04 9.208e-10
 11.31151     78.5 1.333e+04 1.360e-09
 11.33052     76.7 1.433e+04 2.165e-09
 11.34064     74.1 1.483e+04 3.192e-09
 11.35201     72.9 1.547e+04 4.357e-09
 11.37225     71.9 1.614e+04 5.654e-09
 11.39250     71.1 1.676e+04 7.191e-09
 11.40811     70.4 1.709e+04 8.395e-09
 11.41824     68.2 1.610e+04 5.853e-09
 11.43299     67.1 1.599e+04 5.125e-09
 11.45324     65.5 1.564e+04 4.146e-09
