# Columns:
#   distance along LOS (in CHIMPs)
#   peculiar velocity  (in km/s)
#   temperature (K)
#   HI number density
# pos=(53.1917,176.289,3.04163), angles=(1.7787,3.02609)
  0.00546   -140.3 1.431e+04 2.204e-09
  0.02097   -141.8 1.468e+04 2.656e-09
  0.03136   -143.4 1.508e+04 3.044e-09
  0.04141   -141.7 1.523e+04 3.051e-09
  0.06116   -143.4 1.560e+04 3.622e-09
  0.08125   -145.3 1.568e+04 3.924e-09
  0.10135   -147.3 1.567e+04 3.975e-09
  0.11527   -149.3 1.539e+04 3.848e-09
  0.12274   -150.5 1.567e+04 4.152e-09
  0.12891   -148.8 1.629e+04 4.869e-09
  0.14154   -151.8 1.612e+04 4.498e-09
  0.16163   -155.9 1.607e+04 3.707e-09
  0.18173   -161.3 1.599e+04 3.165e-09
  0.20182   -166.9 1.568e+04 2.985e-09
  0.21641   -171.6 1.531e+04 2.960e-09
  0.22646   -169.9 1.565e+04 3.316e-09
  0.24201   -173.6 1.500e+04 3.241e-09
  0.26211   -175.8 1.453e+04 3.110e-09
  0.28220   -177.1 1.413e+04 2.873e-09
  0.30230   -179.6 1.331e+04 2.241e-09
  0.31396   -180.3 1.276e+04 1.726e-09
  0.32401   -179.7 1.290e+04 1.856e-09
  0.34249   -181.0 1.292e+04 1.641e-09
  0.36258   -183.0 1.298e+04 1.602e-09
  0.38268   -185.4 1.343e+04 1.662e-09
  0.40146   -187.8 1.404e+04 1.994e-09
  0.41151   -188.3 1.505e+04 3.094e-09
  0.42287   -189.8 1.566e+04 4.130e-09
  0.44296   -191.0 1.632e+04 5.405e-09
  0.45928   -192.1 1.694e+04 6.804e-09
  0.46932   -193.4 1.694e+04 6.641e-09
  0.48315   -194.5 1.737e+04 7.567e-09
  0.49901   -195.2 1.771e+04 8.505e-09
  0.50901   -195.1 1.755e+04 7.828e-09
  0.51822   -195.6 1.762e+04 8.062e-09
  0.52827   -195.9 1.768e+04 8.178e-09
  0.53832   -196.3 1.768e+04 8.281e-09
  0.54769   -196.5 1.769e+04 8.310e-09
  0.55271   -197.7 1.753e+04 6.710e-09
  0.55841   -197.9 1.739e+04 6.417e-09
  0.56846   -198.2 1.718e+04 6.009e-09
  0.57851   -198.5 1.688e+04 5.513e-09
  0.58855   -198.6 1.654e+04 5.010e-09
  0.59647   -198.6 1.628e+04 4.641e-09
  0.60656   -199.9 1.586e+04 3.685e-09
  0.62382   -200.1 1.518e+04 2.923e-09
  0.63630   -200.7 1.408e+04 2.058e-09
  0.64635   -203.1 1.344e+04 1.937e-09
  0.66401   -203.4 1.235e+04 1.402e-09
  0.68406   -203.5 1.159e+04 1.050e-09
  0.70416   -203.6 1.102e+04 8.210e-10
  0.72429   -203.7 1.061e+04 6.772e-10
  0.74439   -203.7 1.039e+04 5.989e-10
  0.76448   -203.9 1.030e+04 5.616e-10
  0.78161   -204.0 1.026e+04 5.475e-10
  0.79166   -204.4 1.066e+04 6.514e-10
  0.80328   -204.5 1.065e+04 6.523e-10
  0.81333   -205.2 1.071e+04 7.343e-10
  0.82477   -205.3 1.066e+04 7.423e-10
  0.84486   -205.4 1.060e+04 7.475e-10
  0.86496   -205.2 1.051e+04 7.511e-10
  0.87916   -204.8 1.039e+04 7.499e-10
  0.88921   -204.7 1.070e+04 8.958e-10
  0.90515   -204.2 1.064e+04 8.809e-10
  0.92524   -203.7 1.058e+04 8.474e-10
  0.94534   -203.1 1.049e+04 8.037e-10
  0.96543   -202.4 1.038e+04 7.528e-10
  0.97671   -201.5 1.029e+04 7.015e-10
  0.98154   -202.6 1.245e+04 1.037e-09
  0.99036   -205.7 1.618e+04 2.330e-09
  1.00562   -204.9 1.552e+04 2.165e-09
  1.02572   -204.2 1.494e+04 2.107e-09
  1.04581   -203.7 1.471e+04 2.107e-09
  1.06421   -203.4 1.466e+04 2.116e-09
  1.07426   -203.9 1.474e+04 3.353e-09
  1.08600   -203.7 1.463e+04 3.405e-09
  1.10610   -203.5 1.460e+04 4.043e-09
  1.12619   -203.2 1.513e+04 5.047e-09
  1.14629   -202.8 1.572e+04 6.074e-09
  1.15734   -202.4 1.623e+04 6.850e-09
  1.16231   -204.4 1.733e+04 7.590e-09
  1.16669   -204.3 1.739e+04 7.611e-09
  1.17171   -204.4 1.791e+04 8.346e-09
  1.18136   -204.1 1.794e+04 7.622e-09
  1.19140   -204.0 1.795e+04 6.868e-09
  1.20145   -204.0 1.780e+04 6.072e-09
  1.21044   -204.1 1.761e+04 5.387e-09
  1.21546   -204.3 1.771e+04 5.430e-09
  1.22662   -204.7 1.720e+04 4.558e-09
  1.24676   -205.3 1.667e+04 3.839e-09
  1.25931   -206.2 1.548e+04 2.906e-09
  1.26936   -205.7 1.556e+04 2.346e-09
  1.28695   -206.4 1.443e+04 1.838e-09
  1.30705   -206.7 1.389e+04 1.652e-09
  1.32432   -206.7 1.368e+04 1.586e-09
  1.33436   -208.4 1.388e+04 1.500e-09
  1.34682   -208.1 1.388e+04 1.495e-09
  1.35686   -207.9 1.341e+04 1.311e-09
  1.36733   -207.5 1.334e+04 1.277e-09
  1.38743   -206.9 1.324e+04 1.228e-09
  1.40752   -206.3 1.305e+04 1.160e-09
  1.42762   -205.6 1.276e+04 1.079e-09
  1.44436   -204.8 1.245e+04 9.956e-10
  1.45441   -204.5 1.209e+04 9.023e-10
  1.46781   -203.5 1.179e+04 8.300e-10
  1.48790   -202.4 1.153e+04 7.700e-10
  1.50134   -201.1 1.131e+04 7.208e-10
  1.51139   -201.9 1.118e+04 7.135e-10
  1.52809   -200.5 1.103e+04 6.721e-10
  1.54191   -199.0 1.089e+04 6.283e-10
  1.55196   -198.6 1.067e+04 5.196e-10
  1.56828   -196.8 1.060e+04 4.583e-10
  1.58838   -194.8 1.057e+04 4.044e-10
  1.60847   -192.8 1.054e+04 3.752e-10
  1.62857   -191.2 1.049e+04 3.678e-10
  1.65837   -190.0 1.046e+04 3.614e-10
  1.67857   -192.3 1.051e+04 2.929e-10
  1.69909   -189.6 1.031e+04 2.757e-10
  1.72716   -186.5 1.011e+04 2.650e-10
  1.74726   -186.8 9.968e+03 2.469e-10
  1.77947   -183.6 9.797e+03 2.347e-10
  1.81966   -180.4 9.675e+03 2.246e-10
  1.85985   -177.1 9.596e+03 2.166e-10
  1.90004   -173.8 9.559e+03 2.107e-10
  1.92226   -170.5 9.567e+03 2.062e-10
  1.94235   -171.0 9.426e+03 1.753e-10
  1.98042   -167.8 9.473e+03 1.764e-10
  2.01253   -164.8 9.612e+03 1.858e-10
  2.03262   -166.2 9.749e+03 2.944e-10
  2.06080   -163.3 9.893e+03 3.382e-10
  2.09726   -160.6 1.013e+04 4.072e-10
  2.11736   -161.2 1.036e+04 4.246e-10
  2.14118   -158.8 1.093e+04 5.500e-10
  2.18137   -156.8 1.158e+04 7.192e-10
  2.22156   -155.1 1.214e+04 8.973e-10
  2.26175   -153.7 1.250e+04 1.028e-09
  2.29236   -152.3 1.258e+04 1.063e-09
  2.31246   -153.6 1.221e+04 1.120e-09
  2.34213   -151.7 1.181e+04 1.002e-09
  2.36658   -149.4 1.125e+04 7.773e-10
  2.38668   -151.2 1.165e+04 1.053e-09
  2.42251   -149.0 1.118e+04 7.925e-10
  2.46270   -146.5 1.076e+04 6.054e-10
  2.48746   -143.9 1.045e+04 4.965e-10
  2.50756   -142.5 1.043e+04 5.114e-10
  2.54308   -140.4 1.062e+04 5.065e-10
  2.57313   -141.2 1.182e+04 6.915e-10
  2.58481   -141.2 1.226e+04 7.922e-10
  2.59486   -141.7 1.324e+04 1.009e-09
  2.61322   -143.2 1.490e+04 1.450e-09
  2.63332   -143.8 1.577e+04 2.055e-09
  2.65341   -144.3 1.625e+04 2.873e-09
  2.67232   -144.4 1.644e+04 3.681e-09
  2.68236   -145.3 1.785e+04 6.527e-09
  2.69360   -145.1 1.777e+04 6.880e-09
  2.71039   -144.8 1.757e+04 6.612e-09
  2.72044   -146.8 1.753e+04 6.799e-09
  2.73379   -146.4 1.697e+04 5.515e-09
  2.75389   -146.0 1.627e+04 4.128e-09
  2.76987   -145.8 1.547e+04 3.002e-09
  2.77991   -147.5 1.484e+04 2.947e-09
  2.79408   -147.5 1.394e+04 2.209e-09
  2.81417   -147.4 1.325e+04 1.783e-09
  2.83427   -147.1 1.279e+04 1.541e-09
  2.85436   -146.6 1.252e+04 1.413e-09
  2.86742   -145.8 1.239e+04 1.366e-09
  2.87746   -146.9 1.229e+04 1.693e-09
  2.88742   -145.8 1.229e+04 1.708e-09
  2.89747   -146.5 1.220e+04 1.696e-09
  2.91465   -145.4 1.221e+04 1.735e-09
  2.93474   -144.3 1.217e+04 1.753e-09
  2.95484   -143.0 1.206e+04 1.763e-09
  2.97493   -142.1 1.239e+04 1.661e-09
  2.99503   -140.9 1.238e+04 1.508e-09
  3.01512   -140.1 1.242e+04 1.353e-09
  3.03522   -139.6 1.240e+04 1.264e-09
  3.05247   -139.6 1.240e+04 1.234e-09
  3.06160   -142.5 1.088e+04 6.759e-10
  3.06445   -145.0 1.101e+04 6.777e-10
  3.07541   -145.8 1.165e+04 8.237e-10
  3.09550   -146.5 1.239e+04 1.159e-09
  3.11560   -147.1 1.307e+04 1.632e-09
  3.13569   -147.7 1.361e+04 2.168e-09
  3.15002   -148.2 1.395e+04 2.657e-09
  3.16006   -149.2 1.362e+04 2.366e-09
  3.17588   -149.6 1.383e+04 2.713e-09
  3.19598   -150.1 1.390e+04 2.859e-09
  3.21607   -150.6 1.384e+04 2.839e-09
  3.23143   -151.2 1.359e+04 2.574e-09
  3.24147   -152.3 1.365e+04 2.597e-09
  3.24757   -152.9 1.321e+04 2.150e-09
  3.25761   -153.0 1.293e+04 1.953e-09
  3.27636   -153.6 1.235e+04 1.543e-09
  3.29645   -154.1 1.179e+04 1.222e-09
  3.31655   -154.5 1.130e+04 9.950e-10
  3.33507   -154.9 1.095e+04 8.536e-10
  3.34511   -154.4 1.069e+04 7.729e-10
  3.35674   -154.6 1.060e+04 7.213e-10
  3.37683   -154.8 1.059e+04 7.140e-10
  3.39693   -155.4 1.075e+04 7.265e-10
  3.40845   -156.6 1.147e+04 8.936e-10
  3.41850   -156.6 1.141e+04 8.784e-10
  3.43262   -157.8 1.208e+04 1.169e-09
  3.44266   -156.8 1.162e+04 9.528e-10
  3.45721   -157.8 1.218e+04 1.254e-09
  3.47731   -158.5 1.252e+04 1.534e-09
  3.49740   -159.1 1.262e+04 1.658e-09
  3.51750   -159.7 1.260e+04 1.673e-09
  3.53017   -160.1 1.234e+04 1.518e-09
  3.54021   -159.4 1.230e+04 1.469e-09
  3.55769   -159.6 1.195e+04 1.236e-09
  3.57543   -159.9 1.162e+04 9.744e-10
  3.58548   -159.3 1.153e+04 9.332e-10
  3.59788   -159.7 1.130e+04 7.517e-10
  3.61767   -160.1 1.119e+04 6.562e-10
  3.62772   -158.9 1.108e+04 6.778e-10
  3.63807   -159.1 1.099e+04 6.094e-10
  3.65816   -159.2 1.097e+04 5.927e-10
  3.67826   -159.2 1.098e+04 5.904e-10
  3.69835   -159.0 1.109e+04 6.136e-10
  3.71522   -158.7 1.120e+04 6.542e-10
  3.72526   -157.3 1.086e+04 5.770e-10
  3.73854   -156.9 1.092e+04 5.948e-10
  3.75246   -156.3 1.095e+04 6.065e-10
  3.76251   -156.0 1.111e+04 6.138e-10
  3.77873   -155.3 1.114e+04 6.284e-10
  3.79883   -154.5 1.113e+04 6.339e-10
  3.81277   -153.6 1.104e+04 6.369e-10
  3.82281   -152.5 1.082e+04 5.442e-10
  3.83902   -151.6 1.083e+04 5.584e-10
  3.85911   -150.7 1.081e+04 5.798e-10
  3.87921   -149.8 1.079e+04 6.053e-10
  3.89930   -148.9 1.076e+04 6.317e-10
  3.91032   -147.9 1.076e+04 6.641e-10
  3.92036   -146.9 1.090e+04 6.475e-10
  3.93949   -145.6 1.075e+04 6.669e-10
  3.95959   -144.6 1.083e+04 7.292e-10
  3.97968   -143.7 1.095e+04 7.991e-10
  3.99782   -142.7 1.108e+04 8.678e-10
  4.00787   -141.5 1.127e+04 8.988e-10
  4.01987   -140.5 1.145e+04 9.909e-10
  4.03997   -139.6 1.159e+04 1.045e-09
  4.06006   -138.9 1.165e+04 1.075e-09
  4.08016   -138.5 1.173e+04 1.097e-09
  4.09537   -138.2 1.192e+04 1.137e-09
  4.10163   -136.8 1.183e+04 1.131e-09
  4.10652   -136.7 1.173e+04 1.107e-09
  4.12035   -136.6 1.191e+04 1.139e-09
  4.14044   -138.7 1.318e+04 1.385e-09
  4.16054   -141.6 1.497e+04 2.561e-09
  4.18063   -143.4 1.655e+04 5.004e-09
  4.19292   -144.7 1.790e+04 7.946e-09
  4.20296   -145.5 1.867e+04 9.978e-09
  4.22082   -147.1 2.017e+04 1.446e-08
  4.23584   -149.4 2.028e+04 1.262e-08
  4.24159   -151.4 2.022e+04 1.170e-08
  4.24662   -150.8 2.258e+04 1.792e-08
  4.25589   -153.4 2.359e+04 1.580e-08
  4.26594   -157.6 2.426e+04 8.922e-09
  4.27340   -162.9 2.190e+04 4.199e-09
  4.27842   -164.3 1.936e+04 3.358e-09
  4.28534   -169.7 1.499e+04 1.780e-09
  4.29037   -166.7 2.285e+04 3.505e-09
  4.29608   -172.5 1.605e+04 1.892e-09
  4.30613   -175.3 1.378e+04 1.586e-09
  4.32125   -176.6 1.318e+04 1.471e-09
  4.34139   -178.2 1.254e+04 1.373e-09
  4.36149   -179.1 1.232e+04 1.358e-09
  4.37797   -179.4 1.221e+04 1.393e-09
  4.38802   -179.9 1.440e+04 2.442e-09
  4.40168   -180.0 1.396e+04 2.266e-09
  4.42177   -180.0 1.351e+04 2.058e-09
  4.44047   -180.0 1.296e+04 1.785e-09
  4.45052   -180.2 1.241e+04 1.535e-09
  4.46196   -180.2 1.190e+04 1.300e-09
  4.47552   -179.9 1.139e+04 1.070e-09
  4.48556   -180.2 1.246e+04 1.488e-09
  4.50215   -179.8 1.178e+04 1.189e-09
  4.52225   -179.3 1.125e+04 9.772e-10
  4.54234   -178.8 1.086e+04 8.282e-10
  4.56244   -178.2 1.057e+04 7.179e-10
  4.57307   -177.6 1.034e+04 6.341e-10
  4.58311   -177.9 1.108e+04 8.566e-10
  4.60263   -177.3 1.094e+04 7.857e-10
  4.61750   -176.7 1.092e+04 7.644e-10
  4.62755   -176.3 1.076e+04 7.091e-10
  4.64282   -176.0 1.077e+04 7.076e-10
  4.66057   -176.0 1.086e+04 7.136e-10
  4.67062   -177.3 1.201e+04 1.095e-09
  4.68301   -177.8 1.236e+04 1.285e-09
  4.70310   -178.2 1.275e+04 1.612e-09
  4.72320   -178.4 1.312e+04 2.014e-09
  4.74329   -178.5 1.339e+04 2.365e-09
  4.75812   -178.6 1.351e+04 2.521e-09
  4.76817   -178.9 1.367e+04 2.858e-09
  4.78348   -179.1 1.356e+04 2.732e-09
  4.79453   -179.4 1.309e+04 2.150e-09
  4.80458   -178.6 1.298e+04 2.057e-09
  4.82367   -179.1 1.233e+04 1.461e-09
  4.84377   -180.1 1.151e+04 9.947e-10
  4.85567   -181.2 1.066e+04 6.951e-10
  4.86571   -181.4 1.049e+04 6.580e-10
  4.88396   -182.0 9.858e+03 4.831e-10
  4.90405   -182.3 9.436e+03 3.786e-10
  4.92415   -182.5 9.300e+03 3.280e-10
  4.94317   -182.8 9.298e+03 3.178e-10
  4.95322   -184.7 9.650e+03 3.355e-10
  4.96151   -188.2 1.111e+04 3.847e-10
  4.97156   -187.2 1.063e+04 3.446e-10
  4.98443   -190.4 1.183e+04 5.988e-10
  5.00453   -192.2 1.238e+04 1.108e-09
  5.02462   -192.9 1.265e+04 1.732e-09
  5.04072   -193.2 1.271e+04 2.155e-09
  5.05077   -193.7 1.268e+04 2.369e-09
  5.06481   -193.8 1.264e+04 2.388e-09
  5.08491   -193.8 1.231e+04 2.157e-09
  5.10500   -193.9 1.188e+04 1.628e-09
  5.12510   -194.5 1.140e+04 1.149e-09
  5.13827   -195.9 1.088e+04 8.184e-10
  5.14166   -196.7 1.061e+04 5.908e-10
  5.14858   -196.7 1.045e+04 5.518e-10
  5.16529   -197.6 1.004e+04 4.467e-10
  5.18538   -198.1 9.852e+03 4.113e-10
  5.20548   -198.3 9.808e+03 4.044e-10
  5.22557   -198.5 9.801e+03 4.044e-10
  5.23582   -198.8 9.832e+03 4.466e-10
  5.24586   -198.5 9.741e+03 3.670e-10
  5.26576   -198.5 1.006e+04 4.606e-10
  5.28586   -198.5 1.040e+04 5.851e-10
  5.30552   -198.3 1.075e+04 7.291e-10
  5.31556   -198.3 1.087e+04 8.088e-10
  5.32332   -198.1 1.120e+04 9.718e-10
  5.33337   -197.9 1.108e+04 7.846e-10
  5.34614   -197.9 1.143e+04 9.805e-10
  5.36624   -197.9 1.156e+04 1.039e-09
  5.38633   -197.9 1.158e+04 1.050e-09
  5.40643   -197.9 1.151e+04 1.027e-09
  5.42087   -198.0 1.128e+04 9.187e-10
  5.43092   -198.1 1.150e+04 1.020e-09
  5.44662   -198.1 1.134e+04 9.348e-10
  5.46671   -198.2 1.118e+04 8.422e-10
  5.48254   -198.4 1.104e+04 7.551e-10
  5.49259   -198.5 1.120e+04 8.201e-10
  5.50690   -198.8 1.109e+04 7.376e-10
  5.51842   -199.1 1.106e+04 6.842e-10
  5.52847   -199.9 1.181e+04 1.038e-09
  5.54709   -200.5 1.178e+04 1.007e-09
  5.56719   -201.1 1.178e+04 1.002e-09
  5.58728   -201.9 1.179e+04 1.003e-09
  5.60592   -202.9 1.197e+04 1.050e-09
  5.61597   -204.1 1.250e+04 1.542e-09
  5.62747   -204.9 1.272e+04 1.709e-09
  5.64757   -205.6 1.303e+04 1.946e-09
  5.65957   -206.3 1.333e+04 2.193e-09
  5.66962   -206.8 1.358e+04 2.413e-09
  5.68776   -207.8 1.385e+04 2.653e-09
  5.70347   -209.0 1.412e+04 2.862e-09
  5.71352   -209.9 1.454e+04 3.230e-09
  5.72795   -211.3 1.486e+04 3.577e-09
  5.74804   -212.7 1.516e+04 3.960e-09
  5.76814   -214.2 1.535e+04 4.270e-09
  5.78823   -215.6 1.538e+04 4.391e-09
  5.80102   -216.9 1.532e+04 4.382e-09
  5.81107   -217.2 1.488e+04 4.049e-09
  5.82655   -217.9 1.430e+04 3.291e-09
  5.83660   -217.6 1.421e+04 3.220e-09
  5.84852   -218.2 1.350e+04 2.402e-09
  5.86861   -218.8 1.282e+04 1.776e-09
  5.88852   -219.3 1.220e+04 1.342e-09
  5.89857   -219.7 1.138e+04 8.566e-10
  5.90880   -220.1 1.089e+04 6.668e-10
  5.92890   -220.2 1.053e+04 5.495e-10
  5.94899   -220.2 1.026e+04 4.759e-10
  5.96909   -220.0 1.005e+04 4.254e-10
  5.98607   -219.4 9.879e+03 3.855e-10
  5.99612   -219.2 9.672e+03 3.196e-10
  6.00358   -218.7 9.675e+03 3.346e-10
  6.01363   -218.3 9.685e+03 3.363e-10
  6.03952   -218.3 9.702e+03 3.421e-10
  6.07377   -218.1 9.606e+03 3.307e-10
  6.09386   -218.4 9.200e+03 2.339e-10
  6.11999   -218.3 9.110e+03 2.270e-10
  6.16018   -218.4 8.989e+03 2.146e-10
  6.18080   -218.6 8.865e+03 2.018e-10
  6.20090   -217.5 8.846e+03 1.957e-10
  6.24056   -217.7 8.734e+03 1.818e-10
  6.26887   -217.6 8.650e+03 1.756e-10
  6.28896   -217.9 8.551e+03 1.517e-10
  6.32094   -217.4 8.531e+03 1.507e-10
  6.36113   -216.8 8.582e+03 1.592e-10
  6.40132   -216.3 8.737e+03 1.757e-10
  6.44151   -216.0 9.104e+03 2.130e-10
  6.46396   -216.1 9.712e+03 2.886e-10
  6.48406   -217.8 9.996e+03 3.233e-10
  6.51175   -216.9 1.024e+04 3.843e-10
  6.52461   -217.2 1.072e+04 5.144e-10
  6.53476   -216.6 1.015e+04 3.562e-10
  6.56208   -216.6 1.113e+04 6.319e-10
  6.59213   -217.0 1.193e+04 1.114e-09
  6.61213   -217.2 1.238e+04 1.457e-09
  6.63222   -217.5 1.268e+04 1.724e-09
  6.64882   -218.1 1.287e+04 1.854e-09
  6.65887   -218.6 1.262e+04 1.560e-09
  6.67241   -219.2 1.268e+04 1.544e-09
  6.69159   -219.9 1.267e+04 1.340e-09
  6.70164   -218.3 1.290e+04 1.683e-09
  6.71260   -218.9 1.282e+04 1.487e-09
  6.73270   -219.6 1.264e+04 1.261e-09
  6.74637   -220.3 1.236e+04 1.079e-09
  6.75642   -221.2 1.209e+04 9.641e-10
  6.77289   -221.4 1.181e+04 8.939e-10
  6.79298   -221.4 1.158e+04 8.441e-10
  6.81308   -221.2 1.140e+04 8.152e-10
  6.83317   -220.8 1.136e+04 8.064e-10
  6.84392   -220.5 1.143e+04 8.117e-10
  6.85397   -220.2 1.126e+04 7.998e-10
  6.86862   -219.7 1.130e+04 8.253e-10
  6.87867   -218.4 1.123e+04 8.177e-10
  6.89346   -217.9 1.124e+04 8.331e-10
  6.91355   -217.4 1.166e+04 9.149e-10
  6.93142   -217.5 1.245e+04 1.138e-09
  6.94147   -216.4 1.176e+04 9.867e-10
  6.95374   -216.5 1.271e+04 1.325e-09
  6.97384   -216.5 1.363e+04 1.934e-09
  6.99393   -216.1 1.428e+04 2.739e-09
  7.01403   -215.5 1.468e+04 3.471e-09
  7.02897   -214.9 1.483e+04 3.801e-09
  7.03902   -213.6 1.580e+04 4.912e-09
  7.04565   -213.0 1.584e+04 5.227e-09
  7.05569   -212.1 1.598e+04 5.504e-09
  7.07431   -211.6 1.599e+04 5.711e-09
  7.09441   -211.2 1.576e+04 5.471e-09
  7.11450   -210.7 1.523e+04 4.089e-09
  7.12652   -210.5 1.458e+04 2.544e-09
  7.13657   -209.1 1.590e+04 5.018e-09
  7.15469   -208.5 1.526e+04 3.213e-09
  7.17479   -209.8 1.459e+04 1.938e-09
  7.19488   -212.0 1.342e+04 1.264e-09
  7.21263   -214.3 1.218e+04 1.070e-09
  7.22172   -211.7 1.328e+04 1.225e-09
  7.22407   -208.2 1.685e+04 2.959e-09
  7.23507   -210.4 1.589e+04 1.887e-09
  7.25517   -212.9 1.392e+04 1.381e-09
  7.27526   -215.1 1.227e+04 1.258e-09
  7.29536   -216.5 1.191e+04 1.231e-09
  7.31157   -217.5 1.192e+04 1.222e-09
  7.32162   -222.6 3.045e+04 1.565e-09
  7.33555   -230.1 4.462e+04 1.731e-09
  7.35057   -227.1 4.730e+04 1.018e-09
  7.36025   -230.1 4.582e+04 1.603e-09
  7.36527   -236.5 4.168e+04 5.790e-09
  7.37062   -237.9 3.705e+04 8.759e-09
  7.38066   -238.9 3.221e+04 1.347e-08
  7.38956   -240.1 2.729e+04 2.177e-08
  7.39458   -237.2 3.121e+04 1.487e-08
  7.40076   -238.1 2.746e+04 2.286e-08
  7.40902   -239.1 2.452e+04 3.604e-08
  7.41405   -241.1 2.188e+04 6.599e-08
  7.42085   -240.8 2.174e+04 7.743e-08
  7.43090   -240.5 2.175e+04 8.572e-08
  7.44095   -240.2 2.184e+04 8.810e-08
  7.45100   -239.8 2.185e+04 8.839e-08
  7.45780   -239.4 2.162e+04 8.245e-08
  7.46282   -239.3 2.194e+04 6.225e-08
  7.47109   -238.9 2.205e+04 4.410e-08
  7.47807   -238.9 2.201e+04 2.939e-08
  7.48309   -237.4 2.167e+04 3.865e-08
  7.49119   -237.5 2.158e+04 2.626e-08
  7.50123   -237.8 2.101e+04 1.743e-08
  7.50657   -238.5 1.995e+04 1.163e-08
  7.51160   -240.8 1.878e+04 6.624e-09
  7.52133   -241.5 1.702e+04 4.974e-09
  7.53138   -241.8 1.584e+04 4.128e-09
  7.54142   -241.8 1.524e+04 3.761e-09
  7.55654   -241.6 1.474e+04 3.488e-09
  7.57669   -239.0 1.480e+04 3.777e-09
  7.59417   -238.3 1.408e+04 3.183e-09
  7.60422   -238.4 1.393e+04 2.567e-09
  7.61688   -237.3 1.345e+04 2.502e-09
  7.63697   -236.3 1.303e+04 2.276e-09
  7.65707   -235.4 1.264e+04 1.983e-09
  7.67716   -234.5 1.218e+04 1.727e-09
  7.69172   -233.6 1.171e+04 1.426e-09
  7.70177   -232.9 1.223e+04 1.690e-09
  7.71735   -232.0 1.183e+04 1.488e-09
  7.73366   -231.1 1.135e+04 1.232e-09
  7.74371   -230.6 1.146e+04 1.301e-09
  7.75754   -229.7 1.101e+04 1.044e-09
  7.77764   -228.7 1.057e+04 8.386e-10
  7.78927   -227.7 1.020e+04 6.673e-10
  7.79932   -227.0 1.063e+04 8.980e-10
  7.81783   -226.0 1.028e+04 7.252e-10
  7.83792   -224.9 9.977e+03 5.832e-10
  7.85802   -223.8 9.732e+03 4.859e-10
  7.88826   -222.7 9.548e+03 4.252e-10
  7.91088   -221.6 9.280e+03 3.694e-10
  7.92083   -220.5 9.375e+03 3.955e-10
  7.93840   -219.7 9.320e+03 3.671e-10
  7.96437   -219.4 9.236e+03 3.450e-10
  7.98456   -217.9 9.452e+03 4.126e-10
  8.00892   -216.9 9.220e+03 3.638e-10
  8.04911   -215.8 8.946e+03 3.216e-10
  8.08930   -214.6 8.785e+03 2.955e-10
  8.12949   -213.3 8.694e+03 2.799e-10
  8.15957   -212.1 8.637e+03 2.689e-10
  8.17966   -211.3 8.738e+03 2.763e-10
  8.20987   -210.0 8.655e+03 2.591e-10
  8.24484   -208.5 8.616e+03 2.488e-10
