# Columns:
#   distance along LOS (in CHIMPs)
#   peculiar velocity  (in km/s)
#   temperature (K)
#   HI number density
# pos=(13.3833,81.1991,164.732), angles=(1.34261,4.66512)
  0.00605     15.2 1.232e+04 1.222e-09
  0.01245     15.9 1.310e+04 1.613e-09
  0.02064     15.4 1.317e+04 1.769e-09
  0.03032     16.8 1.267e+04 1.485e-09
  0.04221     18.0 1.329e+04 1.855e-09
  0.06228     19.1 1.395e+04 2.450e-09
  0.08235     20.4 1.468e+04 3.198e-09
  0.09577     21.9 1.554e+04 3.913e-09
  0.10581     21.4 1.505e+04 3.499e-09
  0.12250     22.5 1.591e+04 4.099e-09
  0.14257     23.9 1.642e+04 4.487e-09
  0.16265     25.0 1.718e+04 5.120e-09
  0.17909     25.4 1.892e+04 6.234e-09
  0.18912     24.9 1.699e+04 4.773e-09
  0.20279     25.6 1.887e+04 6.620e-09
  0.22287     26.9 2.070e+04 9.480e-09
  0.24294     28.5 2.220e+04 1.153e-08
  0.25795     31.2 2.235e+04 1.064e-08
  0.26732     31.1 2.322e+04 1.137e-08
  0.27234     30.6 2.241e+04 1.077e-08
  0.27797     30.9 2.424e+04 1.490e-08
  0.28801     30.8 2.618e+04 1.998e-08
  0.29804     30.2 2.721e+04 3.302e-08
  0.30808     30.3 2.733e+04 5.479e-08
  0.31400     30.4 2.614e+04 1.007e-07
  0.31902     29.7 2.697e+04 6.440e-08
  0.32815     30.0 2.631e+04 9.354e-08
  0.33819     30.2 2.605e+04 1.137e-07
  0.34823     30.1 2.667e+04 1.120e-07
  0.35566     29.2 2.726e+04 1.008e-07
  0.36068     28.7 2.995e+04 4.662e-08
  0.36830     27.5 2.906e+04 5.295e-08
  0.37834     26.4 2.781e+04 5.645e-08
  0.38838     25.7 2.665e+04 5.541e-08
  0.39732     25.4 2.578e+04 5.097e-08
  0.40234     24.9 2.533e+04 4.189e-08
  0.40845     24.5 2.463e+04 3.769e-08
  0.41849     24.2 2.377e+04 3.270e-08
  0.42852     24.1 2.303e+04 2.745e-08
  0.43856     24.0 2.237e+04 2.291e-08
  0.44399     24.0 2.176e+04 1.854e-08
  0.44855     23.5 2.173e+04 1.845e-08
  0.45315     24.2 2.279e+04 2.745e-08
  0.45863     24.2 2.207e+04 2.440e-08
  0.46867     24.1 2.145e+04 2.027e-08
  0.47871     24.0 2.096e+04 1.712e-08
  0.48565     23.8 2.038e+04 1.394e-08
  0.49067     23.4 2.028e+04 1.391e-08
  0.50385     23.7 2.013e+04 1.264e-08
  0.52239     23.6 1.904e+04 8.079e-09
  0.53243     23.4 1.861e+04 8.182e-09
  0.54404     23.2 1.747e+04 5.307e-09
  0.56412     23.0 1.626e+04 3.226e-09
  0.58419     22.9 1.518e+04 1.544e-09
  0.60426     22.1 1.395e+04 7.813e-10
  0.61574     20.6 1.299e+04 4.424e-10
  0.62578     22.1 1.203e+04 4.737e-10
  0.64441     22.3 1.135e+04 3.464e-10
  0.66448     21.1 1.145e+04 3.261e-10
  0.68456     19.4 1.053e+04 3.520e-10
  0.69906     17.2 1.052e+04 4.208e-10
  0.70910     20.2 9.961e+03 2.848e-10
  0.72470     18.2 9.677e+03 4.254e-10
  0.74478     16.6 9.730e+03 5.125e-10
  0.76485     14.8 1.128e+04 6.653e-10
  0.78238     14.2 1.127e+04 9.642e-10
  0.79241     16.2 1.125e+04 6.897e-10
  0.80500     15.1 1.105e+04 1.061e-09
  0.82507     14.8 1.204e+04 1.873e-09
  0.84514     13.4 1.517e+04 3.107e-09
  0.86522     11.9 1.917e+04 5.490e-09
  0.87573     10.2 2.118e+04 8.358e-09
  0.87666     14.1 1.804e+04 4.253e-09
  0.88622     12.2 2.030e+04 6.774e-09
  0.90536     10.1 2.106e+04 8.935e-09
  0.92544      7.7 1.964e+04 8.690e-09
  0.94551      6.1 1.788e+04 6.838e-09
  0.95905      5.5 1.665e+04 5.295e-09
  0.96908      8.3 1.677e+04 5.240e-09
  0.98566      7.9 1.592e+04 4.440e-09
  1.00573      7.6 1.495e+04 3.319e-09
  1.02580      7.5 1.411e+04 2.249e-09
  1.04236      7.2 1.334e+04 1.572e-09
  1.05240     10.0 1.401e+04 2.219e-09
  1.06595      9.5 1.350e+04 1.648e-09
  1.08603      8.4 1.323e+04 1.418e-09
  1.10610      7.0 1.328e+04 1.421e-09
  1.12568      5.6 1.373e+04 1.884e-09
  1.13572      6.8 1.426e+04 1.976e-09
  1.14625      5.7 1.447e+04 2.771e-09
  1.16632      5.8 1.491e+04 3.796e-09
  1.18639      6.9 1.533e+04 4.868e-09
  1.20647      8.0 1.565e+04 5.447e-09
  1.21903      9.0 1.571e+04 5.472e-09
  1.22907      9.4 1.529e+04 4.443e-09
  1.24661     10.1 1.498e+04 3.438e-09
  1.26669     10.2 1.450e+04 2.427e-09
  1.28676      9.6 1.399e+04 1.710e-09
  1.29911      8.9 1.350e+04 1.284e-09
  1.30466      8.7 1.401e+04 1.899e-09
  1.31239      8.1 1.305e+04 1.088e-09
  1.32691      8.0 1.270e+04 9.535e-10
  1.34698      8.5 1.242e+04 8.971e-10
  1.36705      8.9 1.217e+04 8.651e-10
  1.38567      9.3 1.200e+04 8.613e-10
  1.39570      8.8 1.067e+04 6.171e-10
  1.40720      9.3 1.080e+04 6.853e-10
  1.42727      9.8 1.096e+04 7.573e-10
  1.44735     10.4 1.110e+04 8.223e-10
  1.46742     10.9 1.121e+04 8.693e-10
  1.47902     11.5 1.126e+04 8.870e-10
  1.48906     12.2 1.111e+04 8.767e-10
  1.50757     13.0 1.106e+04 8.418e-10
  1.52764     13.8 1.093e+04 7.545e-10
  1.54771     14.5 1.080e+04 6.721e-10
  1.56234     14.9 1.082e+04 6.418e-10
  1.57237     15.6 1.056e+04 5.541e-10
  1.58786     15.8 1.049e+04 5.041e-10
  1.60793     15.8 1.063e+04 5.154e-10
  1.62801     15.5 1.107e+04 6.013e-10
  1.64565     14.9 1.177e+04 8.142e-10
  1.65569     15.7 1.124e+04 6.396e-10
  1.66815     14.8 1.209e+04 9.760e-10
  1.68823     14.1 1.294e+04 1.552e-09
  1.70830     13.9 1.365e+04 2.349e-09
  1.72204     14.1 1.423e+04 3.193e-09
  1.73208     13.7 1.405e+04 3.079e-09
  1.73901     14.1 1.437e+04 3.468e-09
  1.74904     14.7 1.439e+04 3.396e-09
  1.76852     14.7 1.451e+04 3.501e-09
  1.78860     14.2 1.438e+04 3.006e-09
  1.80867     13.1 1.382e+04 2.151e-09
  1.82232     11.6 1.295e+04 1.500e-09
  1.83236     12.2 1.295e+04 1.490e-09
  1.84882     11.5 1.212e+04 1.076e-09
  1.86889     11.4 1.155e+04 8.076e-10
  1.88896     11.5 1.112e+04 5.965e-10
  1.90564     11.5 1.065e+04 4.256e-10
  1.91568     12.1 1.068e+04 4.435e-10
  1.92911     12.0 1.036e+04 3.394e-10
  1.94918     12.2 1.032e+04 3.176e-10
  1.97939     12.9 1.042e+04 3.154e-10
  2.01964     13.6 1.032e+04 2.635e-10
  2.05978     14.4 1.001e+04 2.044e-10
  2.08250     15.1 9.713e+03 1.587e-10
  2.10258     16.7 9.807e+03 1.686e-10
  2.13513     17.3 9.499e+03 1.291e-10
  2.15520     16.8 9.452e+03 1.189e-10
  2.18022     17.3 9.303e+03 1.045e-10
  2.22037     18.0 9.222e+03 1.008e-10
  2.24914     19.1 9.206e+03 1.018e-10
  2.26921     20.7 9.195e+03 1.012e-10
  2.30066     21.9 9.203e+03 1.063e-10
  2.34081     23.2 9.217e+03 1.123e-10
  2.38096     24.5 9.222e+03 1.193e-10
  2.41577     26.0 9.207e+03 1.236e-10
  2.43584     27.5 9.211e+03 1.243e-10
  2.46125     29.0 9.168e+03 1.240e-10
  2.50140     30.7 9.112e+03 1.196e-10
  2.54155     32.3 9.106e+03 1.156e-10
  2.58169     33.7 9.210e+03 1.160e-10
  2.60248     34.4 9.450e+03 1.429e-10
  2.62255     36.0 9.509e+03 1.452e-10
  2.66199     36.6 9.687e+03 2.153e-10
  2.70213     38.0 1.010e+04 3.279e-10
  2.74228     39.1 1.048e+04 4.328e-10
  2.76911     39.8 1.085e+04 5.046e-10
  2.78918     41.3 1.086e+04 5.182e-10
  2.82257     40.9 1.112e+04 5.550e-10
  2.86272     40.3 1.128e+04 6.012e-10
  2.90287     39.8 1.136e+04 6.373e-10
  2.93574     39.4 1.157e+04 6.807e-10
  2.95572     40.7 1.144e+04 6.788e-10
  2.97293     37.8 1.214e+04 8.622e-10
  2.99083     34.4 1.370e+04 1.246e-09
  3.00086     32.9 1.519e+04 2.345e-09
  3.01308     29.2 1.655e+04 4.391e-09
  3.02890     27.0 1.707e+04 7.062e-09
  3.03894     28.0 1.745e+04 7.336e-09
  3.05322     26.6 1.761e+04 9.339e-09
  3.07330     25.5 1.711e+04 8.754e-09
  3.09337     24.8 1.638e+04 5.779e-09
  3.11222     22.5 1.507e+04 2.584e-09
  3.12226     23.5 1.559e+04 3.176e-09
  3.13352     19.2 1.318e+04 1.214e-09
  3.15359     15.7 1.125e+04 6.179e-10
  3.17366     14.7 1.067e+04 4.438e-10
  3.19374     14.0 1.043e+04 3.417e-10
  3.20557     13.2 1.030e+04 2.960e-10
  3.21561     13.8 1.035e+04 3.250e-10
  3.23388     13.4 1.031e+04 3.087e-10
  3.26409     12.8 1.034e+04 3.182e-10
  3.28908     12.6 1.025e+04 3.247e-10
  3.30916     13.1 1.044e+04 3.732e-10
  3.34448     13.1 1.044e+04 3.899e-10
  3.38463     13.4 1.026e+04 3.734e-10
  3.42478     14.1 1.000e+04 3.072e-10
  3.45572     14.6 9.659e+03 2.341e-10
  3.47579     15.0 9.873e+03 2.736e-10
  3.50507     15.7 9.449e+03 2.039e-10
  3.54522     16.5 9.163e+03 1.554e-10
  3.58536     17.5 9.042e+03 1.296e-10
  3.62235     18.6 8.964e+03 1.139e-10
  3.64242     18.9 8.964e+03 1.156e-10
  3.66566     20.1 8.893e+03 1.059e-10
  3.70581     21.5 8.823e+03 1.009e-10
  3.74595     22.9 8.754e+03 9.796e-11
  3.78610     24.3 8.679e+03 9.507e-11
  3.80906     25.8 8.598e+03 9.193e-11
  3.82913     26.2 8.660e+03 9.766e-11
  3.84692     27.7 8.596e+03 9.474e-11
  3.86699     27.8 8.508e+03 8.490e-11
  3.90654     29.5 8.467e+03 8.191e-11
  3.94669     31.2 8.455e+03 8.049e-11
  3.97569     32.8 8.463e+03 8.044e-11
  3.99576     33.0 8.587e+03 9.178e-11
  4.02698     34.3 8.672e+03 9.847e-11
  4.06713     35.4 8.750e+03 1.210e-10
  4.10727     36.8 8.868e+03 1.580e-10
  4.14232     38.4 9.021e+03 2.011e-10
  4.16240     38.2 9.230e+03 2.341e-10
  4.18757     39.8 9.334e+03 2.648e-10
  4.22771     41.3 9.361e+03 2.722e-10
  4.26786     42.9 9.238e+03 2.519e-10
  4.30801     44.7 9.043e+03 2.127e-10
  4.32903     46.6 8.884e+03 1.752e-10
  4.34910     45.6 8.956e+03 1.836e-10
  4.38830     47.3 8.870e+03 1.536e-10
  4.42845     48.6 8.876e+03 1.490e-10
  4.46860     49.7 9.192e+03 1.895e-10
  4.49566     50.6 9.731e+03 2.741e-10
  4.50560     49.7 9.865e+03 2.997e-10
  4.51858     49.6 9.952e+03 3.118e-10
  4.53866     49.3 1.030e+04 4.919e-10
  4.55873     49.3 1.088e+04 6.889e-10
  4.57879     49.6 1.158e+04 1.106e-09
  4.59886     49.5 1.220e+04 1.370e-09
  4.62909     50.2 1.248e+04 1.460e-09
  4.66230     50.0 1.261e+04 1.494e-09
  4.68237     46.4 1.223e+04 1.081e-09
  4.69278     45.3 1.160e+04 7.520e-10
  4.71285     45.2 1.123e+04 6.653e-10
  4.74962     44.0 1.060e+04 4.614e-10
  4.78977     43.2 9.956e+03 3.629e-10
  4.82893     43.4 9.500e+03 3.142e-10
  4.84900     41.0 8.961e+03 2.282e-10
  4.87007     41.8 8.947e+03 1.897e-10
  4.91021     42.3 8.862e+03 1.767e-10
  4.95036     43.4 8.761e+03 1.784e-10
  4.99051     44.7 8.795e+03 1.863e-10
  5.01564     45.9 8.868e+03 1.955e-10
  5.03571     43.8 8.940e+03 2.044e-10
  5.07080     44.9 9.127e+03 2.313e-10
  5.11095     46.2 9.291e+03 2.579e-10
  5.14096     48.0 9.385e+03 2.855e-10
  5.16093     48.2 9.522e+03 3.074e-10
  5.18101     48.9 9.617e+03 3.664e-10
  5.19211     49.6 9.956e+03 4.571e-10
  5.20215     48.0 1.055e+04 6.637e-10
  5.22116     47.6 1.164e+04 9.899e-10
  5.24123     45.9 1.371e+04 1.717e-09
  5.26130     43.2 1.606e+04 3.428e-09
  5.27543     40.7 1.775e+04 6.795e-09
  5.28547     38.1 1.829e+04 1.021e-08
  5.30145     37.1 1.895e+04 1.292e-08
  5.32152     35.9 1.932e+04 1.425e-08
  5.34160     33.9 1.955e+04 1.289e-08
  5.35875     31.1 1.909e+04 8.803e-09
  5.36878     27.4 1.813e+04 6.615e-09
  5.38174     23.8 1.641e+04 5.065e-09
  5.40182     22.1 1.570e+04 4.744e-09
  5.42189     21.8 1.567e+04 4.858e-09
  5.44196     21.6 1.571e+04 4.936e-09
  5.45210     21.1 1.572e+04 4.876e-09
  5.46214     20.4 1.613e+04 5.474e-09
  5.48211     20.0 1.603e+04 5.181e-09
  5.50218     19.7 1.596e+04 4.997e-09
  5.52226     19.3 1.598e+04 4.931e-09
  5.53542     18.8 1.637e+04 5.125e-09
  5.54156     17.7 1.649e+04 5.173e-09
  5.54848     19.5 1.549e+04 4.720e-09
  5.56240     18.7 1.621e+04 5.366e-09
  5.58248     17.5 1.721e+04 6.615e-09
  5.60255     16.4 1.813e+04 8.057e-09
  5.61873     15.6 1.852e+04 9.164e-09
  5.62877     14.6 1.826e+04 8.727e-09
  5.64270     13.8 1.798e+04 8.581e-09
  5.66277     13.2 1.718e+04 7.237e-09
  5.68284     12.6 1.619e+04 5.533e-09
  5.70205     12.3 1.524e+04 4.102e-09
  5.71209     11.8 1.499e+04 3.806e-09
  5.72299     12.2 1.416e+04 2.753e-09
  5.74306     12.6 1.338e+04 1.985e-09
  5.76314     13.1 1.289e+04 1.541e-09
  5.79335     13.6 1.232e+04 1.168e-09
  5.83359     15.6 1.118e+04 6.996e-10
  5.86888     17.4 1.045e+04 4.726e-10
  5.88895     17.3 1.014e+04 3.815e-10
  5.91388     19.5 9.931e+03 3.423e-10
  5.95403     22.0 9.876e+03 3.346e-10
  5.99418     24.4 9.918e+03 3.551e-10
  6.03433     27.0 1.010e+04 4.196e-10
  6.05558     29.6 1.035e+04 5.111e-10
  6.07566     30.0 1.031e+04 5.006e-10
  6.11462     32.5 1.082e+04 6.518e-10
  6.13880     33.3 1.096e+04 7.508e-10
  6.14874     33.5 1.093e+04 7.328e-10
  6.16461     35.1 1.143e+04 9.376e-10
  6.18468     36.9 1.181e+04 1.206e-09
  6.20475     38.6 1.206e+04 1.413e-09
  6.22202     40.4 1.278e+04 1.945e-09
  6.23206     40.2 1.276e+04 1.950e-09
  6.24490     40.9 1.453e+04 2.783e-09
  6.26497     39.1 1.754e+04 5.445e-09
  6.28505     35.7 2.063e+04 1.171e-08
  6.30005     33.1 2.220e+04 2.397e-08
  6.31004     32.7 2.174e+04 4.665e-08
  6.31528     33.6 2.146e+04 8.894e-08
  6.32030     33.6 2.139e+04 7.523e-08
  6.33012     34.9 2.142e+04 1.200e-07
  6.34015     35.8 2.145e+04 1.445e-07
  6.35019     36.9 2.131e+04 1.072e-07
  6.35694     38.4 2.123e+04 5.622e-08
  6.36195     38.4 2.079e+04 4.558e-08
  6.37026     39.3 2.111e+04 2.739e-08
  6.38425     38.0 2.177e+04 1.090e-08
  6.39429     38.9 2.182e+04 1.044e-08
  6.39864     37.1 2.006e+04 5.581e-09
  6.40873     38.4 1.958e+04 5.552e-09
  6.42556     33.9 1.680e+04 2.320e-09
  6.44564     28.8 1.334e+04 1.329e-09
  6.46571     26.8 1.277e+04 1.238e-09
  6.48201     25.4 1.267e+04 1.564e-09
  6.49204     27.6 1.292e+04 1.659e-09
  6.50586     27.2 1.352e+04 2.153e-09
  6.52593     25.9 1.421e+04 2.615e-09
  6.54094     23.7 1.474e+04 2.809e-09
  6.55092     22.8 1.504e+04 2.872e-09
  6.56096     19.2 1.545e+04 2.703e-09
  6.57025     17.5 1.630e+04 2.806e-09
  6.57526     13.4 2.114e+04 4.343e-09
  6.58103      3.8 2.456e+04 6.824e-09
  6.59107     -4.6 2.674e+04 1.645e-08
  6.60068    -12.4 2.696e+04 3.382e-08
  6.60570    -15.7 2.692e+04 4.803e-08
  6.61114    -19.7 2.645e+04 7.277e-08
  6.61692    -22.6 2.532e+04 8.921e-08
  6.62194    -27.5 2.446e+04 9.786e-08
  6.63122    -28.2 2.402e+04 8.786e-08
  6.64125    -28.7 2.360e+04 7.942e-08
  6.65129    -29.2 2.350e+04 7.128e-08
  6.65858    -29.8 2.365e+04 6.568e-08
  6.66360    -31.4 2.641e+04 2.900e-08
  6.67136    -31.8 2.781e+04 2.327e-08
  6.68140    -32.0 2.950e+04 1.942e-08
  6.69144    -32.0 3.075e+04 1.763e-08
  6.70024    -31.9 3.271e+04 1.456e-08
  6.70526    -34.7 4.397e+04 2.582e-09
  6.71151    -35.1 4.439e+04 2.359e-09
  6.72662    -34.0 3.949e+04 4.524e-09
  6.74199    -37.4 3.585e+04 1.642e-09
  6.75203    -48.4 1.771e+04 7.821e-10
  6.76681    -49.6 1.141e+04 8.075e-10
  6.78688    -48.4 1.081e+04 6.754e-10
  6.80696    -46.9 1.051e+04 5.568e-10
  6.81726    -45.7 1.035e+04 4.628e-10
  6.82558    -45.1 1.033e+04 4.312e-10
  6.83535    -45.3 1.034e+04 4.009e-10
  6.84710    -44.7 1.033e+04 3.805e-10
  6.87731    -43.2 1.034e+04 3.550e-10
  6.90882    -41.0 1.037e+04 3.387e-10
  6.92890    -42.5 9.998e+03 2.477e-10
  6.95770    -40.9 1.015e+04 2.620e-10
  6.99785    -39.9 1.040e+04 3.250e-10
  7.02786    -39.1 1.048e+04 3.624e-10
  7.04784    -39.0 1.053e+04 3.911e-10
  7.06791    -38.9 1.074e+04 4.730e-10
  7.08530    -38.7 1.114e+04 5.892e-10
  7.09533    -40.0 1.103e+04 4.850e-10
  7.10806    -40.6 1.157e+04 6.699e-10
  7.12813    -41.1 1.205e+04 9.369e-10
  7.14821    -41.5 1.244e+04 1.234e-09
  7.16828    -41.7 1.278e+04 1.516e-09
  7.17865    -41.9 1.309e+04 1.733e-09
  7.18869    -43.1 1.296e+04 1.656e-09
  7.20843    -44.4 1.362e+04 1.803e-09
  7.22850    -47.0 1.428e+04 2.015e-09
  7.24019    -49.9 1.474e+04 2.316e-09
  7.25023    -48.1 1.442e+04 2.021e-09
  7.26197    -50.6 1.466e+04 2.394e-09
  7.27200    -53.5 1.469e+04 2.542e-09
  7.28872    -54.7 1.461e+04 2.724e-09
  7.30879    -55.3 1.446e+04 2.697e-09
  7.32887    -55.8 1.410e+04 2.152e-09
  7.34528    -57.0 1.355e+04 1.435e-09
  7.35532    -59.7 1.335e+04 1.258e-09
  7.36901    -61.8 1.257e+04 8.476e-10
  7.38909    -63.8 1.197e+04 6.696e-10
  7.40916    -65.1 1.182e+04 6.206e-10
  7.42860    -66.0 1.185e+04 6.175e-10
  7.43864    -68.7 1.252e+04 8.477e-10
  7.44931    -70.1 1.280e+04 1.020e-09
  7.46938    -71.4 1.317e+04 1.332e-09
  7.48945    -73.0 1.403e+04 1.859e-09
  7.50953    -75.2 1.552e+04 2.840e-09
  7.52195    -78.2 1.764e+04 4.653e-09
  7.53199    -84.4 2.174e+04 1.426e-08
  7.54968    -86.7 2.232e+04 2.058e-08
  7.56356    -87.6 2.216e+04 2.157e-08
  7.56853    -89.1 2.236e+04 2.565e-08
  7.57467    -89.9 2.238e+04 2.655e-08
  7.58471    -91.3 2.241e+04 2.697e-08
  7.59474    -92.6 2.214e+04 2.564e-08
  7.60478    -93.6 2.195e+04 2.409e-08
  7.61019    -94.3 2.184e+04 2.285e-08
  7.61526    -97.2 2.178e+04 2.123e-08
  7.62997    -99.6 2.129e+04 1.844e-08
  7.65004   -102.0 2.032e+04 1.543e-08
  7.66312   -104.5 1.892e+04 1.238e-08
  7.67316   -104.7 1.887e+04 1.232e-08
  7.68859   -106.1 1.745e+04 1.010e-08
  7.69862   -107.5 1.808e+04 9.663e-09
  7.71026   -107.9 1.760e+04 8.446e-09
  7.73034   -108.3 1.695e+04 7.173e-09
  7.75041   -108.9 1.616e+04 6.096e-09
  7.77048   -109.2 1.542e+04 5.312e-09
  7.78194   -109.3 1.485e+04 4.758e-09
  7.79198   -109.9 1.526e+04 4.046e-09
  7.81063   -110.0 1.502e+04 3.914e-09
  7.83070   -110.2 1.480e+04 3.689e-09
  7.85078   -110.4 1.449e+04 3.358e-09
  7.86526   -110.7 1.411e+04 2.966e-09
  7.87529   -111.8 1.403e+04 3.002e-09
  7.89092   -112.3 1.390e+04 3.026e-09
  7.91100   -112.7 1.388e+04 2.933e-09
  7.93107   -113.3 1.382e+04 2.777e-09
  7.94857   -114.2 1.371e+04 2.580e-09
  7.95861   -114.5 1.490e+04 3.283e-09
  7.97122   -115.2 1.502e+04 3.138e-09
  7.99129   -116.0 1.482e+04 2.868e-09
  8.01136   -117.2 1.441e+04 2.628e-09
  8.03144   -118.6 1.394e+04 2.440e-09
  8.04193   -120.2 1.361e+04 2.302e-09
  8.05196   -120.6 1.491e+04 2.563e-09
  8.07158   -122.8 1.461e+04 2.355e-09
  8.08605   -125.0 1.445e+04 2.168e-09
  8.09609   -126.7 1.562e+04 2.366e-09
  8.11173   -129.4 1.555e+04 2.197e-09
  8.12524   -131.7 1.526e+04 2.074e-09
  8.13528   -134.6 1.697e+04 3.497e-09
  8.15188   -136.1 1.577e+04 3.032e-09
  8.17195   -137.0 1.481e+04 2.620e-09
  8.19203   -137.6 1.410e+04 2.263e-09
  8.20856   -137.9 1.358e+04 1.950e-09
  8.21860   -138.9 1.380e+04 2.165e-09
  8.23217   -139.1 1.357e+04 1.835e-09
  8.25225   -139.3 1.332e+04 1.580e-09
  8.27232   -139.5 1.305e+04 1.375e-09
  8.29188   -139.7 1.277e+04 1.178e-09
  8.30191   -141.4 1.260e+04 1.107e-09
  8.31247   -141.4 1.226e+04 9.123e-10
  8.33254   -141.4 1.197e+04 7.439e-10
  8.35261   -141.5 1.173e+04 6.049e-10
  8.37269   -141.6 1.158e+04 5.017e-10
  8.38523   -141.8 1.160e+04 4.468e-10
  8.39527   -143.5 1.188e+04 5.957e-10
  8.41283   -143.9 1.187e+04 5.930e-10
  8.43291   -144.4 1.189e+04 6.111e-10
  8.45298   -145.1 1.206e+04 7.283e-10
  8.46855   -145.6 1.229e+04 9.343e-10
  8.47858   -146.4 1.250e+04 1.208e-09
  8.49313   -146.6 1.277e+04 1.402e-09
  8.50898   -146.8 1.305e+04 1.595e-09
  8.51902   -147.3 1.317e+04 1.707e-09
  8.53327   -147.7 1.340e+04 1.752e-09
  8.55186   -148.6 1.349e+04 1.736e-09
  8.56190   -149.3 1.287e+04 1.154e-09
  8.57342   -150.4 1.285e+04 9.970e-10
  8.59349   -151.5 1.277e+04 8.559e-10
  8.61357   -152.4 1.254e+04 7.403e-10
  8.63364   -152.9 1.221e+04 6.276e-10
  8.64522   -153.1 1.185e+04 5.074e-10
  8.65525   -153.6 1.120e+04 3.059e-10
  8.68392   -153.9 1.095e+04 2.391e-10
  8.72417   -154.1 1.071e+04 1.860e-10
  8.76431   -153.7 1.038e+04 1.342e-10
  8.80201   -152.9 1.010e+04 1.071e-10
  8.82208   -152.6 9.785e+03 5.742e-11
  8.84461   -151.4 9.782e+03 5.618e-11
  8.88475   -149.9 9.791e+03 5.645e-11
  8.92207   -148.3 9.794e+03 6.020e-11
  8.94214   -149.3 9.912e+03 9.575e-11
  8.96505   -147.6 9.885e+03 9.506e-11
  8.98872   -145.8 9.888e+03 9.903e-11
  9.00879   -145.7 9.884e+03 8.915e-11
  9.04534   -144.0 9.964e+03 1.108e-10
  9.08549   -142.2 1.013e+04 1.417e-10
  9.12564   -140.7 1.035e+04 1.818e-10
  9.15535   -139.8 1.060e+04 2.322e-10
  9.17542   -140.6 1.110e+04 4.288e-10
  9.20593   -140.4 1.139e+04 5.668e-10
  9.24608   -140.4 1.171e+04 7.231e-10
  9.28622   -141.1 1.219e+04 9.258e-10
  9.32198   -143.2 1.264e+04 1.152e-09
  9.34206   -141.9 1.222e+04 1.006e-09
  9.36652   -144.4 1.241e+04 1.017e-09
  9.40666   -147.5 1.260e+04 1.056e-09
  9.43668   -151.0 1.318e+04 1.253e-09
