# Columns:
#   distance along LOS (in CHIMPs)
#   peculiar velocity  (in km/s)
#   temperature (K)
#   HI number density
# pos=(63.1329,205.01,245.335), angles=(1.33602,4.7771)
  0.00103     92.2 1.006e+04 2.285e-10
  0.02218     94.5 1.022e+04 2.516e-10
  0.06243     96.6 1.048e+04 3.053e-10
  0.09676     98.3 1.091e+04 4.121e-10
  0.11688     99.6 1.086e+04 3.845e-10
  0.14292    101.1 1.129e+04 5.069e-10
  0.18317    102.0 1.160e+04 6.069e-10
  0.22342    102.2 1.164e+04 6.351e-10
  0.26122    102.2 1.158e+04 6.423e-10
  0.28134    103.6 1.162e+04 7.522e-10
  0.28750    103.7 1.152e+04 7.574e-10
  0.30762    103.8 1.096e+04 5.518e-10
  0.34417    104.2 1.101e+04 5.760e-10
  0.38442    105.0 1.109e+04 5.915e-10
  0.42466    105.9 1.115e+04 5.954e-10
  0.44580    106.9 1.116e+04 5.825e-10
  0.46592    107.2 1.082e+04 4.345e-10
  0.50516    108.3 1.080e+04 4.197e-10
  0.54541    109.5 1.071e+04 4.041e-10
  0.58566    111.0 1.058e+04 3.854e-10
  0.61025    112.7 1.043e+04 3.708e-10
  0.63038    113.3 1.034e+04 3.797e-10
  0.66616    115.2 1.031e+04 3.804e-10
  0.70640    117.2 1.035e+04 3.943e-10
  0.74665    119.1 1.046e+04 4.210e-10
  0.77461    120.0 1.046e+04 4.290e-10
  0.79474    121.3 1.052e+04 4.156e-10
  0.81699    121.9 1.065e+04 4.734e-10
  0.83702    122.6 1.083e+04 5.604e-10
  0.85675    123.3 1.103e+04 6.610e-10
  0.86681    123.5 1.092e+04 6.322e-10
  0.87727    124.1 1.115e+04 7.522e-10
  0.89739    124.8 1.136e+04 8.815e-10
  0.90976    125.6 1.153e+04 1.006e-09
  0.91983    125.7 1.152e+04 9.980e-10
  0.93764    126.6 1.169e+04 1.127e-09
  0.94904    127.4 1.184e+04 1.222e-09
  0.95910    127.4 1.178e+04 1.037e-09
  0.97789    128.1 1.184e+04 1.035e-09
  0.99801    128.7 1.183e+04 1.026e-09
  1.01814    129.3 1.182e+04 9.944e-10
  1.03126    129.8 1.185e+04 9.757e-10
  1.04133    129.5 1.163e+04 8.657e-10
  1.05838    129.9 1.169e+04 8.803e-10
  1.07851    130.3 1.182e+04 9.281e-10
  1.09863    130.7 1.200e+04 1.022e-09
  1.11349    131.2 1.221e+04 1.162e-09
  1.12356    130.8 1.207e+04 1.075e-09
  1.13888    131.5 1.234e+04 1.230e-09
  1.15901    132.3 1.267e+04 1.414e-09
  1.17913    133.1 1.304e+04 1.600e-09
  1.19572    133.8 1.340e+04 1.730e-09
  1.20578    133.2 1.285e+04 1.352e-09
  1.21596    133.5 1.286e+04 1.340e-09
  1.22603    133.1 1.268e+04 1.127e-09
  1.23950    133.3 1.268e+04 1.094e-09
  1.25963    133.4 1.262e+04 1.026e-09
  1.27795    133.5 1.251e+04 9.446e-10
  1.28801    133.2 1.160e+04 9.314e-10
  1.29988    133.4 1.141e+04 8.686e-10
  1.32000    133.8 1.122e+04 8.002e-10
  1.34012    134.1 1.104e+04 7.364e-10
  1.36018    134.4 1.089e+04 6.885e-10
  1.38030    135.1 1.097e+04 6.107e-10
  1.40050    135.3 1.092e+04 5.773e-10
  1.42062    135.5 1.085e+04 5.615e-10
  1.44075    135.7 1.083e+04 5.612e-10
  1.45247    135.9 1.084e+04 5.644e-10
  1.46253    135.9 1.120e+04 5.057e-10
  1.48099    136.0 1.122e+04 5.278e-10
  1.50112    136.1 1.130e+04 5.777e-10
  1.52124    136.1 1.146e+04 6.577e-10
  1.53223    136.2 1.173e+04 7.755e-10
  1.53562    135.4 1.250e+04 1.215e-09
  1.54476    135.4 1.273e+04 1.590e-09
  1.56149    135.5 1.315e+04 1.933e-09
  1.58162    135.4 1.365e+04 2.327e-09
  1.60174    135.1 1.443e+04 2.884e-09
  1.61693    134.3 1.561e+04 3.865e-09
  1.62699    134.3 1.582e+04 4.463e-09
  1.64199    132.8 1.686e+04 6.088e-09
  1.66211    131.8 1.747e+04 7.528e-09
  1.67716    131.0 1.775e+04 7.933e-09
  1.68523    130.2 1.803e+04 8.521e-09
  1.69026    130.0 1.846e+04 1.090e-08
  1.69723    129.1 1.883e+04 1.236e-08
  1.70409    128.4 1.914e+04 1.403e-08
  1.70912    128.1 1.921e+04 1.386e-08
  1.71736    127.4 1.966e+04 1.551e-08
  1.72742    126.5 2.010e+04 1.661e-08
  1.73748    125.4 2.054e+04 1.658e-08
  1.74520    124.1 2.065e+04 1.629e-08
  1.75023    123.0 2.160e+04 1.739e-08
  1.75761    121.1 2.181e+04 1.683e-08
  1.76767    119.1 2.209e+04 1.512e-08
  1.77773    117.0 2.185e+04 1.279e-08
  1.78632    115.1 2.112e+04 1.052e-08
  1.79135    113.3 2.123e+04 1.217e-08
  1.80293    111.5 2.045e+04 1.061e-08
  1.82311    110.1 1.934e+04 8.626e-09
  1.83843    109.4 1.825e+04 6.622e-09
  1.84849    109.0 1.993e+04 1.069e-08
  1.86336    108.4 1.928e+04 8.458e-09
  1.87367    108.1 1.929e+04 7.324e-09
  1.88374    105.2 1.841e+04 7.525e-09
  1.90361    105.7 1.849e+04 7.644e-09
  1.91474    106.4 1.850e+04 6.760e-09
  1.91972    105.7 1.857e+04 7.401e-09
  1.92866    105.7 1.861e+04 7.316e-09
  1.93873    105.8 1.875e+04 7.636e-09
  1.94879    105.8 1.907e+04 8.483e-09
  1.95581    105.5 1.955e+04 9.982e-09
  1.96084    104.4 1.912e+04 1.253e-08
  1.96891    104.0 1.982e+04 1.540e-08
  1.97897    103.3 2.084e+04 2.075e-08
  1.98904    102.6 2.194e+04 3.198e-08
  1.99646    101.8 2.265e+04 5.359e-08
  1.99931    102.6 2.240e+04 9.920e-08
  2.00195    101.6 2.216e+04 9.397e-08
  2.00916    101.5 2.219e+04 1.650e-07
  2.01922    101.2 2.221e+04 2.687e-07
  2.02928     99.8 2.251e+04 3.228e-07
  2.03803     97.9 2.250e+04 3.010e-07
  2.04306     98.1 2.263e+04 3.511e-07
  2.04941     97.5 2.273e+04 2.732e-07
  2.05947     98.0 2.289e+04 1.566e-07
  2.06953     98.9 2.359e+04 7.543e-08
  2.07915     98.6 2.441e+04 3.661e-08
  2.08418     99.0 2.436e+04 4.492e-08
  2.08966     98.2 2.689e+04 2.021e-08
  2.09972     92.4 3.218e+04 1.921e-08
  2.10978     68.7 5.121e+04 2.773e-08
  2.11984     46.8 4.701e+04 7.721e-08
  2.12529     34.8 4.591e+04 8.678e-08
  2.13032     34.7 3.741e+04 2.125e-07
  2.13997     30.9 4.593e+04 8.089e-08
  2.14956     22.8 6.016e+04 1.450e-08
  2.15459     17.1 3.897e+04 3.025e-08
  2.16009     10.7 4.820e+04 5.982e-09
  2.16641    -12.0 4.838e+04 2.152e-09
  2.17144     -6.2 5.509e+04 2.447e-09
  2.18530    -34.8 1.779e+04 2.734e-09
  2.20259    -36.0 1.630e+04 2.834e-09
  2.21265    -33.9 1.642e+04 3.514e-09
  2.22559    -32.7 1.644e+04 3.643e-09
  2.24572    -31.3 1.665e+04 3.828e-09
  2.26584    -29.8 1.683e+04 4.063e-09
  2.28482    -28.0 1.692e+04 4.255e-09
  2.29488    -26.2 1.706e+04 5.058e-09
  2.30609    -24.8 1.702e+04 5.104e-09
  2.32622    -23.2 1.675e+04 4.884e-09
  2.34634    -21.7 1.650e+04 4.420e-09
  2.36646    -20.5 1.613e+04 3.881e-09
  2.37711    -19.4 1.553e+04 3.408e-09
  2.38717    -17.9 1.591e+04 4.084e-09
  2.40671    -17.0 1.528e+04 3.524e-09
  2.42684    -15.9 1.467e+04 3.018e-09
  2.44696    -14.5 1.428e+04 2.651e-09
  2.45934    -13.3 1.375e+04 2.254e-09
  2.46320    -12.2 1.412e+04 2.534e-09
  2.47095    -13.4 1.356e+04 1.925e-09
  2.48721    -11.9 1.316e+04 1.615e-09
  2.50733    -11.2 1.294e+04 1.444e-09
  2.52746    -10.1 1.259e+04 1.255e-09
  2.55774     -7.3 1.263e+04 1.287e-09
  2.59809     -5.2 1.235e+04 1.001e-09
  2.62399     -3.5 1.183e+04 6.321e-10
  2.64411     -2.4 1.163e+04 6.159e-10
  2.67859     -1.9 1.082e+04 4.643e-10
  2.70612     -4.1 9.961e+03 3.930e-10
  2.71608     -3.5 1.015e+04 4.193e-10
  2.72870     -2.1 1.015e+04 4.173e-10
  2.74883     -1.6 1.016e+04 4.014e-10
  2.76709     -1.2 1.018e+04 4.002e-10
  2.77715     -2.1 1.034e+04 4.742e-10
  2.78825     -2.3 1.040e+04 4.642e-10
  2.79831     -2.6 1.017e+04 4.496e-10
  2.80920     -3.9 1.160e+04 5.540e-10
  2.82932     -9.9 1.422e+04 1.284e-09
  2.84945    -13.3 1.446e+04 2.810e-09
  2.86957    -14.0 1.454e+04 4.585e-09
  2.88054    -12.8 1.513e+04 5.721e-09
  2.89060    -12.2 1.485e+04 5.060e-09
  2.90982    -10.9 1.527e+04 5.379e-09
  2.92994    -10.6 1.490e+04 3.801e-09
  2.95007    -14.7 1.345e+04 1.860e-09
  2.96277    -19.4 1.134e+04 1.005e-09
  2.97283    -17.7 1.151e+04 1.107e-09
  2.99032    -19.4 1.070e+04 8.500e-10
  3.01044    -20.4 1.047e+04 7.541e-10
  3.03057    -20.7 1.049e+04 7.375e-10
  3.04500    -21.0 1.070e+04 7.497e-10
  3.05506    -20.3 1.066e+04 8.045e-10
  3.07081    -20.9 1.089e+04 8.457e-10
  3.08335    -21.6 1.097e+04 8.606e-10
  3.09342    -23.2 1.086e+04 8.612e-10
  3.11106    -23.4 1.050e+04 8.122e-10
  3.12723    -23.4 1.016e+04 7.475e-10
  3.13729    -22.5 1.067e+04 8.828e-10
  3.15131    -22.6 1.052e+04 8.175e-10
  3.17144    -22.7 1.046e+04 7.599e-10
  3.19156    -23.1 1.044e+04 7.137e-10
  3.20946    -23.0 1.029e+04 6.434e-10
  3.21952    -22.6 1.003e+04 6.336e-10
  3.23181    -22.6 9.820e+03 5.299e-10
  3.25193    -22.4 9.906e+03 4.968e-10
  3.28172    -23.6 9.964e+03 4.608e-10
  3.30184    -24.4 1.036e+04 6.098e-10
  3.31231    -25.5 1.060e+04 6.491e-10
  3.33243    -26.5 1.090e+04 7.178e-10
  3.35256    -28.1 1.123e+04 8.695e-10
  3.37268    -29.1 1.153e+04 1.007e-09
  3.38397    -30.1 1.182e+04 1.185e-09
  3.39079    -30.0 1.175e+04 1.123e-09
  3.39962    -30.9 1.168e+04 1.126e-09
  3.41293    -32.0 1.171e+04 1.150e-09
  3.43305    -33.2 1.165e+04 1.126e-09
  3.45318    -34.4 1.136e+04 9.684e-10
  3.46620    -35.9 1.103e+04 7.922e-10
  3.47627    -35.9 1.089e+04 7.822e-10
  3.49343    -37.3 1.053e+04 6.484e-10
  3.51355    -38.3 1.019e+04 5.465e-10
  3.53367    -39.0 9.923e+03 4.708e-10
  3.54843    -39.2 9.721e+03 4.156e-10
  3.55849    -39.2 9.784e+03 4.327e-10
  3.57392    -39.3 9.726e+03 4.040e-10
  3.60421    -39.9 9.729e+03 3.811e-10
  3.63086    -40.3 9.471e+03 3.220e-10
  3.65098    -40.2 9.815e+03 4.420e-10
  3.68480    -40.4 9.465e+03 3.799e-10
  3.72505    -39.4 9.176e+03 3.179e-10
  3.76530    -38.5 8.990e+03 2.742e-10
  3.79531    -37.5 8.871e+03 2.453e-10
  3.81544    -37.0 9.054e+03 2.740e-10
  3.84580    -36.1 8.919e+03 2.360e-10
  3.88604    -35.5 8.923e+03 2.283e-10
  3.92629    -35.4 9.134e+03 2.428e-10
  3.95977    -35.8 9.590e+03 3.437e-10
  3.97989    -36.0 9.812e+03 3.835e-10
  4.00215    -36.1 1.037e+04 6.123e-10
  4.02228    -36.1 1.039e+04 6.227e-10
  4.04704    -35.5 1.084e+04 8.507e-10
  4.08729    -35.2 1.118e+04 9.598e-10
  4.12423    -35.8 1.141e+04 9.855e-10
  4.14435    -36.8 1.176e+04 1.075e-09
  4.16778    -39.2 1.221e+04 1.230e-09
  4.19787    -40.9 1.205e+04 1.241e-09
  4.21632    -41.3 1.236e+04 1.382e-09
  4.22638    -41.8 1.255e+04 1.618e-09
  4.23802    -42.8 1.267e+04 1.891e-09
  4.25815    -43.2 1.289e+04 2.133e-09
  4.27827    -43.7 1.305e+04 2.303e-09
  4.29840    -44.1 1.320e+04 2.398e-09
  4.30861    -44.6 1.337e+04 2.430e-09
  4.31837    -45.0 1.357e+04 2.402e-09
  4.32828    -45.2 1.418e+04 3.106e-09
  4.33865    -45.9 1.395e+04 2.637e-09
  4.35877    -46.9 1.358e+04 2.204e-09
  4.37889    -47.8 1.317e+04 1.862e-09
  4.39084    -48.6 1.275e+04 1.597e-09
  4.40090    -49.5 1.203e+04 1.195e-09
  4.41914    -49.9 1.172e+04 1.061e-09
  4.43927    -50.1 1.152e+04 9.811e-10
  4.45939    -50.3 1.145e+04 9.525e-10
  4.47307    -50.3 1.145e+04 9.494e-10
  4.48313    -50.7 1.125e+04 7.765e-10
  4.49964    -50.8 1.139e+04 8.363e-10
  4.51976    -50.7 1.163e+04 9.275e-10
  4.53989    -50.6 1.190e+04 1.035e-09
  4.55530    -50.5 1.215e+04 1.140e-09
  4.56536    -50.7 1.193e+04 1.026e-09
  4.58014    -50.6 1.224e+04 1.177e-09
  4.61042    -50.7 1.248e+04 1.294e-09
  4.63468    -50.5 1.251e+04 1.291e-09
  4.64176    -52.7 1.195e+04 9.128e-10
  4.65785    -53.7 1.114e+04 7.558e-10
  4.69102    -52.7 1.052e+04 5.797e-10
  4.73127    -51.8 9.832e+03 3.539e-10
  4.77151    -51.7 9.761e+03 2.703e-10
  4.80218    -52.3 1.028e+04 2.725e-10
  4.82230    -53.4 1.188e+04 3.874e-10
  4.84185    -52.7 1.146e+04 4.000e-10
  4.86188    -53.1 1.195e+04 6.554e-10
  4.88200    -53.2 1.260e+04 1.079e-09
  4.89427    -53.1 1.369e+04 1.746e-09
  4.90434    -52.9 1.434e+04 1.901e-09
  4.92225    -53.2 1.571e+04 2.988e-09
  4.94068    -53.8 1.706e+04 4.510e-09
  4.95074    -56.6 1.848e+04 6.481e-09
  4.96250    -57.9 1.961e+04 8.917e-09
  4.97650    -60.1 2.075e+04 1.223e-08
  4.98657    -61.4 2.161e+04 1.599e-08
  4.99767    -62.8 2.194e+04 2.034e-08
  5.00768    -64.4 2.209e+04 2.418e-08
  5.01752    -65.7 2.214e+04 2.886e-08
  5.02255    -66.5 2.246e+04 3.196e-08
  5.02781    -67.7 2.292e+04 3.880e-08
  5.03787    -69.0 2.352e+04 4.523e-08
  5.04793    -70.8 2.378e+04 4.723e-08
  5.05799    -72.7 2.355e+04 4.459e-08
  5.06367    -73.7 2.306e+04 3.541e-08
  5.06870    -75.1 2.316e+04 2.745e-08
  5.07812    -76.2 2.288e+04 2.138e-08
  5.08818    -77.7 2.254e+04 1.642e-08
  5.09824    -79.6 2.193e+04 1.227e-08
  5.10375    -82.2 2.086e+04 8.901e-09
  5.10525    -83.1 1.959e+04 8.082e-09
  5.10981    -84.7 1.786e+04 6.560e-09
  5.11837    -87.2 1.714e+04 5.171e-09
  5.12843    -89.5 1.676e+04 4.384e-09
  5.13849    -92.2 1.623e+04 3.642e-09
  5.14589    -93.6 1.612e+04 3.455e-09
  5.15097    -94.3 1.534e+04 3.217e-09
  5.16374    -97.5 1.505e+04 3.077e-09
  5.18387    -99.1 1.497e+04 3.101e-09
  5.20399   -100.0 1.488e+04 3.359e-09
  5.22319   -100.2 1.484e+04 3.449e-09
  5.23325    -99.8 1.527e+04 3.956e-09
  5.24424    -99.7 1.514e+04 3.955e-09
  5.25694    -99.2 1.464e+04 3.583e-09
  5.26701    -98.1 1.523e+04 4.132e-09
  5.28449    -97.5 1.454e+04 3.479e-09
  5.30461    -96.6 1.374e+04 2.769e-09
  5.31548    -95.6 1.300e+04 2.179e-09
  5.32554    -95.1 1.344e+04 2.374e-09
  5.34486    -94.0 1.277e+04 1.870e-09
  5.36499    -92.9 1.219e+04 1.487e-09
  5.38511    -91.8 1.169e+04 1.191e-09
  5.39771    -90.6 1.124e+04 9.603e-10
  5.40777    -90.4 1.146e+04 9.822e-10
  5.42536    -89.2 1.107e+04 7.967e-10
  5.44548    -88.1 1.074e+04 6.552e-10
  5.46561    -87.1 1.047e+04 5.477e-10
  5.47994    -86.1 1.021e+04 4.696e-10
  5.49000    -86.2 1.012e+04 4.358e-10
  5.50586    -85.2 9.834e+03 3.754e-10
  5.52598    -84.3 9.636e+03 3.379e-10
  5.54610    -83.4 9.516e+03 3.148e-10
  5.56217    -82.5 9.456e+03 3.026e-10
  5.56914    -82.6 9.454e+03 2.943e-10
  5.57321    -82.2 9.842e+03 3.412e-10
  5.58635    -81.4 9.618e+03 3.111e-10
  5.60648    -80.5 9.518e+03 2.955e-10
  5.62660    -79.8 9.502e+03 2.922e-10
  5.64439    -79.2 9.590e+03 2.988e-10
  5.65446    -79.3 9.254e+03 2.584e-10
  5.66685    -79.1 9.276e+03 2.588e-10
  5.68697    -79.1 9.435e+03 2.709e-10
  5.70710    -79.1 9.706e+03 3.002e-10
  5.72662    -80.6 1.026e+04 3.827e-10
  5.73668    -80.1 1.009e+04 3.416e-10
  5.74735    -82.4 1.094e+04 4.827e-10
  5.76747    -85.0 1.245e+04 9.509e-10
  5.78760    -86.7 1.407e+04 2.051e-09
  5.80772    -87.6 1.544e+04 3.720e-09
  5.81891    -88.0 1.637e+04 5.192e-09
  5.82898    -87.2 1.523e+04 3.620e-09
  5.84797    -87.6 1.587e+04 4.259e-09
  5.86809    -88.2 1.601e+04 4.316e-09
  5.87941    -89.1 1.560e+04 3.205e-09
  5.88947    -87.7 1.618e+04 4.314e-09
  5.90114    -88.8 1.521e+04 2.598e-09
  5.91120    -87.2 1.542e+04 2.954e-09
  5.92847    -88.7 1.406e+04 1.622e-09
  5.94859    -91.0 1.191e+04 8.987e-10
  5.96871    -92.2 1.086e+04 6.468e-10
  5.98337    -92.3 1.061e+04 5.813e-10
  5.99343    -91.7 1.066e+04 5.790e-10
  6.00896    -91.6 1.058e+04 5.684e-10
  6.02909    -91.5 1.060e+04 5.756e-10
  6.04921    -91.3 1.062e+04 5.910e-10
  6.06560    -90.8 1.062e+04 5.966e-10
  6.07566    -90.7 1.100e+04 7.049e-10
  6.08946    -90.4 1.102e+04 7.145e-10
  6.10958    -90.0 1.092e+04 7.069e-10
  6.12971    -89.4 1.065e+04 6.475e-10
  6.14783    -88.6 1.032e+04 5.633e-10
  6.15789    -88.6 1.091e+04 7.276e-10
  6.16996    -87.6 1.043e+04 5.785e-10
  6.18561    -86.4 9.981e+03 4.571e-10
  6.19567    -86.1 1.011e+04 4.955e-10
  6.21021    -85.0 9.781e+03 3.962e-10
  6.23006    -84.3 9.640e+03 3.451e-10
  6.24012    -84.2 9.737e+03 3.547e-10
  6.26061    -83.9 9.477e+03 2.986e-10
  6.30096    -82.0 8.971e+03 2.087e-10
  6.32254    -79.5 8.386e+03 1.343e-10
  6.34267    -80.0 8.661e+03 1.527e-10
  6.38146    -77.6 8.214e+03 1.036e-10
  6.42171    -75.3 8.011e+03 8.031e-11
  6.46196    -73.1 7.963e+03 7.344e-11
  6.48700    -70.8 7.954e+03 7.243e-11
  6.49692    -71.2 8.493e+03 1.296e-10
  6.51213    -70.5 8.524e+03 1.262e-10
  6.54245    -68.4 8.706e+03 1.549e-10
  6.58270    -66.2 8.922e+03 2.003e-10
  6.62295    -63.7 9.135e+03 2.569e-10
  6.65146    -61.2 9.314e+03 3.125e-10
  6.67158    -61.4 9.956e+03 5.300e-10
  6.70345    -58.7 9.946e+03 5.410e-10
  6.74370    -55.9 9.745e+03 5.202e-10
  6.78394    -53.1 9.468e+03 4.415e-10
  6.81591    -50.2 9.218e+03 3.568e-10
  6.83604    -50.5 9.586e+03 2.531e-10
  6.86444    -48.0 9.488e+03 2.188e-10
  6.90469    -45.4 9.464e+03 2.114e-10
  6.94494    -42.7 9.534e+03 2.155e-10
  6.98037    -40.1 9.703e+03 2.529e-10
  7.00049    -41.6 1.020e+04 2.844e-10
  7.02544    -38.6 1.021e+04 3.417e-10
  7.06568    -35.7 1.032e+04 4.005e-10
  7.10441    -32.8 1.037e+04 4.560e-10
  7.12453    -32.3 1.066e+04 5.312e-10
  7.14483    -29.6 1.077e+04 5.837e-10
  7.16495    -31.1 1.117e+04 6.605e-10
  7.18643    -28.6 1.134e+04 6.229e-10
  7.22668    -26.3 1.134e+04 5.906e-10
  7.26693    -24.1 1.137e+04 5.671e-10
  7.30718    -22.3 1.132e+04 5.589e-10
  7.32941    -20.7 1.133e+04 6.268e-10
  7.34953    -22.0 1.075e+04 4.716e-10
  7.38767    -19.7 1.057e+04 4.675e-10
  7.42792    -17.3 1.045e+04 4.523e-10
  7.46817    -14.8 1.045e+04 4.449e-10
  7.49387    -12.8 1.048e+04 4.432e-10
  7.51399    -13.2 9.911e+03 3.572e-10
  7.54867    -11.3 1.009e+04 3.926e-10
  7.58892     -9.0 1.024e+04 4.714e-10
  7.62916     -6.3 1.036e+04 5.316e-10
  7.65832     -3.8 1.044e+04 4.955e-10
  7.67845     -4.1 1.048e+04 6.991e-10
  7.70966     -1.4 1.046e+04 6.062e-10
  7.73693      0.6 1.028e+04 4.404e-10
  7.75706      1.0 1.025e+04 4.794e-10
  7.79016      3.0 9.862e+03 3.134e-10
  7.82278      4.9 9.461e+03 2.211e-10
  7.84290      5.5 9.326e+03 2.775e-10
  7.87066      7.4 9.048e+03 1.987e-10
  7.91091      9.6 8.836e+03 1.700e-10
  7.95115     12.3 8.774e+03 1.698e-10
  7.98724     15.0 8.802e+03 1.839e-10
  8.00736     15.6 8.589e+03 1.670e-10
  8.03165     18.5 8.598e+03 1.824e-10
  8.07190     21.3 8.709e+03 2.143e-10
  8.11215     24.1 8.914e+03 2.681e-10
  8.15169     26.8 9.168e+03 3.312e-10
  8.17182     27.0 8.947e+03 2.151e-10
  8.19265     29.5 9.167e+03 2.820e-10
  8.23289     32.0 9.349e+03 3.502e-10
  8.27314     34.5 9.359e+03 3.694e-10
  8.31339     37.0 9.281e+03 3.528e-10
  8.33628     39.5 9.109e+03 3.031e-10
  8.35209     39.1 9.018e+03 2.870e-10
  8.36946     40.2 9.271e+03 3.613e-10
  8.39389     42.5 9.144e+03 3.496e-10
  8.43414     45.0 9.004e+03 3.278e-10
  8.47439     47.5 8.879e+03 2.931e-10
  8.50073     50.0 8.711e+03 2.567e-10
  8.52086     50.6 8.964e+03 3.157e-10
  8.55488     53.0 8.827e+03 2.712e-10
  8.59513     55.2 8.737e+03 2.334e-10
  8.63538     57.3 8.808e+03 2.341e-10
  8.66519     59.0 8.983e+03 2.510e-10
  8.68531     59.6 8.837e+03 2.495e-10
  8.71588     61.4 9.143e+03 2.943e-10
  8.74597     62.1 9.159e+03 3.021e-10
  8.75729     62.9 9.267e+03 3.311e-10
  8.76735     63.4 9.095e+03 3.212e-10
  8.78612     64.3 9.302e+03 3.670e-10
  8.80624     65.1 9.660e+03 4.401e-10
  8.82637     65.5 1.013e+04 5.427e-10
  8.83951     65.7 1.063e+04 6.756e-10
  8.84958     66.5 1.029e+04 6.020e-10
  8.86661     66.5 1.072e+04 7.376e-10
  8.88674     66.4 1.108e+04 9.105e-10
  8.90686     66.4 1.145e+04 1.120e-09
  8.92174     66.8 1.182e+04 1.345e-09
  8.93180     67.7 1.147e+04 1.207e-09
  8.94711     67.8 1.193e+04 1.361e-09
  8.96724     68.1 1.209e+04 1.371e-09
  8.98176     68.1 1.199e+04 1.234e-09
  8.99182     69.2 1.228e+04 1.487e-09
  9.00397     69.2 1.228e+04 1.424e-09
  9.01403     71.2 1.187e+04 1.370e-09
  9.02761     71.6 1.176e+04 1.192e-09
  9.04773     71.9 1.151e+04 9.297e-10
  9.06786     72.0 1.118e+04 6.898e-10
  9.08620     71.5 1.077e+04 5.150e-10
  9.09626     72.5 1.067e+04 4.941e-10
  9.10811     71.5 1.017e+04 3.721e-10
  9.12823     70.6 9.728e+03 3.172e-10
  9.14835     70.0 9.631e+03 3.143e-10
  9.16843     69.9 9.615e+03 3.141e-10
  9.18855     70.6 9.607e+03 3.177e-10
  9.20873     70.2 9.746e+03 3.460e-10
  9.22885     69.6 9.927e+03 3.899e-10
  9.24898     69.0 1.015e+04 4.547e-10
  9.26072     67.9 1.051e+04 5.563e-10
  9.27078     67.4 1.068e+04 6.114e-10
  9.28786     65.7 1.129e+04 7.444e-10
  9.29792     66.0 1.175e+04 9.942e-10
  9.30178     60.1 1.542e+04 1.466e-09
  9.30677     60.1 1.533e+04 1.477e-09
  9.31428     57.4 1.724e+04 1.821e-09
  9.32434     45.3 2.536e+04 4.421e-09
  9.33441     36.8 2.649e+04 1.075e-08
  9.34285     32.9 2.410e+04 2.023e-08
  9.34788     29.6 2.224e+04 2.588e-08
