# Columns:
#   distance along LOS (in CHIMPs)
#   peculiar velocity  (in km/s)
#   temperature (K)
#   HI number density
# pos=(182.88,102.989,182.609), angles=(1.4704,1.63543)
  0.00094     30.6 1.699e+04 6.914e-09
  0.00670     28.1 1.624e+04 7.180e-09
  0.01653     28.1 1.650e+04 8.344e-09
  0.02304     24.9 1.613e+04 6.046e-09
  0.03288     24.1 1.601e+04 5.627e-09
  0.05106     19.3 1.526e+04 3.191e-09
  0.07073     13.1 1.382e+04 1.691e-09
  0.09040      8.1 1.217e+04 1.208e-09
  0.11007      6.1 1.173e+04 1.192e-09
  0.12974      5.2 1.190e+04 1.309e-09
  0.14942      5.0 1.192e+04 1.359e-09
  0.16909      5.3 1.205e+04 1.461e-09
  0.18876      5.9 1.183e+04 1.358e-09
  0.20910      7.0 1.154e+04 1.169e-09
  0.22877      8.2 1.191e+04 1.306e-09
  0.24777      8.6 1.125e+04 8.511e-10
  0.26744      8.6 1.047e+04 6.397e-10
  0.28711      8.5 1.022e+04 4.333e-10
  0.30620      8.2 1.001e+04 3.910e-10
  0.31603      6.9 9.680e+03 3.328e-10
  0.32646      6.6 9.421e+03 2.941e-10
  0.34613      6.4 9.438e+03 3.023e-10
  0.36580      7.4 9.602e+03 3.836e-10
  0.38547      7.6 9.638e+03 3.888e-10
  0.40480      8.5 9.762e+03 4.414e-10
  0.41463      8.5 9.910e+03 5.081e-10
  0.42481      9.0 1.042e+04 6.223e-10
  0.44448      9.0 1.119e+04 7.968e-10
  0.46415      8.5 1.208e+04 1.119e-09
  0.48383      7.9 1.275e+04 1.572e-09
  0.50350      7.9 1.337e+04 2.179e-09
  0.52317      8.4 1.391e+04 2.935e-09
  0.54284      9.2 1.476e+04 3.796e-09
  0.56251      9.8 1.541e+04 4.347e-09
  0.58218      9.6 1.550e+04 4.406e-09
  0.60059      9.6 1.501e+04 4.013e-09
  0.61043      9.8 1.498e+04 2.959e-09
  0.61554      9.2 1.430e+04 2.506e-09
  0.62537      9.1 1.411e+04 3.013e-09
  0.64119      9.2 1.358e+04 2.626e-09
  0.66087      9.6 1.328e+04 2.248e-09
  0.68054      9.9 1.318e+04 1.969e-09
  0.70021     10.0 1.309e+04 1.751e-09
  0.71988     10.1 1.302e+04 1.756e-09
  0.73955     10.2 1.310e+04 1.733e-09
  0.75922     10.5 1.327e+04 1.791e-09
  0.77889     10.7 1.345e+04 1.843e-09
  0.79639     10.6 1.351e+04 1.947e-09
  0.80622     10.4 1.374e+04 2.378e-09
  0.81824      9.9 1.395e+04 2.628e-09
  0.83791      9.5 1.384e+04 2.925e-09
  0.85758      9.4 1.378e+04 3.200e-09
  0.87725      9.4 1.393e+04 3.193e-09
  0.89692      9.3 1.383e+04 2.974e-09
  0.91504      9.0 1.340e+04 2.626e-09
  0.92487      8.3 1.308e+04 2.368e-09
  0.93626      8.4 1.274e+04 2.079e-09
  0.95593      8.8 1.260e+04 1.757e-09
  0.97560      9.0 1.238e+04 1.451e-09
  0.99218      8.8 1.242e+04 1.107e-09
  1.00202      6.4 1.266e+04 1.002e-09
  1.01495      5.1 1.289e+04 9.053e-10
  1.03462      4.4 1.284e+04 8.748e-10
  1.05429      4.2 1.275e+04 9.524e-10
  1.07396      4.5 1.254e+04 1.106e-09
  1.09363      5.2 1.255e+04 1.259e-09
  1.11330      5.9 1.243e+04 1.537e-09
  1.13297      6.5 1.262e+04 1.754e-09
  1.15264      7.1 1.284e+04 2.155e-09
  1.17232      7.6 1.319e+04 2.741e-09
  1.18797      8.0 1.378e+04 3.499e-09
  1.19781      8.0 1.349e+04 2.831e-09
  1.21166      8.0 1.414e+04 3.369e-09
  1.22437      7.6 1.509e+04 4.611e-09
  1.23421      7.9 1.525e+04 5.651e-09
  1.25100      6.9 1.660e+04 7.594e-09
  1.27067      5.8 1.771e+04 9.637e-09
  1.29034      5.0 1.818e+04 1.123e-08
  1.31001      4.6 1.838e+04 1.171e-08
  1.32969      4.4 1.838e+04 1.017e-08
  1.34936      3.4 1.776e+04 7.587e-09
  1.36903      0.9 1.623e+04 5.466e-09
  1.38377     -1.2 1.456e+04 4.160e-09
  1.39361     -0.2 1.636e+04 5.338e-09
  1.40837     -1.1 1.492e+04 4.957e-09
  1.42804     -0.5 1.464e+04 5.025e-09
  1.44771      0.5 1.476e+04 4.751e-09
  1.46738      1.5 1.534e+04 4.178e-09
  1.48705      2.0 1.579e+04 3.163e-09
  1.50673      1.4 1.552e+04 2.076e-09
  1.52388     -0.1 1.429e+04 1.265e-09
  1.53371     -2.5 1.053e+04 6.880e-10
  1.54607     -3.0 1.029e+04 6.927e-10
  1.56574     -3.0 1.029e+04 7.161e-10
  1.57956     -3.0 1.031e+04 7.278e-10
  1.58940     -3.0 1.188e+04 7.766e-10
  1.60508     -3.2 1.136e+04 7.980e-10
  1.62475     -3.5 1.096e+04 8.318e-10
  1.64442     -3.9 1.087e+04 8.903e-10
  1.66410     -4.3 1.083e+04 9.826e-10
  1.68377     -4.4 1.091e+04 1.138e-09
  1.70344     -3.8 1.101e+04 1.209e-09
  1.72311     -3.2 1.098e+04 1.206e-09
  1.74278     -2.3 1.078e+04 1.057e-09
  1.76245     -1.8 1.060e+04 8.872e-10
  1.77536     -1.8 1.035e+04 7.160e-10
  1.78519     -2.5 1.080e+04 7.159e-10
  1.80179     -3.3 1.073e+04 5.958e-10
  1.83140     -4.7 1.076e+04 4.827e-10
  1.87084     -4.7 1.061e+04 4.987e-10
  1.91018     -3.9 1.053e+04 5.231e-10
  1.94952     -3.1 1.018e+04 4.845e-10
  1.98886     -2.4 9.628e+03 3.928e-10
  2.02821     -1.9 9.160e+03 3.241e-10
  2.06755     -1.4 8.939e+03 3.146e-10
  2.10689      0.0 8.892e+03 3.331e-10
  2.13291      1.8 8.726e+03 3.194e-10
  2.15258      1.7 8.714e+03 3.157e-10
  2.16714      3.5 8.369e+03 2.380e-10
  2.18681      3.1 8.122e+03 1.671e-10
  2.22492      4.0 7.780e+03 9.589e-11
  2.26426      4.4 7.605e+03 6.614e-11
  2.30360      5.2 7.633e+03 6.329e-11
  2.34295      5.8 7.777e+03 7.533e-11
  2.38229      6.7 7.923e+03 1.148e-10
  2.42163      8.3 8.092e+03 1.732e-10
  2.46097     10.5 8.288e+03 2.262e-10
  2.50031     12.1 8.455e+03 2.254e-10
  2.53906     13.7 8.423e+03 1.997e-10
  2.55873     12.9 8.556e+03 2.272e-10
  2.57900     14.0 8.503e+03 1.997e-10
  2.61834     15.0 8.481e+03 1.829e-10
  2.65768     15.6 8.614e+03 1.949e-10
  2.69703     15.9 8.968e+03 2.535e-10
  2.73191     16.9 9.243e+03 3.437e-10
  2.75158     17.0 9.237e+03 3.470e-10
  2.77571     18.7 9.255e+03 3.686e-10
  2.81505     20.8 9.116e+03 3.148e-10
  2.85440     21.8 9.052e+03 2.449e-10
  2.89374     22.4 8.964e+03 2.158e-10
  2.92315     21.9 9.344e+03 2.754e-10
  2.94029     20.9 1.040e+04 4.565e-10
  2.95013     18.9 1.045e+04 6.305e-10
  2.96239     17.9 1.110e+04 1.167e-09
  2.98206     18.3 1.165e+04 2.016e-09
  3.00173     19.7 1.246e+04 3.186e-09
  3.02141     21.7 1.325e+04 4.147e-09
  3.04105     23.5 1.376e+04 4.202e-09
  3.05576     24.2 1.414e+04 4.083e-09
  3.06557     24.2 1.433e+04 3.865e-09
  3.07540     23.6 1.493e+04 2.901e-09
  3.08524     21.6 1.640e+04 2.740e-09
  3.09507     16.5 2.106e+04 2.406e-09
  3.10491     10.0 2.606e+04 3.005e-09
  3.11475      3.3 2.692e+04 4.395e-09
  3.12458     -1.0 2.515e+04 5.924e-09
  3.13442     -3.9 2.234e+04 8.218e-09
  3.14091     -5.0 2.069e+04 1.013e-08
  3.14582     -4.4 2.142e+04 7.151e-09
  3.15409     -4.9 1.939e+04 9.198e-09
  3.16392     -4.7 1.856e+04 1.022e-08
  3.17873     -3.9 1.801e+04 1.344e-08
  3.19845     -3.2 1.776e+04 1.114e-08
  3.21812     -3.2 1.734e+04 8.604e-09
  3.23779     -3.9 1.695e+04 5.710e-09
  3.25746     -5.6 1.637e+04 3.040e-09
  3.27713     -9.1 1.539e+04 1.527e-09
  3.29680    -14.3 1.280e+04 9.152e-10
  3.31647    -17.7 1.138e+04 8.579e-10
  3.33188    -21.0 1.133e+04 1.019e-09
  3.34172    -20.4 1.135e+04 9.598e-10
  3.35039    -21.9 1.148e+04 1.130e-09
  3.37016    -24.0 1.213e+04 1.704e-09
  3.39525    -24.4 1.208e+04 1.731e-09
  3.41483    -25.0 1.220e+04 1.660e-09
  3.43450    -26.4 1.208e+04 1.278e-09
  3.45417    -29.7 1.133e+04 8.893e-10
  3.47384    -32.6 1.048e+04 6.778e-10
  3.49351    -34.0 1.007e+04 5.889e-10
  3.52312    -34.8 9.889e+03 5.326e-10
  3.56256    -35.9 9.334e+03 3.836e-10
  3.60190    -36.3 8.849e+03 2.673e-10
  3.64124    -36.2 8.540e+03 1.916e-10
  3.68058    -35.3 8.278e+03 1.409e-10
  3.71383    -34.1 8.229e+03 1.284e-10
  3.73350    -34.1 8.170e+03 1.280e-10
  3.75927    -33.0 8.259e+03 1.291e-10
  3.79861    -33.0 8.611e+03 1.767e-10
  3.83795    -35.2 1.075e+04 5.461e-10
  3.86736    -37.2 1.252e+04 1.291e-09
  3.88694    -38.7 1.402e+04 2.500e-09
  3.90661    -39.4 1.537e+04 4.690e-09
  3.91926    -39.5 1.667e+04 8.005e-09
  3.92910    -41.2 1.627e+04 6.680e-09
  3.94595    -41.5 1.694e+04 8.509e-09
  3.95923    -42.4 1.710e+04 8.926e-09
  3.96907    -42.0 1.627e+04 6.996e-09
  3.98529    -43.7 1.602e+04 6.491e-09
  4.00496    -46.1 1.551e+04 5.431e-09
  4.02463    -48.6 1.541e+04 5.114e-09
  4.04431    -50.5 1.593e+04 5.255e-09
  4.06398    -51.7 1.632e+04 5.639e-09
  4.08365    -52.5 1.631e+04 5.694e-09
  4.10332    -52.8 1.586e+04 5.234e-09
  4.11506    -53.0 1.534e+04 4.339e-09
  4.12490    -54.7 1.407e+04 2.693e-09
  4.14266    -55.8 1.364e+04 2.022e-09
  4.16233    -57.9 1.289e+04 1.494e-09
  4.18200    -60.1 1.193e+04 1.170e-09
  4.20167    -61.7 1.138e+04 1.036e-09
  4.22135    -62.4 1.122e+04 1.014e-09
  4.24102    -62.8 1.119e+04 1.018e-09
  4.25873    -63.1 1.119e+04 1.019e-09
  4.26857    -61.8 1.142e+04 1.078e-09
  4.28036    -62.6 1.133e+04 1.054e-09
  4.30996    -63.9 1.104e+04 9.495e-10
  4.34940    -64.7 1.080e+04 8.871e-10
  4.38875    -65.1 1.085e+04 8.844e-10
  4.41815    -65.7 1.093e+04 9.359e-10
  4.43773    -66.1 1.105e+04 1.004e-09
  4.45740    -66.6 1.132e+04 1.163e-09
  4.47707    -66.8 1.158e+04 1.336e-09
  4.49674    -67.0 1.186e+04 1.538e-09
  4.51641    -67.6 1.184e+04 1.520e-09
  4.53608    -67.7 1.202e+04 1.621e-09
  4.55576    -68.0 1.205e+04 1.631e-09
  4.56807    -68.3 1.201e+04 1.596e-09
  4.57790    -68.2 1.195e+04 1.542e-09
  4.59510    -68.6 1.170e+04 1.376e-09
  4.61477    -69.1 1.133e+04 1.165e-09
  4.63444    -69.7 1.087e+04 9.328e-10
  4.65411    -70.3 1.039e+04 7.099e-10
  4.67378    -71.1 9.920e+03 5.173e-10
  4.69261    -72.0 9.485e+03 3.733e-10
  4.70244    -73.3 9.183e+03 3.062e-10
  4.71312    -73.5 8.972e+03 2.663e-10
  4.74273    -73.6 8.824e+03 2.329e-10
  4.78217    -74.7 8.600e+03 2.001e-10
  4.82151    -75.8 8.546e+03 1.919e-10
  4.86085    -76.9 8.586e+03 1.958e-10
  4.88860    -78.4 8.948e+03 2.522e-10
  4.90827    -79.7 8.770e+03 2.322e-10
  4.93954    -80.9 9.076e+03 3.051e-10
  4.97888    -82.5 9.525e+03 4.073e-10
  5.01822    -85.5 1.041e+04 5.985e-10
  5.04763    -88.2 1.135e+04 9.408e-10
  5.06721    -91.1 1.240e+04 1.507e-09
  5.08420    -93.7 1.374e+04 2.582e-09
  5.09403    -94.8 1.399e+04 2.669e-09
  5.10655    -97.1 1.532e+04 4.551e-09
  5.12622    -99.3 1.620e+04 6.483e-09
  5.14589   -101.6 1.646e+04 7.234e-09
  5.16556   -103.7 1.635e+04 7.208e-09
  5.17691   -105.2 1.553e+04 5.335e-09
  5.18674   -105.1 1.563e+04 5.467e-09
  5.20490   -106.5 1.426e+04 2.896e-09
  5.22457   -108.4 1.264e+04 1.337e-09
  5.24425   -110.7 1.117e+04 6.274e-10
  5.26392   -112.5 1.029e+04 3.547e-10
  5.27999   -113.5 9.959e+03 2.723e-10
  5.29976   -113.8 9.785e+03 2.345e-10
  5.33296   -113.9 9.740e+03 2.255e-10
  5.37230   -114.1 9.772e+03 2.341e-10
  5.41165   -114.4 1.020e+04 3.571e-10
  5.45099   -114.5 1.071e+04 6.001e-10
  5.49033   -114.6 1.103e+04 8.170e-10
  5.52967   -115.4 1.113e+04 8.822e-10
  5.55908   -116.6 1.124e+04 1.027e-09
  5.57866   -117.3 1.092e+04 8.928e-10
  5.59833   -117.8 1.062e+04 7.485e-10
  5.61800   -118.1 1.035e+04 6.217e-10
  5.63767   -118.2 1.008e+04 5.158e-10
  5.65734   -118.2 9.832e+03 4.335e-10
  5.67168   -117.6 9.652e+03 3.766e-10
  5.68151   -119.1 9.848e+03 4.032e-10
  5.69668   -118.7 9.710e+03 3.740e-10
  5.72629   -118.2 9.714e+03 3.732e-10
  5.76573   -117.3 9.604e+03 3.667e-10
  5.78594   -116.0 9.370e+03 3.444e-10
  5.80561   -116.1 9.633e+03 4.099e-10
  5.84441   -114.7 9.395e+03 3.703e-10
  5.88375   -113.0 9.099e+03 3.168e-10
  5.92310   -111.1 8.828e+03 2.707e-10
  5.96244   -109.2 8.615e+03 2.372e-10
  6.00178   -107.3 8.465e+03 2.143e-10
  6.04112   -105.3 8.377e+03 1.997e-10
  6.06337   -103.5 8.323e+03 1.913e-10
  6.08304   -103.5 8.435e+03 2.067e-10
  6.11981   -101.7 8.438e+03 2.124e-10
  6.15915    -99.9 8.457e+03 2.214e-10
  6.19849    -98.2 8.456e+03 2.271e-10
  6.23783    -96.4 8.449e+03 2.289e-10
  6.27718    -94.7 8.382e+03 2.230e-10
  6.31652    -92.9 8.229e+03 2.021e-10
  6.35586    -91.0 8.021e+03 1.691e-10
  6.38494    -89.0 7.781e+03 1.346e-10
  6.40462    -89.0 7.727e+03 1.271e-10
  6.43455    -87.0 7.520e+03 1.029e-10
  6.45496    -84.9 7.339e+03 8.366e-11
  6.47463    -84.8 7.430e+03 9.106e-11
  6.51323    -82.7 7.274e+03 7.387e-11
  6.55257    -80.6 7.148e+03 6.213e-11
  6.59192    -78.4 7.048e+03 5.552e-11
  6.63126    -76.1 7.003e+03 5.267e-11
  6.67060    -73.8 6.990e+03 5.156e-11
  6.70994    -71.5 6.982e+03 5.073e-11
  6.74928    -69.0 6.971e+03 4.948e-11
  6.78863    -66.5 6.957e+03 4.761e-11
  6.82687    -64.0 6.941e+03 4.556e-11
  6.84655    -64.1 6.942e+03 4.471e-11
  6.86731    -61.6 6.935e+03 4.322e-11
  6.90665    -59.0 6.937e+03 4.286e-11
  6.94600    -56.6 6.971e+03 4.311e-11
  6.98395    -54.5 7.110e+03 4.909e-11
  7.00362    -55.2 7.179e+03 5.550e-11
  7.02468    -53.2 7.394e+03 7.816e-11
  7.06402    -51.2 7.729e+03 1.179e-10
  7.10337    -49.1 8.145e+03 1.823e-10
  7.14271    -47.0 8.576e+03 2.706e-10
  7.18205    -44.8 8.936e+03 3.632e-10
  7.21846    -42.7 9.123e+03 4.121e-10
  7.23813    -43.0 9.296e+03 4.559e-10
  7.26074    -40.9 9.312e+03 4.604e-10
  7.30008    -38.6 9.066e+03 3.826e-10
  7.33942    -36.3 8.686e+03 2.742e-10
  7.37876    -34.3 8.352e+03 1.920e-10
  7.41810    -32.5 8.232e+03 1.652e-10
  7.45745    -30.8 8.266e+03 1.602e-10
  7.49679    -29.2 8.504e+03 1.922e-10
  7.53613    -27.7 8.868e+03 2.672e-10
  7.57547    -26.3 9.468e+03 3.814e-10
  7.60252    -26.1 1.011e+04 5.676e-10
  7.61226    -26.8 1.043e+04 7.278e-10
  7.61969    -26.6 1.062e+04 8.177e-10
  7.62953    -27.2 1.119e+04 1.084e-09
  7.64413    -26.7 1.136e+04 1.185e-09
  7.66380    -26.3 1.143e+04 1.222e-09
  7.68347    -25.8 1.140e+04 1.203e-09
  7.70314    -25.2 1.130e+04 1.147e-09
  7.72281    -24.7 1.117e+04 1.074e-09
  7.74248    -24.1 1.107e+04 1.013e-09
  7.76215    -23.5 1.094e+04 9.376e-10
  7.78183    -22.8 1.091e+04 8.853e-10
  7.80150    -22.1 1.095e+04 8.679e-10
  7.81549    -21.6 1.091e+04 8.528e-10
  7.82532    -22.1 1.054e+04 6.576e-10
  7.84084    -21.4 1.077e+04 7.048e-10
  7.86051    -21.3 1.084e+04 7.633e-10
  7.88018    -20.7 1.144e+04 9.369e-10
  7.89985    -21.1 1.165e+04 1.063e-09
  7.91176    -21.1 1.243e+04 1.493e-09
  7.92160    -22.2 1.256e+04 1.644e-09
  7.93919    -23.1 1.299e+04 2.102e-09
  7.95887    -23.2 1.345e+04 2.733e-09
  7.97854    -23.0 1.365e+04 3.082e-09
  7.99821    -22.6 1.373e+04 3.181e-09
  8.01128    -22.3 1.364e+04 2.769e-09
  8.02112    -22.0 1.375e+04 3.020e-09
  8.03755    -22.0 1.354e+04 2.318e-09
  8.05722    -23.3 1.339e+04 1.752e-09
  8.07689    -25.3 1.325e+04 1.426e-09
  8.09656    -27.5 1.329e+04 1.329e-09
  8.11624    -29.7 1.357e+04 1.654e-09
  8.13591    -31.5 1.370e+04 2.127e-09
  8.15558    -32.4 1.387e+04 2.662e-09
  8.17525    -33.0 1.413e+04 2.998e-09
  8.19492    -33.8 1.422e+04 3.075e-09
  8.20708    -35.2 1.400e+04 2.801e-09
  8.21359    -35.0 1.510e+04 3.958e-09
  8.22110    -37.0 1.448e+04 3.418e-09
  8.23426    -38.9 1.373e+04 2.809e-09
  8.25393    -40.2 1.340e+04 2.478e-09
  8.27360    -40.9 1.334e+04 2.272e-09
  8.29328    -41.6 1.327e+04 2.131e-09
  8.31295    -42.2 1.312e+04 1.980e-09
  8.33262    -42.9 1.290e+04 1.747e-09
  8.35229    -43.9 1.244e+04 1.515e-09
  8.37196    -44.1 1.234e+04 1.497e-09
  8.39163    -43.9 1.233e+04 1.565e-09
  8.40287    -43.9 1.217e+04 1.512e-09
  8.41271    -44.0 1.189e+04 1.323e-09
  8.43097    -43.9 1.162e+04 1.234e-09
  8.45064    -43.6 1.153e+04 1.202e-09
  8.47032    -43.4 1.136e+04 1.125e-09
  8.48999    -43.1 1.140e+04 1.088e-09
  8.50966    -42.8 1.140e+04 9.493e-10
  8.52060    -42.7 1.136e+04 8.298e-10
  8.53044    -43.3 1.110e+04 7.085e-10
  8.55893    -43.0 1.093e+04 6.411e-10
  8.59837    -42.6 1.057e+04 5.165e-10
  8.62778    -42.0 1.051e+04 5.163e-10
  8.64736    -41.7 1.047e+04 4.921e-10
  8.67696    -41.5 1.036e+04 4.550e-10
  8.71640    -41.0 1.051e+04 4.567e-10
  8.75574    -40.7 1.079e+04 4.818e-10
  8.78482    -40.4 1.098e+04 5.320e-10
  8.80449    -39.8 1.118e+04 7.108e-10
  8.82020    -39.7 1.123e+04 6.893e-10
  8.82994    -41.1 1.133e+04 7.550e-10
  8.84407    -41.0 1.139e+04 8.155e-10
  8.87367    -40.5 1.155e+04 9.788e-10
  8.91311    -39.9 1.174e+04 1.104e-09
  8.95245    -39.6 1.192e+04 1.121e-09
  8.99180    -39.6 1.211e+04 1.073e-09
  9.03114    -39.7 1.203e+04 9.553e-10
  9.07048    -39.8 1.168e+04 7.887e-10
  9.10982    -39.6 1.122e+04 5.682e-10
  9.14917    -39.6 1.120e+04 4.045e-10
  9.17641    -39.6 1.114e+04 3.164e-10
  9.19608    -39.1 1.082e+04 2.875e-10
  9.22785    -39.1 1.081e+04 2.596e-10
  9.26719    -38.8 1.061e+04 2.728e-10
  9.30654    -38.0 1.032e+04 3.237e-10
  9.34588    -36.7 1.018e+04 3.355e-10
  9.38522    -35.2 9.938e+03 3.011e-10
  9.41930    -33.8 9.679e+03 2.114e-10
  9.43897    -35.5 9.539e+03 1.643e-10
  9.46390    -34.4 9.255e+03 1.299e-10
  9.50325    -32.9 9.021e+03 1.125e-10
  9.54259    -31.2 8.890e+03 1.068e-10
  9.56800    -29.2 8.815e+03 1.027e-10
  9.58767    -29.4 8.763e+03 8.440e-11
  9.62127    -27.4 8.692e+03 7.856e-11
  9.66062    -25.4 8.640e+03 7.452e-11
  9.69996    -23.3 8.618e+03 7.286e-11
  9.73930    -21.3 8.647e+03 7.328e-11
  9.77864    -19.4 8.696e+03 8.021e-11
  9.81799    -17.4 8.745e+03 9.241e-11
  9.85733    -15.4 8.795e+03 1.072e-10
  9.89667    -13.2 8.835e+03 1.209e-10
  9.93601    -11.1 8.840e+03 1.279e-10
  9.95959     -9.0 8.800e+03 1.282e-10
  9.97926     -9.4 8.774e+03 1.184e-10
 10.01470     -7.5 8.800e+03 1.141e-10
 10.03798     -6.0 8.897e+03 1.204e-10
 10.05765     -6.2 8.906e+03 1.211e-10
 10.09338     -4.5 8.955e+03 1.485e-10
 10.13272     -2.4 9.017e+03 1.764e-10
 10.17207     -0.5 9.212e+03 1.890e-10
 10.21141      0.9 9.299e+03 2.024e-10
 10.25075      2.3 9.229e+03 2.136e-10
 10.29009      3.8 9.160e+03 2.165e-10
 10.32944      5.4 9.100e+03 2.255e-10
 10.35118      7.1 9.061e+03 2.283e-10
 10.37085      6.7 8.845e+03 1.786e-10
 10.40812      8.4 8.880e+03 1.879e-10
 10.44746     10.2 8.942e+03 2.019e-10
 10.48681     12.2 9.014e+03 2.130e-10
 10.52615     14.1 9.101e+03 2.189e-10
 10.56549     15.9 9.197e+03 2.221e-10
 10.60483     17.6 9.334e+03 2.320e-10
 10.63698     18.4 9.666e+03 2.680e-10
 10.65665     17.0 9.317e+03 2.200e-10
 10.68352     16.9 9.894e+03 3.614e-10
 10.72286     17.1 1.058e+04 6.199e-10
 10.74267     16.8 1.095e+04 8.139e-10
 10.75241     16.2 1.095e+04 8.270e-10
 10.77184     16.7 1.110e+04 8.690e-10
 10.79151     16.5 1.113e+04 8.654e-10
 10.81118     16.5 1.103e+04 8.087e-10
 10.83085     16.2 1.092e+04 7.223e-10
 10.85053     15.2 1.090e+04 6.894e-10
 10.87020     12.5 1.136e+04 7.725e-10
 10.88987      7.7 1.239e+04 1.135e-09
 10.90954      5.1 1.249e+04 1.609e-09
 10.92853      4.6 1.240e+04 1.958e-09
 10.93837      4.1 1.232e+04 1.800e-09
 10.94612      2.7 1.284e+04 1.748e-09
 10.95596      3.1 1.288e+04 1.907e-09
 10.96855      1.1 1.298e+04 1.536e-09
 10.98822     -2.2 1.173e+04 8.453e-10
 11.00790     -6.3 9.903e+03 4.636e-10
 11.03750     -9.5 9.193e+03 2.840e-10
 11.07694    -11.9 8.388e+03 1.619e-10
 11.11469    -14.5 7.934e+03 1.144e-10
 11.13436    -13.5 7.977e+03 1.209e-10
 11.15562    -15.3 7.783e+03 1.078e-10
 11.19497    -16.2 7.827e+03 1.260e-10
 11.23431    -16.5 8.103e+03 1.597e-10
 11.25565    -17.4 8.564e+03 2.070e-10
 11.27533    -18.6 8.560e+03 2.067e-10
 11.31299    -20.5 9.106e+03 2.948e-10
 11.35234    -22.4 9.789e+03 4.547e-10
 11.38175    -24.2 1.023e+04 6.438e-10
 11.40132    -24.7 1.082e+04 8.345e-10
 11.42099    -25.8 1.150e+04 1.067e-09
 11.44066    -27.4 1.204e+04 1.233e-09
 11.46033    -29.9 1.236e+04 1.331e-09
 11.48000    -32.3 1.275e+04 1.444e-09
 11.49967    -35.5 1.262e+04 1.399e-09
 11.51592    -39.5 1.308e+04 1.425e-09
 11.52575    -45.4 1.914e+04 1.539e-09
 11.53902    -69.6 3.624e+04 2.937e-09
 11.55372    -79.0 3.482e+04 5.334e-09
 11.55978    -86.2 3.242e+04 1.192e-08
 11.56475    -80.1 3.228e+04 6.785e-09
 11.57339    -90.4 2.917e+04 1.667e-08
 11.58318    -95.1 2.698e+04 2.601e-08
 11.59301    -99.1 2.617e+04 2.939e-08
 11.60285   -102.5 2.520e+04 2.879e-08
 11.61269   -105.7 2.460e+04 2.206e-08
 11.61863   -109.3 2.388e+04 1.434e-08
 11.62355   -112.1 2.306e+04 1.165e-08
 11.63236   -116.5 2.020e+04 6.912e-09
 11.64219   -120.0 1.713e+04 4.453e-09
 11.65699   -120.7 1.569e+04 3.465e-09
 11.67671   -122.5 1.376e+04 2.629e-09
 11.69639   -122.8 1.291e+04 2.112e-09
