# Columns:
#   distance along LOS (in CHIMPs)
#   peculiar velocity  (in km/s)
#   temperature (K)
#   HI number density
# pos=(130.616,163.656,237.07), angles=(1.66673,0.200895)
  0.01094    -92.0 1.023e+04 3.397e-10
  0.04191    -90.1 1.005e+04 2.609e-10
  0.06816    -88.2 9.967e+03 2.100e-10
  0.08818    -89.1 1.019e+04 1.967e-10
  0.10862    -87.2 1.012e+04 1.818e-10
  0.12864    -88.2 1.034e+04 2.384e-10
  0.16206    -86.2 1.023e+04 2.370e-10
  0.20210    -84.3 1.009e+04 2.136e-10
  0.24215    -82.3 1.001e+04 1.844e-10
  0.26661    -80.5 1.000e+04 1.657e-10
  0.28663    -80.8 9.910e+03 1.599e-10
  0.32225    -79.2 9.960e+03 1.552e-10
  0.36230    -77.7 1.012e+04 1.591e-10
  0.40235    -76.3 1.028e+04 1.885e-10
  0.44239    -74.7 1.041e+04 2.369e-10
  0.46506    -73.0 1.053e+04 2.938e-10
  0.48508    -73.1 1.028e+04 2.622e-10
  0.51276    -71.2 1.038e+04 3.004e-10
  0.53278    -72.3 1.044e+04 2.943e-10
  0.56254    -71.8 1.078e+04 3.225e-10
  0.60259    -74.3 1.253e+04 4.710e-10
  0.63253    -77.9 1.423e+04 1.225e-09
  0.65245    -79.4 1.482e+04 2.535e-09
  0.66332    -80.1 1.519e+04 5.051e-09
  0.67333    -80.4 1.530e+04 5.867e-09
  0.69250    -79.6 1.552e+04 7.260e-09
  0.71253    -79.0 1.545e+04 7.324e-09
  0.72464    -77.8 1.477e+04 5.160e-09
  0.73465    -77.5 1.445e+04 3.599e-09
  0.75253    -77.3 1.348e+04 1.606e-09
  0.77255    -82.6 1.124e+04 3.639e-10
  0.79262    -83.9 1.034e+04 2.243e-10
  0.81265    -84.0 1.016e+04 1.982e-10
  0.84184    -83.1 1.019e+04 1.919e-10
  0.86196    -84.4 9.812e+03 1.679e-10
  0.88293    -82.6 9.463e+03 1.327e-10
  0.91689    -80.7 9.318e+03 1.163e-10
  0.93692    -80.4 9.175e+03 9.345e-11
  0.96302    -78.6 9.160e+03 9.215e-11
  1.00307    -76.8 9.133e+03 9.360e-11
  1.04039    -75.0 9.105e+03 9.485e-11
  1.06041    -75.1 9.102e+03 1.061e-10
  1.08317    -73.2 9.067e+03 1.038e-10
  1.12322    -71.5 9.079e+03 1.006e-10
  1.16327    -69.9 9.109e+03 9.974e-11
  1.20331    -68.7 9.241e+03 1.145e-10
  1.23884    -67.5 9.363e+03 1.564e-10
  1.25887    -67.2 9.380e+03 1.855e-10
  1.28341    -65.7 9.550e+03 2.646e-10
  1.32103    -64.0 9.712e+03 3.312e-10
  1.34105    -63.6 9.562e+03 2.697e-10
  1.36351    -61.9 9.715e+03 3.215e-10
  1.40356    -60.4 9.755e+03 3.323e-10
  1.43729    -59.1 9.694e+03 3.079e-10
  1.45732    -58.6 9.838e+03 3.628e-10
  1.48365    -57.5 9.758e+03 3.385e-10
  1.52370    -56.3 9.766e+03 3.404e-10
  1.56375    -55.2 9.931e+03 4.128e-10
  1.60380    -53.7 1.013e+04 5.131e-10
  1.63574    -52.0 1.024e+04 5.602e-10
  1.65577    -51.3 1.019e+04 5.678e-10
  1.68389    -49.5 1.020e+04 5.700e-10
  1.72394    -47.7 1.001e+04 4.689e-10
  1.74519    -46.1 9.802e+03 3.293e-10
  1.76521    -46.1 9.672e+03 2.942e-10
  1.80404    -45.0 9.602e+03 2.327e-10
  1.83420    -44.0 9.536e+03 2.043e-10
  1.85422    -43.3 9.581e+03 2.306e-10
  1.88414    -42.2 9.637e+03 2.287e-10
  1.92419    -41.8 9.789e+03 2.351e-10
  1.96423    -42.1 1.018e+04 3.327e-10
  2.00428    -42.4 1.083e+04 6.175e-10
  2.03265    -42.1 1.170e+04 1.117e-09
  2.05267    -41.5 1.168e+04 1.158e-09
  2.08438    -40.7 1.220e+04 1.378e-09
  2.12443    -40.4 1.236e+04 1.338e-09
  2.14933    -40.7 1.202e+04 9.502e-10
  2.15924    -40.9 1.116e+04 4.974e-10
  2.17429    -41.1 1.100e+04 4.377e-10
  2.19432    -41.7 1.066e+04 3.625e-10
  2.21434    -41.8 1.041e+04 3.359e-10
  2.23090    -41.8 1.022e+04 3.082e-10
  2.25102    -41.9 9.982e+03 2.459e-10
  2.28462    -41.3 9.807e+03 2.376e-10
  2.32467    -40.3 9.606e+03 2.067e-10
  2.36472    -39.4 9.461e+03 1.656e-10
  2.40477    -38.6 9.324e+03 1.407e-10
  2.42955    -37.9 9.278e+03 1.357e-10
  2.44957    -38.6 9.227e+03 9.491e-11
  2.48486    -41.1 9.922e+03 1.335e-10
  2.52491    -45.1 1.163e+04 6.083e-10
  2.55337    -46.8 1.280e+04 1.945e-09
  2.56328    -47.0 1.304e+04 2.241e-09
  2.57478    -46.9 1.368e+04 3.160e-09
  2.59480    -47.9 1.506e+04 3.961e-09
  2.61482    -55.4 1.988e+04 5.564e-09
  2.62781    -67.9 2.385e+04 9.633e-09
  2.63782    -72.8 2.366e+04 1.438e-08
  2.65487    -82.0 2.200e+04 1.919e-08
  2.67490    -88.8 2.071e+04 2.037e-08
  2.69492    -94.2 1.952e+04 1.703e-08
  2.71495    -99.9 1.815e+04 1.010e-08
  2.72703   -105.5 1.599e+04 6.003e-09
  2.73704   -105.8 1.445e+04 2.645e-09
  2.75499   -109.0 1.352e+04 2.269e-09
  2.76535   -110.1 1.336e+04 2.234e-09
  2.77536   -110.1 1.315e+04 2.241e-09
  2.79504   -110.9 1.304e+04 2.358e-09
  2.81507   -111.4 1.299e+04 2.440e-09
  2.82626   -111.7 1.275e+04 2.454e-09
  2.83627   -111.4 1.205e+04 1.510e-09
  2.85512   -111.5 1.201e+04 1.615e-09
  2.87514   -111.5 1.195e+04 1.660e-09
  2.89516   -111.3 1.162e+04 1.645e-09
  2.91519   -111.0 1.143e+04 1.464e-09
  2.92548   -110.6 1.109e+04 1.245e-09
  2.93549   -110.3 1.108e+04 1.225e-09
  2.95524   -109.8 1.086e+04 1.086e-09
  2.96742   -109.2 1.065e+04 9.655e-10
  2.97743   -109.4 1.042e+04 8.102e-10
  2.99528   -108.9 1.028e+04 7.189e-10
  3.01470   -108.5 1.011e+04 6.258e-10
  3.02471   -108.2 1.023e+04 6.886e-10
  3.03533   -107.7 1.014e+04 6.401e-10
  3.05536   -107.2 1.013e+04 6.106e-10
  3.07538   -107.3 1.032e+04 6.124e-10
  3.09541   -108.3 1.133e+04 7.040e-10
  3.11392   -110.5 1.281e+04 1.051e-09
  3.12393   -112.8 1.399e+04 2.387e-09
  3.13545   -113.5 1.502e+04 4.275e-09
  3.15548   -113.4 1.592e+04 7.146e-09
  3.16949   -112.8 1.653e+04 1.004e-08
  3.17950   -112.6 1.588e+04 7.768e-09
  3.19553   -111.9 1.606e+04 8.305e-09
  3.21315   -111.3 1.601e+04 8.156e-09
  3.22316   -111.2 1.590e+04 7.836e-09
  3.23557   -110.4 1.533e+04 5.353e-09
  3.25560   -110.3 1.452e+04 3.150e-09
  3.27562   -111.7 1.346e+04 1.798e-09
  3.29565   -113.8 1.226e+04 1.127e-09
  3.31237   -115.4 1.140e+04 8.544e-10
  3.32239   -116.7 1.080e+04 6.192e-10
  3.33570   -116.9 1.075e+04 6.074e-10
  3.35572   -117.0 1.080e+04 6.168e-10
  3.37155   -117.2 1.091e+04 6.370e-10
  3.38157   -117.7 1.101e+04 6.926e-10
  3.39577   -117.9 1.112e+04 7.298e-10
  3.41160   -118.3 1.117e+04 7.483e-10
  3.42161   -118.9 1.114e+04 7.357e-10
  3.43582   -119.1 1.116e+04 7.415e-10
  3.45584   -119.2 1.115e+04 7.381e-10
  3.47587   -119.2 1.111e+04 7.041e-10
  3.49589   -119.0 1.103e+04 6.466e-10
  3.51082   -118.7 1.092e+04 5.842e-10
  3.52084   -118.7 1.090e+04 5.891e-10
  3.53594   -118.4 1.077e+04 5.192e-10
  3.55596   -118.0 1.065e+04 4.752e-10
  3.57362   -117.6 1.060e+04 4.593e-10
  3.58363   -117.8 1.058e+04 4.463e-10
  3.59601   -117.5 1.058e+04 4.441e-10
  3.61005   -117.2 1.064e+04 4.578e-10
  3.62006   -117.0 1.041e+04 4.061e-10
  3.63606   -116.8 1.058e+04 4.602e-10
  3.65608   -116.6 1.080e+04 5.655e-10
  3.67611   -116.2 1.105e+04 6.995e-10
  3.69613   -115.8 1.131e+04 8.314e-10
  3.70928   -115.4 1.154e+04 9.404e-10
  3.71929   -115.3 1.132e+04 8.633e-10
  3.73618   -115.0 1.146e+04 9.455e-10
  3.75620   -114.8 1.149e+04 9.669e-10
  3.77569   -114.4 1.143e+04 9.552e-10
  3.78570   -114.5 1.131e+04 8.898e-10
  3.79625   -113.9 1.104e+04 7.902e-10
  3.80850   -113.1 1.078e+04 6.578e-10
  3.81851   -113.1 1.075e+04 6.945e-10
  3.83630   -112.3 1.053e+04 5.636e-10
  3.85633   -111.5 1.034e+04 4.527e-10
  3.88646   -111.1 1.020e+04 3.724e-10
  3.92661   -110.3 9.995e+03 2.872e-10
  3.96665   -109.2 9.854e+03 2.282e-10
  3.99714   -108.1 9.856e+03 2.155e-10
  4.01716   -108.2 9.811e+03 2.215e-10
  4.04675   -107.5 9.874e+03 2.160e-10
  4.08680   -107.2 1.017e+04 2.727e-10
  4.12685   -106.9 1.064e+04 4.336e-10
  4.16690   -106.3 1.110e+04 7.061e-10
  4.19003   -105.7 1.146e+04 9.484e-10
  4.19870   -106.1 1.141e+04 9.175e-10
  4.21561   -105.9 1.144e+04 9.080e-10
  4.24699   -105.4 1.161e+04 9.950e-10
  4.28704   -105.2 1.164e+04 9.828e-10
  4.32709   -105.1 1.141e+04 7.807e-10
  4.36714   -105.2 1.126e+04 6.219e-10
  4.39404   -105.0 1.124e+04 5.865e-10
  4.41406   -104.7 1.180e+04 9.673e-10
  4.44723   -104.4 1.208e+04 1.024e-09
  4.48728   -104.1 1.236e+04 1.158e-09
  4.52733   -103.8 1.249e+04 1.252e-09
  4.56738   -103.1 1.249e+04 1.261e-09
  4.59249   -102.1 1.233e+04 1.150e-09
  4.59916   -101.8 1.231e+04 1.204e-09
  4.61410   -101.5 1.201e+04 9.897e-10
  4.64748    -99.9 1.181e+04 8.557e-10
  4.68752    -98.2 1.167e+04 7.580e-10
  4.72757    -96.6 1.171e+04 7.063e-10
  4.76762    -95.3 1.185e+04 6.548e-10
  4.79094    -94.8 1.212e+04 6.386e-10
  4.79944    -95.3 1.262e+04 1.039e-09
  4.80606    -95.2 1.263e+04 1.073e-09
  4.81749    -95.2 1.303e+04 1.386e-09
  4.83751    -95.3 1.320e+04 1.607e-09
  4.85754    -95.4 1.350e+04 1.955e-09
  4.87756    -95.4 1.374e+04 2.263e-09
  4.88997    -95.5 1.383e+04 2.397e-09
  4.89998    -95.5 1.478e+04 4.012e-09
  4.91761    -95.5 1.470e+04 3.877e-09
  4.93763    -95.4 1.436e+04 3.110e-09
  4.95766    -95.5 1.396e+04 2.293e-09
  4.97768    -96.0 1.350e+04 1.669e-09
  4.98930    -96.6 1.295e+04 1.215e-09
  4.99931    -97.3 1.334e+04 1.436e-09
  5.00812    -97.9 1.297e+04 1.178e-09
  5.01814    -97.1 1.306e+04 1.245e-09
  5.03775    -97.3 1.280e+04 1.050e-09
  5.05778    -97.4 1.265e+04 9.259e-10
  5.08791    -97.7 1.254e+04 8.225e-10
  5.12806    -97.6 1.245e+04 7.553e-10
  5.16782    -98.6 1.301e+04 8.067e-10
  5.18785    -98.6 1.243e+04 7.113e-10
  5.19804   -100.3 1.310e+04 9.332e-10
  5.21019   -101.1 1.341e+04 1.159e-09
  5.22021   -100.9 1.349e+04 1.118e-09
  5.23799   -102.1 1.402e+04 1.593e-09
  5.25802   -103.2 1.433e+04 2.439e-09
  5.27686   -103.7 1.440e+04 3.227e-09
  5.28688   -103.0 1.417e+04 2.479e-09
  5.29807   -103.6 1.429e+04 3.116e-09
  5.31809   -104.0 1.431e+04 3.318e-09
  5.33812   -104.6 1.416e+04 3.259e-09
  5.35814   -105.6 1.381e+04 2.557e-09
  5.37609   -106.9 1.331e+04 1.758e-09
  5.38610   -106.5 1.365e+04 2.483e-09
  5.39819   -107.9 1.308e+04 1.713e-09
  5.41226   -109.3 1.245e+04 1.178e-09
  5.42227   -109.2 1.255e+04 1.170e-09
  5.43824   -110.5 1.188e+04 8.115e-10
  5.45826   -111.4 1.142e+04 6.307e-10
  5.47531   -111.9 1.116e+04 5.487e-10
  5.48533   -112.4 1.132e+04 5.791e-10
  5.49831   -112.9 1.115e+04 5.301e-10
  5.51833   -113.2 1.107e+04 5.139e-10
  5.53836   -113.3 1.105e+04 5.068e-10
  5.55838   -113.3 1.104e+04 4.863e-10
  5.57454   -113.1 1.099e+04 4.491e-10
  5.58455   -113.6 1.090e+04 3.993e-10
  5.60854   -113.4 1.080e+04 3.183e-10
  5.64869   -113.0 1.070e+04 2.706e-10
  5.68873   -112.2 1.042e+04 2.126e-10
  5.72878   -111.0 1.008e+04 1.670e-10
  5.76318   -109.5 9.803e+03 1.377e-10
  5.78320   -110.1 9.739e+03 1.258e-10
  5.80658   -108.3 9.657e+03 1.177e-10
  5.82661   -107.0 9.580e+03 1.035e-10
  5.84893   -105.0 9.564e+03 1.007e-10
  5.88898   -103.0 9.574e+03 1.006e-10
  5.92902   -101.1 9.702e+03 1.052e-10
  5.96163    -99.4 9.831e+03 1.374e-10
  5.98165    -99.9 1.034e+04 2.388e-10
  6.00912    -98.0 1.056e+04 3.431e-10
  6.04917    -96.0 1.084e+04 4.913e-10
  6.08922    -94.0 1.118e+04 6.721e-10
  6.12927    -92.2 1.155e+04 8.672e-10
  6.16008    -90.6 1.194e+04 1.031e-09
  6.18010    -92.1 1.278e+04 1.628e-09
  6.19925    -90.5 1.306e+04 2.172e-09
  6.21918    -89.6 1.326e+04 2.474e-09
  6.23055    -88.7 1.337e+04 2.640e-09
  6.24056    -88.5 1.373e+04 3.159e-09
  6.25911    -87.6 1.375e+04 3.206e-09
  6.26912    -88.1 1.404e+04 3.559e-09
  6.27925    -86.9 1.388e+04 3.446e-09
  6.29928    -85.6 1.350e+04 2.928e-09
  6.31930    -84.4 1.304e+04 2.285e-09
  6.33933    -83.5 1.254e+04 1.721e-09
  6.35843    -82.6 1.202e+04 1.279e-09
  6.36844    -82.9 1.224e+04 1.400e-09
  6.37937    -82.2 1.190e+04 1.147e-09
  6.40951    -81.3 1.161e+04 9.347e-10
  6.44965    -78.5 1.105e+04 6.804e-10
  6.48970    -75.5 1.044e+04 4.911e-10
  6.52975    -72.5 1.010e+04 3.787e-10
  6.55698    -69.5 9.843e+03 3.104e-10
  6.57701    -70.3 9.996e+03 3.210e-10
  6.60985    -67.3 9.778e+03 2.676e-10
  6.63488    -64.2 9.606e+03 2.392e-10
  6.65490    -64.3 9.339e+03 1.828e-10
  6.68994    -61.2 9.168e+03 1.596e-10
  6.72999    -58.2 9.156e+03 1.497e-10
  6.75543    -55.7 9.319e+03 1.491e-10
  6.77546    -59.4 1.162e+04 3.387e-10
  6.81009    -57.9 1.250e+04 5.526e-10
  6.85014    -56.3 1.321e+04 1.049e-09
  6.88008    -55.3 1.415e+04 2.254e-09
  6.90000    -54.4 1.433e+04 2.789e-09
  6.92003    -53.4 1.446e+04 3.477e-09
  6.94005    -52.4 1.442e+04 3.561e-09
  6.95369    -51.2 1.430e+04 3.452e-09
  6.96370    -52.0 1.440e+04 3.378e-09
  6.98010    -51.1 1.391e+04 2.495e-09
  7.00012    -50.7 1.319e+04 1.608e-09
  7.02015    -50.8 1.228e+04 9.522e-10
  7.03882    -51.6 1.121e+04 5.536e-10
  7.04883    -48.6 1.261e+04 9.673e-10
  7.05291    -49.7 1.121e+04 5.176e-10
  7.06293    -54.1 9.580e+03 2.470e-10
  7.08022    -56.3 9.589e+03 2.317e-10
  7.10025    -60.8 1.046e+04 3.103e-10
  7.12027    -65.9 1.161e+04 6.140e-10
  7.14029    -69.4 1.260e+04 1.308e-09
  7.15214    -72.1 1.349e+04 2.148e-09
  7.16215    -75.9 1.350e+04 2.242e-09
  7.18034    -79.3 1.361e+04 2.323e-09
  7.20037    -83.6 1.305e+04 1.792e-09
  7.22039    -88.3 1.192e+04 1.208e-09
  7.24041    -92.2 1.100e+04 8.746e-10
  7.25090    -94.9 1.046e+04 7.231e-10
  7.25184    -95.1 1.014e+04 6.681e-10
  7.26138    -96.5 9.851e+03 5.512e-10
  7.28046    -97.8 9.797e+03 5.440e-10
  7.30049    -99.1 9.793e+03 5.570e-10
  7.32051   -100.2 9.840e+03 5.795e-10
  7.34054   -101.3 9.965e+03 6.111e-10
  7.36056   -102.8 1.019e+04 6.557e-10
  7.38058   -104.0 1.050e+04 7.064e-10
  7.40061   -105.2 1.076e+04 7.399e-10
  7.42063   -106.2 1.081e+04 7.559e-10
  7.43980   -107.1 1.080e+04 7.607e-10
  7.44982   -106.6 1.068e+04 7.127e-10
  7.45297   -108.8 1.083e+04 7.346e-10
  7.46298   -106.5 1.058e+04 6.760e-10
  7.48071   -111.0 1.174e+04 8.194e-10
  7.50073   -117.8 1.481e+04 1.900e-09
  7.52075   -123.1 1.706e+04 4.787e-09
  7.53903   -127.4 1.849e+04 8.718e-09
  7.54904   -126.4 1.816e+04 8.951e-09
  7.56080   -131.0 1.869e+04 1.014e-08
  7.58083   -136.9 1.856e+04 9.493e-09
  7.60085   -143.3 1.686e+04 6.425e-09
  7.62087   -148.4 1.488e+04 4.464e-09
  7.63826   -150.9 1.401e+04 3.659e-09
  7.64827   -150.2 1.342e+04 2.900e-09
  7.65504   -151.0 1.320e+04 2.683e-09
  7.66505   -151.3 1.301e+04 2.212e-09
  7.68095   -151.7 1.283e+04 2.007e-09
  7.70097   -151.9 1.253e+04 1.698e-09
  7.72100   -152.0 1.210e+04 1.339e-09
  7.73748   -151.9 1.163e+04 1.004e-09
  7.74749   -151.0 1.170e+04 9.760e-10
  7.76104   -150.9 1.130e+04 7.336e-10
  7.78107   -150.9 1.091e+04 5.430e-10
  7.80109   -150.8 1.055e+04 4.097e-10
  7.82112   -150.7 1.028e+04 3.398e-10
  7.84719   -150.1 1.012e+04 3.091e-10
  7.86731   -150.1 1.015e+04 2.900e-10
  7.89140   -149.1 9.875e+03 2.560e-10
  7.92612   -148.1 9.754e+03 2.427e-10
  7.94614   -147.0 1.006e+04 3.048e-10
  7.97149   -146.3 1.006e+04 3.097e-10
  8.01154   -145.7 1.011e+04 3.377e-10
  8.05159   -145.1 1.013e+04 3.719e-10
  8.09164   -144.3 1.012e+04 3.908e-10
  8.12457   -143.2 1.009e+04 3.916e-10
  8.14459   -142.7 1.022e+04 4.219e-10
  8.17174   -141.5 1.005e+04 3.737e-10
  8.21178   -140.2 9.870e+03 3.166e-10
  8.25143   -138.8 9.671e+03 2.609e-10
  8.27145   -138.3 9.826e+03 2.914e-10
  8.29188   -136.8 9.655e+03 2.512e-10
  8.32302   -135.2 9.555e+03 2.265e-10
  8.34304   -134.4 9.568e+03 2.299e-10
  8.37198   -132.8 9.545e+03 2.197e-10
  8.41203   -131.1 9.545e+03 2.170e-10
  8.45207   -129.6 9.571e+03 2.186e-10
  8.49212   -128.1 9.631e+03 2.294e-10
  8.52147   -126.7 9.739e+03 2.527e-10
  8.54150   -126.1 9.866e+03 2.458e-10
  8.57222   -124.8 1.012e+04 3.126e-10
  8.61227   -123.6 1.042e+04 4.064e-10
  8.65232   -122.6 1.070e+04 4.855e-10
  8.67559   -121.8 1.080e+04 5.087e-10
  8.69561   -120.7 1.079e+04 5.235e-10
  8.71992   -119.8 1.079e+04 5.174e-10
  8.73995   -119.6 1.099e+04 5.871e-10
  8.77246   -118.5 1.083e+04 5.261e-10
  8.81251   -117.2 1.062e+04 4.366e-10
  8.85256   -115.9 1.046e+04 3.617e-10
  8.89261   -114.7 1.024e+04 3.020e-10
  8.91837   -113.2 9.938e+03 2.489e-10
  8.93840   -113.2 9.982e+03 2.602e-10
  8.97270   -111.6 9.722e+03 2.158e-10
  9.01275   -109.9 9.606e+03 1.939e-10
  9.05280   -108.4 9.601e+03 1.899e-10
  9.07972   -107.3 9.738e+03 2.063e-10
  9.09975   -106.7 9.738e+03 2.269e-10
  9.11683   -105.7 9.816e+03 2.482e-10
  9.13685   -106.3 1.002e+04 3.158e-10
  9.17295   -105.5 1.020e+04 3.811e-10
  9.21299   -104.8 1.041e+04 4.694e-10
  9.25304   -104.3 1.055e+04 5.612e-10
  9.29309   -104.0 1.062e+04 6.287e-10
  9.31528   -103.7 1.059e+04 6.624e-10
  9.33530   -104.0 1.035e+04 5.724e-10
  9.37319   -103.4 1.016e+04 5.389e-10
  9.41324   -102.8 9.969e+03 5.027e-10
  9.45328   -102.2 9.763e+03 4.486e-10
  9.48386   -101.6 9.539e+03 3.819e-10
  9.50388   -100.8 9.645e+03 4.125e-10
  9.51373   -100.3 9.471e+03 3.646e-10
  9.53375   -100.1 9.487e+03 3.677e-10
  9.57343    -99.6 9.456e+03 3.570e-10
  9.61348    -99.3 9.508e+03 3.663e-10
  9.65353    -99.1 9.638e+03 4.109e-10
  9.69216    -98.8 9.755e+03 4.549e-10
  9.71218    -98.8 9.857e+03 4.835e-10
  9.73362    -98.8 9.847e+03 4.873e-10
  9.77367    -98.5 9.636e+03 4.405e-10
  9.81372    -97.8 9.276e+03 3.457e-10
  9.85377    -97.1 8.916e+03 2.593e-10
  9.88800    -96.3 8.689e+03 2.090e-10
  9.90481    -94.8 8.747e+03 2.197e-10
  9.91063    -94.6 8.507e+03 1.802e-10
  9.93386    -93.7 8.353e+03 1.537e-10
  9.97391    -92.8 8.287e+03 1.421e-10
 10.01396    -92.0 8.264e+03 1.381e-10
 10.05401    -91.5 8.335e+03 1.416e-10
 10.08906    -91.3 8.494e+03 1.558e-10
 10.10908    -90.8 8.034e+03 1.028e-10
 10.13411    -91.2 8.754e+03 1.423e-10
 10.16405    -93.0 1.001e+04 2.022e-10
 10.18397   -104.8 1.602e+04 5.275e-10
 10.19810   -113.5 1.851e+04 3.841e-09
 10.20811   -111.8 1.803e+04 3.389e-09
 10.22402   -117.0 2.032e+04 1.282e-08
 10.23899   -120.9 2.204e+04 2.665e-08
 10.24762   -124.1 2.363e+04 3.594e-08
 10.25262   -123.6 2.409e+04 4.382e-08
 10.25896   -127.6 2.506e+04 4.992e-08
 10.26898   -132.4 2.535e+04 4.870e-08
 10.27899   -137.5 2.543e+04 3.056e-08
 10.28900   -143.6 2.319e+04 1.393e-08
 10.29723   -150.2 1.893e+04 6.397e-09
 10.30223   -149.7 1.934e+04 7.256e-09
 10.30686   -154.7 1.561e+04 3.963e-09
 10.31186   -157.0 1.471e+04 3.557e-09
 10.32409   -158.8 1.366e+04 2.668e-09
 10.34417   -159.6 1.314e+04 2.109e-09
 10.36419   -161.0 1.207e+04 1.420e-09
 10.38421   -161.7 1.123e+04 1.047e-09
 10.39655   -161.8 1.092e+04 8.705e-10
 10.40656   -161.6 1.079e+04 7.706e-10
 10.42426   -161.5 1.060e+04 6.473e-10
 10.44429   -161.3 1.042e+04 5.452e-10
 10.46431   -161.3 1.028e+04 4.657e-10
 10.48433   -161.4 1.017e+04 4.099e-10
 10.49578   -161.5 1.012e+04 3.786e-10
 10.50589   -161.5 1.005e+04 3.464e-10
 10.53459   -161.5 1.010e+04 3.513e-10
 10.57464   -161.5 1.017e+04 3.787e-10
 10.61469   -161.5 1.020e+04 4.038e-10
 10.65474   -161.4 1.020e+04 4.088e-10
 10.68441   -161.3 1.007e+04 3.758e-10
 10.70444   -160.3 1.001e+04 3.740e-10
 10.71629   -159.5 9.785e+03 3.113e-10
 10.73632   -159.5 9.558e+03 2.612e-10
 10.77488   -158.3 9.261e+03 1.959e-10
 10.81493   -156.8 9.001e+03 1.443e-10
 10.85498   -155.3 8.839e+03 1.113e-10
 10.88286   -153.7 8.807e+03 9.436e-11
 10.90289   -152.3 8.855e+03 9.656e-11
 10.93507   -150.7 8.839e+03 8.774e-11
 10.97512   -149.3 8.842e+03 8.662e-11
 11.01517   -148.1 8.951e+03 8.870e-11
 11.05522   -147.1 9.213e+03 1.192e-10
 11.08132   -146.0 9.463e+03 1.866e-10
 11.10134   -144.8 9.463e+03 1.689e-10
 11.12043   -143.8 9.694e+03 2.562e-10
 11.14046   -142.8 9.505e+03 2.024e-10
 11.17537   -141.6 9.677e+03 2.718e-10
 11.21541   -140.5 9.780e+03 3.107e-10
 11.25546   -139.3 9.789e+03 3.190e-10
 11.27977   -137.8 9.643e+03 2.956e-10
 11.29979   -137.0 9.837e+03 3.393e-10
 11.33556   -135.3 9.601e+03 2.686e-10
 11.37561   -133.6 9.410e+03 2.043e-10
 11.41566   -132.0 9.327e+03 1.705e-10
 11.45570   -130.5 9.326e+03 1.606e-10
 11.47822   -129.3 9.397e+03 1.612e-10
 11.49824   -129.1 9.620e+03 1.987e-10
 11.52457   -128.1 1.000e+04 2.548e-10
 11.54459   -126.8 9.563e+03 1.944e-10
 11.57585   -125.9 9.934e+03 2.415e-10
 11.61590   -125.0 1.025e+04 3.399e-10
 11.65595   -124.0 1.046e+04 4.357e-10
 11.67667   -123.1 1.057e+04 4.911e-10
 11.69669   -123.0 1.062e+04 4.976e-10
 11.73604   -122.1 1.065e+04 5.120e-10
 11.77609   -121.4 1.070e+04 5.150e-10
 11.81614   -120.8 1.083e+04 5.482e-10
