# Columns:
#   distance along LOS (in CHIMPs)
#   peculiar velocity  (in km/s)
#   temperature (K)
#   HI number density
# pos=(128.857,45.1045,242.121), angles=(0.30008,0.102347)
  0.01078   -229.8 1.054e+04 4.447e-10
  0.04200   -228.2 1.023e+04 3.593e-10
  0.06948   -226.6 9.966e+03 2.910e-10
  0.08993   -225.3 1.001e+04 2.815e-10
  0.12378   -223.7 9.772e+03 2.261e-10
  0.16467   -222.2 9.572e+03 1.863e-10
  0.19724   -220.6 9.436e+03 1.619e-10
  0.21768   -219.2 9.436e+03 1.516e-10
  0.24645   -217.6 9.345e+03 1.354e-10
  0.28734   -216.1 9.311e+03 1.309e-10
  0.32500   -214.6 9.309e+03 1.309e-10
  0.34544   -213.3 9.274e+03 1.198e-10
  0.36912   -211.7 9.272e+03 1.207e-10
  0.41001   -210.2 9.315e+03 1.317e-10
  0.45090   -208.8 9.398e+03 1.507e-10
  0.47320   -207.4 9.486e+03 1.704e-10
  0.49364   -206.0 9.417e+03 1.534e-10
  0.53268   -204.5 9.520e+03 1.731e-10
  0.57357   -203.1 9.619e+03 1.885e-10
  0.60095   -201.9 9.717e+03 1.992e-10
  0.62140   -200.5 9.693e+03 1.945e-10
  0.65535   -199.5 9.837e+03 2.046e-10
  0.69624   -198.9 1.002e+04 2.204e-10
  0.72871   -198.5 1.026e+04 2.553e-10
  0.74699   -197.1 1.023e+04 2.429e-10
  0.75541   -196.7 1.015e+04 2.126e-10
  0.77802   -196.6 1.063e+04 2.986e-10
  0.81891   -197.2 1.115e+04 4.746e-10
  0.85646   -198.4 1.163e+04 7.238e-10
  0.87691   -196.7 1.184e+04 8.188e-10
  0.90069   -198.5 1.219e+04 1.074e-09
  0.94158   -200.9 1.225e+04 1.166e-09
  0.98247   -203.4 1.217e+04 1.172e-09
  1.00467   -205.3 1.170e+04 1.029e-09
  1.02511   -204.1 1.157e+04 9.577e-10
  1.06425   -205.4 1.099e+04 7.194e-10
  1.10514   -206.0 1.066e+04 5.835e-10
  1.13242   -206.7 1.043e+04 5.025e-10
  1.14255   -205.1 1.040e+04 4.918e-10
  1.15605   -205.3 1.033e+04 4.721e-10
  1.17650   -205.5 1.026e+04 4.532e-10
  1.19610   -205.8 1.021e+04 4.354e-10
  1.20633   -205.0 1.027e+04 4.400e-10
  1.21739   -205.2 1.025e+04 4.255e-10
  1.23783   -205.7 1.026e+04 4.211e-10
  1.26008   -206.7 1.027e+04 4.140e-10
  1.28062   -205.6 1.033e+04 4.241e-10
  1.30959   -206.5 1.045e+04 4.256e-10
  1.35048   -208.1 1.056e+04 4.370e-10
  1.38793   -209.2 1.042e+04 4.214e-10
  1.40838   -209.5 1.087e+04 5.253e-10
  1.43226   -211.2 1.078e+04 5.299e-10
  1.47315   -213.5 1.121e+04 6.421e-10
  1.51404   -215.6 1.150e+04 7.635e-10
  1.53614   -217.3 1.150e+04 7.791e-10
  1.54626   -218.1 1.197e+04 1.049e-09
  1.56495   -219.3 1.184e+04 1.018e-09
  1.59572   -221.1 1.214e+04 1.183e-09
  1.63670   -222.7 1.217e+04 1.233e-09
  1.66379   -224.0 1.264e+04 1.642e-09
  1.67392   -224.3 1.283e+04 1.943e-09
  1.68762   -224.4 1.327e+04 2.401e-09
  1.70807   -224.4 1.380e+04 2.986e-09
  1.72757   -224.4 1.437e+04 3.701e-09
  1.73780   -224.7 1.469e+04 4.097e-09
  1.74896   -224.8 1.514e+04 4.792e-09
  1.76940   -225.1 1.536e+04 5.124e-09
  1.78985   -225.7 1.539e+04 5.175e-09
  1.80167   -225.9 1.510e+04 4.793e-09
  1.81190   -226.2 1.509e+04 4.847e-09
  1.83074   -226.1 1.444e+04 3.688e-09
  1.85118   -225.8 1.358e+04 2.527e-09
  1.86555   -225.4 1.269e+04 1.690e-09
  1.87577   -225.5 1.263e+04 1.689e-09
  1.89207   -224.9 1.195e+04 1.183e-09
  1.91251   -224.3 1.146e+04 9.017e-10
  1.92943   -223.5 1.106e+04 7.006e-10
  1.93965   -223.1 1.089e+04 6.550e-10
  1.95340   -222.2 1.064e+04 5.408e-10
  1.97385   -221.3 1.048e+04 4.628e-10
  2.00461   -220.5 1.028e+04 3.911e-10
  2.03592   -218.5 9.918e+03 2.974e-10
  2.05636   -218.5 9.804e+03 2.733e-10
  2.06760   -216.3 9.572e+03 2.237e-10
  2.08805   -215.8 9.567e+03 2.260e-10
  2.12738   -213.8 9.462e+03 1.979e-10
  2.16827   -211.9 9.431e+03 1.824e-10
  2.19536   -210.0 9.437e+03 1.728e-10
  2.21581   -209.4 9.347e+03 1.649e-10
  2.25005   -207.5 9.359e+03 1.593e-10
  2.29094   -205.7 9.362e+03 1.585e-10
  2.32312   -203.9 9.424e+03 1.618e-10
  2.34356   -203.0 9.293e+03 1.489e-10
  2.37272   -201.2 9.382e+03 1.528e-10
  2.41361   -199.5 9.513e+03 1.723e-10
  2.45087   -197.7 9.665e+03 2.067e-10
  2.47132   -196.7 9.556e+03 1.736e-10
  2.49539   -194.9 9.715e+03 2.147e-10
  2.53628   -193.3 9.951e+03 2.749e-10
  2.57717   -191.6 1.026e+04 3.486e-10
  2.59907   -190.0 1.058e+04 4.197e-10
  2.61952   -189.4 1.034e+04 3.822e-10
  2.65895   -187.9 1.070e+04 4.741e-10
  2.68630   -186.5 1.074e+04 4.793e-10
  2.69642   -186.6 1.083e+04 5.415e-10
  2.70987   -186.4 1.101e+04 6.089e-10
  2.72663   -186.1 1.121e+04 6.841e-10
  2.73686   -185.2 1.102e+04 6.419e-10
  2.75075   -185.0 1.114e+04 6.971e-10
  2.77120   -184.7 1.120e+04 7.305e-10
  2.79051   -184.4 1.121e+04 7.360e-10
  2.80074   -183.6 1.104e+04 6.763e-10
  2.81209   -183.2 1.105e+04 6.778e-10
  2.83253   -182.8 1.102e+04 6.601e-10
  2.85298   -182.2 1.095e+04 6.348e-10
  2.86461   -181.6 1.088e+04 6.048e-10
  2.87484   -180.6 1.066e+04 5.360e-10
  2.89387   -179.9 1.063e+04 5.065e-10
  2.91431   -179.3 1.066e+04 4.839e-10
  2.94508   -178.2 1.069e+04 4.615e-10
  2.98234   -177.7 1.074e+04 4.409e-10
  3.00279   -175.7 1.049e+04 4.042e-10
  3.02696   -174.4 1.046e+04 3.787e-10
  3.06785   -172.7 1.036e+04 3.361e-10
  3.10874   -171.0 1.023e+04 2.860e-10
  3.13054   -169.1 1.009e+04 2.388e-10
  3.15099   -167.1 1.011e+04 2.623e-10
  3.19051   -165.2 9.985e+03 2.051e-10
  3.23140   -163.2 9.878e+03 1.679e-10
  3.25830   -161.2 9.791e+03 1.464e-10
  3.27874   -159.2 9.804e+03 1.470e-10
  3.31318   -157.2 9.702e+03 1.298e-10
  3.33687   -155.3 9.607e+03 1.225e-10
  3.35731   -154.6 9.561e+03 1.125e-10
  3.38606   -152.7 9.517e+03 1.117e-10
  3.40650   -150.7 9.498e+03 1.092e-10
  3.43585   -148.9 9.457e+03 1.088e-10
  3.47674   -147.1 9.390e+03 1.154e-10
  3.51381   -145.4 9.356e+03 1.259e-10
  3.53426   -143.5 9.283e+03 1.129e-10
  3.55852   -141.8 9.239e+03 1.208e-10
  3.59941   -140.3 9.222e+03 1.312e-10
  3.64030   -138.8 9.240e+03 1.427e-10
  3.66201   -137.6 9.315e+03 1.561e-10
  3.68246   -135.7 9.119e+03 1.390e-10
  3.72208   -134.8 9.191e+03 1.498e-10
  3.76297   -134.2 9.345e+03 1.690e-10
  3.78977   -133.8 9.660e+03 2.122e-10
  3.81021   -132.0 9.394e+03 1.694e-10
  3.84475   -131.9 9.726e+03 2.107e-10
  3.87532   -132.0 9.919e+03 2.360e-10
  3.89567   -132.0 9.943e+03 2.496e-10
  3.91611   -132.5 1.018e+04 3.022e-10
  3.92755   -134.0 1.079e+04 4.065e-10
  3.93777   -132.3 9.956e+03 2.660e-10
  3.95700   -134.5 1.098e+04 4.318e-10
  3.97693   -137.0 1.267e+04 8.356e-10
  3.98715   -137.7 1.364e+04 1.360e-09
  3.99143   -139.7 1.461e+04 2.647e-09
  4.00165   -138.0 1.342e+04 1.415e-09
  4.01834   -139.8 1.410e+04 2.488e-09
  4.03878   -141.3 1.451e+04 3.831e-09
  4.05531   -143.1 1.517e+04 5.183e-09
  4.06553   -142.8 1.469e+04 3.814e-09
  4.07967   -147.6 1.710e+04 5.727e-09
  4.10012   -155.5 2.042e+04 8.372e-09
  4.11919   -166.2 2.292e+04 1.336e-08
  4.12936   -169.6 2.373e+04 2.090e-08
  4.13580   -174.8 2.410e+04 2.915e-08
  4.14602   -179.6 2.405e+04 3.756e-08
  4.15614   -184.2 2.383e+04 4.135e-08
  4.16125   -185.0 2.404e+04 4.711e-08
  4.16646   -188.8 2.313e+04 4.596e-08
  4.17669   -191.5 2.204e+04 3.612e-08
  4.18691   -193.6 2.109e+04 2.542e-08
  4.19319   -195.4 2.027e+04 1.734e-08
  4.19830   -196.8 2.045e+04 1.540e-08
  4.20735   -198.8 1.960e+04 1.040e-08
  4.21758   -200.8 1.868e+04 7.290e-09
  4.22513   -202.6 1.775e+04 5.395e-09
  4.23024   -204.2 1.757e+04 5.189e-09
  4.23802   -204.9 1.695e+04 4.303e-09
  4.24824   -205.3 1.663e+04 3.891e-09
  4.25712   -206.2 1.578e+04 3.107e-09
  4.26739   -208.7 1.662e+04 3.779e-09
  4.28412   -209.3 1.516e+04 2.786e-09
  4.30457   -209.3 1.415e+04 2.166e-09
  4.32104   -208.9 1.382e+04 1.874e-09
  4.33127   -210.3 1.466e+04 2.697e-09
  4.34546   -209.7 1.409e+04 2.322e-09
  4.36590   -209.0 1.349e+04 2.046e-09
  4.38492   -208.3 1.303e+04 1.886e-09
  4.39514   -208.7 1.346e+04 2.474e-09
  4.40679   -207.6 1.307e+04 2.274e-09
  4.42723   -206.5 1.290e+04 2.217e-09
  4.44768   -205.4 1.284e+04 2.217e-09
  4.45902   -204.3 1.283e+04 2.341e-09
  4.46924   -204.3 1.290e+04 2.400e-09
  4.48857   -203.1 1.284e+04 2.436e-09
  4.50901   -202.0 1.294e+04 2.491e-09
  4.52290   -200.9 1.303e+04 2.544e-09
  4.53312   -200.8 1.280e+04 2.258e-09
  4.54990   -199.7 1.284e+04 2.220e-09
  4.57035   -198.9 1.288e+04 2.198e-09
  4.58678   -198.2 1.296e+04 2.190e-09
  4.59700   -197.9 1.250e+04 1.750e-09
  4.61124   -197.2 1.250e+04 1.739e-09
  4.62740   -196.6 1.268e+04 1.756e-09
  4.63762   -197.3 1.331e+04 2.661e-09
  4.65066   -196.8 1.349e+04 2.820e-09
  4.66088   -196.2 1.312e+04 2.314e-09
  4.67257   -195.7 1.340e+04 2.567e-09
  4.69302   -195.1 1.368e+04 2.895e-09
  4.71346   -194.3 1.391e+04 3.218e-09
  4.72476   -193.5 1.406e+04 3.385e-09
  4.73498   -193.0 1.399e+04 3.178e-09
  4.75435   -192.1 1.417e+04 3.443e-09
  4.77480   -191.2 1.426e+04 3.524e-09
  4.78863   -190.1 1.433e+04 3.561e-09
  4.79886   -189.6 1.430e+04 3.600e-09
  4.81569   -188.4 1.438e+04 3.652e-09
  4.83613   -187.1 1.446e+04 3.738e-09
  4.85251   -185.8 1.457e+04 3.829e-09
  4.86273   -185.1 1.456e+04 3.879e-09
  4.87702   -184.0 1.483e+04 4.125e-09
  4.89747   -183.5 1.534e+04 4.659e-09
  4.91639   -183.3 1.616e+04 5.776e-09
  4.92661   -182.8 1.663e+04 6.323e-09
  4.93836   -182.7 1.807e+04 9.517e-09
  4.95880   -182.7 1.951e+04 1.455e-08
  4.97925   -183.1 2.049e+04 2.017e-08
  4.99049   -184.3 2.078e+04 2.334e-08
  5.00071   -184.4 2.106e+04 2.368e-08
  5.02014   -186.0 2.082e+04 2.383e-08
  5.04058   -186.4 1.979e+04 1.892e-08
  5.05437   -186.5 1.866e+04 1.331e-08
  5.06459   -186.5 1.880e+04 1.173e-08
  5.08147   -186.8 1.752e+04 7.469e-09
  5.10192   -186.9 1.643e+04 4.664e-09
  5.11825   -187.1 1.546e+04 2.538e-09
  5.12847   -188.0 1.594e+04 2.537e-09
  5.14281   -188.1 1.489e+04 1.371e-09
  5.16325   -188.2 1.426e+04 7.792e-10
  5.18212   -188.0 1.358e+04 4.851e-10
  5.19235   -188.7 1.447e+04 5.607e-10
  5.20414   -188.1 1.342e+04 3.995e-10
  5.22458   -187.4 1.262e+04 3.520e-10
  5.24503   -186.7 1.216e+04 3.314e-10
  5.25623   -185.5 1.202e+04 3.185e-10
  5.26645   -185.6 1.218e+04 3.372e-10
  5.27788   -184.1 1.204e+04 3.149e-10
  5.28810   -184.1 1.199e+04 3.306e-10
  5.30636   -182.3 1.195e+04 3.287e-10
  5.32010   -180.6 1.198e+04 3.292e-10
  5.33033   -180.6 1.203e+04 3.257e-10
  5.35757   -179.4 1.207e+04 3.217e-10
  5.38418   -177.2 1.206e+04 3.218e-10
  5.40462   -177.1 1.215e+04 3.005e-10
  5.43945   -174.7 1.204e+04 2.878e-10
  5.48034   -172.5 1.186e+04 2.755e-10
  5.51193   -170.4 1.165e+04 2.634e-10
  5.53238   -170.1 1.177e+04 2.594e-10
  5.56212   -168.3 1.164e+04 2.481e-10
  5.60301   -166.8 1.154e+04 2.339e-10
  5.63969   -165.5 1.149e+04 2.205e-10
  5.66013   -169.2 1.491e+04 4.537e-10
  5.68479   -168.4 1.469e+04 5.945e-10
  5.72568   -166.9 1.416e+04 7.887e-10
  5.76657   -165.3 1.362e+04 9.239e-10
  5.78789   -163.6 1.329e+04 9.514e-10
  5.79801   -164.9 1.406e+04 1.767e-09
  5.81749   -164.2 1.393e+04 1.713e-09
  5.84825   -163.6 1.387e+04 1.689e-09
  5.88924   -161.4 1.341e+04 1.449e-09
  5.91565   -159.2 1.327e+04 1.390e-09
  5.92419   -160.5 1.361e+04 1.773e-09
  5.92835   -160.4 1.398e+04 2.405e-09
  5.94016   -159.0 1.383e+04 2.311e-09
  5.96060   -157.9 1.375e+04 2.243e-09
  5.97933   -156.7 1.371e+04 2.192e-09
  5.98955   -157.2 1.345e+04 2.089e-09
  6.00149   -156.0 1.330e+04 1.937e-09
  6.02193   -154.8 1.321e+04 1.752e-09
  6.04238   -153.8 1.309e+04 1.554e-09
  6.05343   -152.7 1.291e+04 1.391e-09
  6.06365   -153.1 1.259e+04 1.050e-09
  6.08327   -152.0 1.250e+04 9.825e-10
  6.10371   -151.2 1.241e+04 9.077e-10
  6.13448   -150.3 1.222e+04 7.763e-10
  6.17116   -147.9 1.188e+04 6.620e-10
  6.19160   -148.6 1.148e+04 4.153e-10
  6.21636   -146.3 1.128e+04 3.838e-10
  6.25725   -144.0 1.107e+04 3.460e-10
  6.29814   -141.6 1.091e+04 3.095e-10
  6.31936   -139.1 1.076e+04 2.717e-10
  6.33980   -139.6 1.067e+04 2.239e-10
  6.37992   -137.2 1.058e+04 2.022e-10
  6.42081   -134.8 1.052e+04 1.837e-10
  6.44712   -132.6 1.049e+04 1.722e-10
  6.46756   -133.2 1.049e+04 1.707e-10
  6.50258   -131.1 1.049e+04 1.685e-10
  6.54347   -129.2 1.052e+04 1.680e-10
  6.57487   -127.4 1.054e+04 1.731e-10
  6.59532   -127.9 1.045e+04 1.745e-10
  6.62525   -126.1 1.040e+04 1.770e-10
  6.66614   -124.2 1.037e+04 1.785e-10
  6.70263   -122.3 1.034e+04 1.813e-10
  6.72307   -122.3 1.026e+04 1.714e-10
  6.74792   -120.3 1.028e+04 1.787e-10
  6.78881   -118.3 1.034e+04 1.995e-10
  6.82970   -116.3 1.043e+04 2.321e-10
  6.85083   -114.3 1.054e+04 2.715e-10
  6.87127   -113.9 1.055e+04 2.730e-10
  6.91148   -111.8 1.067e+04 3.118e-10
  6.95237   -109.7 1.077e+04 3.427e-10
  6.97858   -107.5 1.079e+04 3.580e-10
  6.99903   -107.0 1.076e+04 3.548e-10
  7.03415   -104.6 1.072e+04 3.445e-10
  7.07504   -102.3 1.070e+04 3.360e-10
  7.10634   -100.1 1.073e+04 3.362e-10
  7.12679    -99.0 1.065e+04 3.279e-10
  7.15682    -97.2 1.111e+04 3.520e-10
  7.19771    -96.0 1.198e+04 5.686e-10
  7.21928    -95.3 1.269e+04 1.091e-09
  7.23522    -93.0 1.221e+04 7.147e-10
  7.25454    -92.5 1.233e+04 6.958e-10
  7.26917    -92.7 1.298e+04 1.369e-09
  7.28952    -92.1 1.354e+04 2.061e-09
  7.30800    -91.6 1.417e+04 3.020e-09
  7.31822    -91.4 1.447e+04 3.134e-09
  7.33041    -90.9 1.522e+04 4.496e-09
  7.35085    -90.5 1.582e+04 5.770e-09
  7.37130    -90.2 1.613e+04 6.618e-09
  7.38210    -90.0 1.619e+04 6.747e-09
  7.39232    -89.9 1.654e+04 7.455e-09
  7.41219    -89.9 1.654e+04 7.371e-09
  7.43263    -90.4 1.632e+04 6.618e-09
  7.44598    -91.2 1.589e+04 5.563e-09
  7.45620    -90.6 1.606e+04 5.898e-09
  7.47352    -92.2 1.563e+04 5.182e-09
  7.49397    -94.4 1.536e+04 5.008e-09
  7.50986    -96.6 1.531e+04 5.182e-09
  7.52008    -97.5 1.772e+04 5.671e-09
  7.53486   -100.3 1.755e+04 6.200e-09
  7.54686   -101.4 1.644e+04 6.290e-09
  7.55192   -102.7 1.688e+04 6.891e-09
  7.56031   -103.5 1.686e+04 6.905e-09
  7.57369   -104.3 1.657e+04 6.411e-09
  7.58391   -106.3 1.729e+04 7.991e-09
  7.59098   -106.2 1.686e+04 6.570e-09
  7.60120   -106.5 1.644e+04 5.023e-09
  7.61069   -106.8 1.619e+04 4.337e-09
  7.61580   -107.8 1.780e+04 5.874e-09
  7.62165   -108.0 1.741e+04 4.506e-09
  7.63703   -108.6 1.734e+04 3.263e-09
  7.64784   -108.7 1.769e+04 2.075e-09
  7.65806   -111.5 2.090e+04 6.633e-09
  7.67797   -111.3 2.152e+04 5.679e-09
  7.69841   -111.4 2.229e+04 5.306e-09
  7.71172   -111.4 2.273e+04 5.495e-09
  7.71678   -112.5 2.241e+04 2.078e-08
  7.72387   -112.4 2.237e+04 2.219e-08
  7.73410   -112.3 2.227e+04 2.253e-08
  7.74356   -111.8 2.191e+04 2.081e-08
  7.74867   -112.1 2.177e+04 3.904e-08
  7.75454   -111.3 2.140e+04 3.134e-08
  7.76476   -110.6 2.108e+04 2.321e-08
  7.77554   -110.3 2.024e+04 1.372e-08
  7.78577   -110.0 2.050e+04 1.971e-08
  7.79543   -110.1 1.994e+04 1.568e-08
  7.80565   -110.0 1.941e+04 1.313e-08
  7.82104   -110.3 1.870e+04 1.033e-08
  7.83947   -110.0 1.766e+04 7.177e-09
  7.84969   -110.8 1.769e+04 7.598e-09
  7.85934   -110.5 1.676e+04 5.615e-09
  7.86956   -109.8 1.743e+04 6.863e-09
  7.88242   -109.7 1.659e+04 5.250e-09
  7.90286   -109.5 1.607e+04 4.556e-09
  7.91357   -109.6 1.561e+04 4.262e-09
  7.92379   -109.7 1.568e+04 4.398e-09
  7.94375   -109.8 1.555e+04 4.562e-09
  7.96420   -109.8 1.556e+04 5.205e-09
  7.97745   -109.7 1.568e+04 5.677e-09
  7.98767   -109.5 1.567e+04 5.884e-09
  8.00509   -109.3 1.569e+04 6.017e-09
  8.02553   -108.9 1.553e+04 5.721e-09
  8.04133   -108.6 1.527e+04 4.505e-09
  8.05155   -108.0 1.532e+04 5.128e-09
  8.06642   -108.8 1.536e+04 4.304e-09
  8.08687   -110.6 1.525e+04 3.688e-09
  8.10521   -112.2 1.511e+04 3.527e-09
  8.11543   -111.5 1.603e+04 5.123e-09
  8.12776   -112.9 1.615e+04 5.801e-09
  8.14820   -113.6 1.626e+04 6.670e-09
  8.16865   -114.3 1.631e+04 7.020e-09
  8.17931   -115.4 1.618e+04 6.884e-09
  8.18953   -115.4 1.658e+04 8.286e-09
  8.20954   -116.7 1.607e+04 6.746e-09
  8.22998   -118.4 1.605e+04 6.131e-09
  8.24318   -120.6 1.644e+04 6.257e-09
  8.25341   -120.5 1.587e+04 5.519e-09
  8.27087   -122.7 1.617e+04 5.887e-09
  8.29132   -124.4 1.637e+04 6.733e-09
  8.30706   -125.6 1.641e+04 7.245e-09
  8.31728   -126.5 1.539e+04 5.119e-09
  8.33221   -127.3 1.505e+04 4.881e-09
  8.35265   -127.6 1.458e+04 4.321e-09
  8.37094   -127.6 1.406e+04 3.559e-09
  8.38116   -128.4 1.283e+04 2.165e-09
  8.39354   -128.5 1.239e+04 1.715e-09
  8.41399   -128.7 1.205e+04 1.400e-09
  8.43443   -129.0 1.185e+04 1.246e-09
  8.44504   -129.3 1.180e+04 1.216e-09
  8.45526   -130.7 1.114e+04 8.569e-10
  8.47532   -133.5 1.247e+04 1.162e-09
  8.49576   -136.7 1.420e+04 2.157e-09
  8.50892   -138.7 1.573e+04 4.171e-09
  8.51274   -140.6 1.530e+04 3.895e-09
  8.52003   -139.4 1.485e+04 3.133e-09
  8.53665   -140.5 1.570e+04 4.803e-09
  8.55710   -141.3 1.624e+04 5.922e-09
  8.57280   -142.3 1.639e+04 6.112e-09
  8.58302   -144.1 1.493e+04 3.694e-09
  8.59799   -145.4 1.445e+04 2.858e-09
  8.61843   -147.1 1.380e+04 2.211e-09
  8.63668   -148.8 1.322e+04 1.874e-09
  8.64690   -150.1 1.175e+04 1.040e-09
  8.65932   -150.8 1.171e+04 1.019e-09
  8.67977   -151.1 1.176e+04 1.057e-09
  8.70021   -151.2 1.193e+04 1.231e-09
  8.71078   -151.2 1.210e+04 1.441e-09
  8.72100   -151.7 1.147e+04 9.632e-10
  8.74110   -151.5 1.169e+04 1.130e-09
  8.76155   -151.4 1.191e+04 1.306e-09
  8.77465   -151.2 1.212e+04 1.491e-09
  8.78488   -152.0 1.166e+04 1.129e-09
  8.80244   -151.8 1.187e+04 1.288e-09
  8.82288   -151.6 1.205e+04 1.441e-09
  8.83853   -151.3 1.221e+04 1.576e-09
  8.84875   -151.8 1.175e+04 1.230e-09
  8.86377   -151.5 1.182e+04 1.268e-09
  8.88422   -151.2 1.183e+04 1.273e-09
  8.90241   -150.9 1.181e+04 1.254e-09
  8.91263   -151.4 1.135e+04 9.657e-10
  8.92511   -151.1 1.129e+04 9.283e-10
  8.94555   -150.8 1.125e+04 9.075e-10
  8.96600   -150.5 1.123e+04 9.023e-10
  8.97651   -150.2 1.123e+04 9.176e-10
  8.98673   -150.4 1.096e+04 7.477e-10
  9.00689   -150.1 1.101e+04 7.844e-10
  9.02733   -149.6 1.107e+04 8.330e-10
  9.04039   -149.1 1.111e+04 8.744e-10
  9.05061   -149.1 1.090e+04 7.433e-10
  9.06822   -148.5 1.090e+04 7.611e-10
  9.08867   -147.7 1.088e+04 7.632e-10
  9.10427   -146.7 1.072e+04 7.196e-10
  9.11449   -146.4 1.055e+04 5.744e-10
  9.12956   -145.5 1.041e+04 4.911e-10
  9.16032   -144.6 1.023e+04 3.855e-10
  9.20131   -143.1 1.000e+04 3.137e-10
  9.23222   -141.1 9.688e+03 2.499e-10
  9.25266   -140.3 9.483e+03 2.293e-10
  9.28309   -137.9 9.371e+03 2.024e-10
  9.32398   -135.3 9.340e+03 1.888e-10
  9.35997   -132.6 9.346e+03 1.864e-10
  9.38042   -131.7 9.245e+03 1.811e-10
  9.40576   -129.0 9.338e+03 1.879e-10
  9.44665   -126.2 9.445e+03 1.993e-10
  9.48754   -123.4 9.578e+03 2.122e-10
  9.52843   -119.6 9.654e+03 2.276e-10
  9.56932   -116.6 9.844e+03 2.470e-10
  9.61021   -113.5 1.010e+04 2.664e-10
  9.63593   -110.8 1.030e+04 2.829e-10
  9.65638   -110.1 1.022e+04 3.069e-10
  9.68167   -108.3 1.039e+04 3.219e-10
  9.69961   -108.0 1.042e+04 3.501e-10
  9.70984   -107.6 1.041e+04 3.561e-10
  9.72246   -106.6 1.057e+04 4.223e-10
  9.74290   -106.2 1.075e+04 5.248e-10
  9.76335   -105.4 1.102e+04 6.971e-10
  9.77371   -104.4 1.134e+04 9.177e-10
  9.78394   -103.9 1.122e+04 8.821e-10
  9.80054   -102.8 1.157e+04 1.141e-09
  9.81076   -102.8 1.205e+04 1.507e-09
  9.82468   -101.7 1.245e+04 1.821e-09
  9.83759   -100.6 1.283e+04 2.124e-09
  9.84781   -100.0 1.253e+04 1.894e-09
  9.86557    -99.1 1.282e+04 2.117e-09
  9.88602    -98.2 1.307e+04 2.311e-09
  9.90147    -97.5 1.329e+04 2.490e-09
  9.91169    -96.9 1.296e+04 2.176e-09
  9.92691    -96.2 1.322e+04 2.392e-09
  9.94735    -95.7 1.354e+04 2.672e-09
  9.96535    -95.2 1.391e+04 2.992e-09
  9.97557    -94.8 1.370e+04 2.841e-09
  9.98824    -94.3 1.423e+04 3.374e-09
 10.00869    -93.8 1.460e+04 3.930e-09
 10.02913    -93.4 1.492e+04 4.317e-09
 10.04958    -92.7 1.504e+04 4.755e-09
 10.07002    -92.7 1.509e+04 4.635e-09
 10.09047    -92.8 1.514e+04 4.201e-09
 10.10333    -93.2 1.523e+04 4.047e-09
 10.11355    -92.9 1.512e+04 3.814e-09
 10.13135    -93.9 1.521e+04 3.761e-09
 10.14664    -94.8 1.535e+04 3.837e-09
 10.15681    -95.0 1.540e+04 3.911e-09
 10.16704    -95.7 1.548e+04 4.155e-09
 10.17222    -96.3 1.594e+04 4.637e-09
