# Columns:
#   distance along LOS (in CHIMPs)
#   peculiar velocity  (in km/s)
#   temperature (K)
#   HI number density
# pos=(81.014,200.091,224.931), angles=(2.99413,2.84602)
  0.00448     -9.9 1.047e+04 4.572e-10
  0.01238     -8.5 1.052e+04 4.711e-10
  0.02225     -8.1 1.043e+04 4.300e-10
  0.03859     -6.7 1.058e+04 4.481e-10
  0.05833     -5.6 1.081e+04 4.843e-10
  0.07808     -4.9 1.105e+04 5.239e-10
  0.09782     -5.1 1.134e+04 5.592e-10
  0.11676     -4.7 1.104e+04 7.187e-10
  0.12663     -4.6 1.158e+04 8.592e-10
  0.13732     -3.8 1.152e+04 9.647e-10
  0.15096     -2.3 1.140e+04 1.127e-09
  0.16084     -1.8 1.143e+04 1.101e-09
  0.17681      0.0 1.122e+04 1.197e-09
  0.19655      1.8 1.135e+04 1.247e-09
  0.21630      3.4 1.182e+04 1.256e-09
  0.23604      4.2 1.228e+04 1.229e-09
  0.25579      3.4 1.282e+04 1.175e-09
  0.27553      1.6 1.282e+04 1.117e-09
  0.28955     -0.3 1.247e+04 1.078e-09
  0.29942      1.9 1.294e+04 1.225e-09
  0.31502      0.8 1.257e+04 1.358e-09
  0.33477      0.0 1.297e+04 1.551e-09
  0.35452     -0.5 1.343e+04 1.939e-09
  0.37426     -0.9 1.370e+04 2.095e-09
  0.39401     -1.1 1.353e+04 2.203e-09
  0.41375     -1.0 1.388e+04 2.066e-09
  0.42814     -1.3 1.435e+04 1.790e-09
  0.43801      0.2 1.459e+04 2.027e-09
  0.45324     -1.2 1.473e+04 1.625e-09
  0.47299     -4.2 1.337e+04 1.112e-09
  0.49273     -7.2 1.190e+04 8.443e-10
  0.51248     -8.5 1.147e+04 8.040e-10
  0.53223     -8.9 1.166e+04 8.666e-10
  0.55197    -10.1 1.173e+04 9.049e-10
  0.56673    -11.2 1.202e+04 1.010e-09
  0.57660    -10.6 1.222e+04 1.080e-09
  0.58188    -11.9 1.236e+04 1.154e-09
  0.59175    -13.1 1.283e+04 1.399e-09
  0.61121    -13.6 1.324e+04 1.569e-09
  0.63095    -15.1 1.299e+04 1.504e-09
  0.65070    -15.3 1.334e+04 1.614e-09
  0.67044    -16.7 1.316e+04 1.473e-09
  0.69019    -16.2 1.368e+04 1.501e-09
  0.70531    -19.3 1.293e+04 1.095e-09
  0.71519    -19.3 1.262e+04 1.017e-09
  0.72968    -19.3 1.300e+04 1.065e-09
  0.75940    -24.2 1.258e+04 9.172e-10
  0.78902    -28.5 1.207e+04 7.122e-10
  0.80866    -33.8 1.431e+04 1.052e-09
  0.82841    -42.4 1.615e+04 2.241e-09
  0.84390    -46.1 1.708e+04 5.009e-09
  0.85377    -46.7 1.699e+04 4.717e-09
  0.86790    -47.7 1.760e+04 7.314e-09
  0.88765    -48.5 1.789e+04 8.179e-09
  0.90739    -49.5 1.773e+04 7.146e-09
  0.92714    -50.6 1.716e+04 3.603e-09
  0.94688    -57.9 1.561e+04 1.292e-09
  0.96663    -66.8 1.197e+04 5.514e-10
  0.98249    -69.4 1.087e+04 4.209e-10
  0.99236    -70.0 1.095e+04 4.397e-10
  1.00612    -70.8 1.086e+04 4.142e-10
  1.02586    -71.7 1.088e+04 3.775e-10
  1.03713    -72.9 1.079e+04 3.296e-10
  1.04701    -73.8 1.062e+04 3.050e-10
  1.07533    -75.0 1.049e+04 2.866e-10
  1.11140    -76.8 1.017e+04 2.712e-10
  1.13105    -78.4 1.033e+04 3.295e-10
  1.15431    -79.2 1.034e+04 3.385e-10
  1.19390    -79.7 1.024e+04 3.420e-10
  1.23339    -79.6 1.039e+04 3.828e-10
  1.27288    -79.4 1.066e+04 4.407e-10
  1.31237    -79.1 1.095e+04 5.208e-10
  1.34189    -79.3 1.097e+04 5.510e-10
  1.36154    -78.4 1.115e+04 6.200e-10
  1.38848    -78.1 1.124e+04 6.762e-10
  1.40832    -79.9 1.113e+04 6.214e-10
  1.43084    -78.1 1.127e+04 6.939e-10
  1.47033    -76.8 1.139e+04 7.219e-10
  1.49258    -75.5 1.160e+04 7.505e-10
  1.51233    -75.9 1.109e+04 6.217e-10
  1.54932    -75.2 1.154e+04 7.437e-10
  1.58881    -74.5 1.220e+04 9.934e-10
  1.62830    -73.8 1.286e+04 1.348e-09
  1.65782    -73.7 1.321e+04 1.581e-09
  1.67543    -73.3 1.327e+04 1.638e-09
  1.68530    -74.3 1.323e+04 1.663e-09
  1.69721    -74.4 1.322e+04 1.682e-09
  1.71696    -74.3 1.312e+04 1.655e-09
  1.73670    -74.4 1.297e+04 1.585e-09
  1.75645    -74.8 1.292e+04 1.551e-09
  1.77620    -75.4 1.290e+04 1.547e-09
  1.79594    -76.0 1.287e+04 1.594e-09
  1.81401    -76.4 1.287e+04 1.716e-09
  1.82389    -76.9 1.291e+04 1.913e-09
  1.83543    -77.0 1.283e+04 1.912e-09
  1.85518    -76.9 1.263e+04 1.868e-09
  1.87492    -76.7 1.239e+04 1.719e-09
  1.89467    -76.4 1.216e+04 1.534e-09
  1.91441    -76.4 1.194e+04 1.348e-09
  1.93416    -76.4 1.171e+04 1.184e-09
  1.94764    -76.4 1.150e+04 1.054e-09
  1.95621    -75.8 1.161e+04 1.145e-09
  1.96247    -76.0 1.114e+04 8.878e-10
  1.97365    -75.9 1.096e+04 8.056e-10
  1.99340    -75.9 1.079e+04 7.457e-10
  2.01314    -75.8 1.068e+04 7.053e-10
  2.03289    -75.8 1.058e+04 6.691e-10
  2.05263    -75.8 1.043e+04 6.279e-10
  2.07238    -75.8 1.031e+04 5.958e-10
  2.10209    -76.1 1.017e+04 5.625e-10
  2.14168    -75.7 1.017e+04 5.532e-10
  2.18117    -76.7 1.074e+04 5.780e-10
  2.21069    -78.2 1.166e+04 6.656e-10
  2.22978    -82.3 1.356e+04 1.198e-09
  2.23965    -79.7 1.242e+04 9.357e-10
  2.25009    -82.8 1.380e+04 1.659e-09
  2.26983    -84.6 1.524e+04 3.557e-09
  2.28958    -84.8 1.634e+04 6.170e-09
  2.30933    -84.6 1.714e+04 8.066e-09
  2.32907    -84.7 1.738e+04 8.462e-09
  2.34882    -85.0 1.733e+04 7.031e-09
  2.36836    -86.2 1.656e+04 4.303e-09
  2.37824    -83.6 1.726e+04 6.051e-09
  2.38831    -85.3 1.656e+04 3.716e-09
  2.40289    -87.9 1.485e+04 2.370e-09
  2.41276    -87.2 1.482e+04 2.611e-09
  2.42780    -88.9 1.322e+04 1.947e-09
  2.44754    -89.3 1.271e+04 1.777e-09
  2.46729    -89.3 1.272e+04 1.763e-09
  2.48703    -89.4 1.331e+04 1.978e-09
  2.50678    -89.7 1.407e+04 2.434e-09
  2.51682    -90.0 1.468e+04 3.093e-09
  2.52670    -88.1 1.422e+04 2.757e-09
  2.54627    -88.2 1.487e+04 3.565e-09
  2.56602    -88.1 1.531e+04 4.400e-09
  2.58576    -87.8 1.553e+04 5.065e-09
  2.60551    -87.6 1.553e+04 5.368e-09
  2.62525    -87.5 1.542e+04 5.327e-09
  2.64500    -87.7 1.530e+04 4.989e-09
  2.65541    -88.5 1.526e+04 4.721e-09
  2.66528    -87.2 1.590e+04 5.538e-09
  2.68449    -88.4 1.562e+04 5.386e-09
  2.70424    -89.3 1.546e+04 5.398e-09
  2.72398    -89.8 1.517e+04 5.860e-09
  2.74373    -89.8 1.524e+04 6.123e-09
  2.76347    -89.7 1.518e+04 6.095e-09
  2.78322    -89.3 1.465e+04 5.005e-09
  2.79400    -88.8 1.391e+04 3.621e-09
  2.80387    -87.7 1.390e+04 3.647e-09
  2.82271    -87.6 1.321e+04 2.608e-09
  2.84245    -88.3 1.263e+04 2.005e-09
  2.85814    -89.0 1.222e+04 1.746e-09
  2.86802    -88.8 1.193e+04 1.381e-09
  2.88195    -89.0 1.174e+04 1.317e-09
  2.90169    -88.9 1.170e+04 1.311e-09
  2.92144    -88.6 1.174e+04 1.422e-09
  2.93259    -88.1 1.209e+04 1.660e-09
  2.94246    -88.5 1.224e+04 1.585e-09
  2.96093    -87.9 1.265e+04 1.888e-09
  2.98067    -87.2 1.297e+04 2.141e-09
  3.00042    -86.3 1.318e+04 2.300e-09
  3.02016    -85.4 1.327e+04 2.354e-09
  3.03991    -84.3 1.330e+04 2.349e-09
  3.05966    -83.2 1.326e+04 2.253e-09
  3.07117    -82.0 1.316e+04 2.106e-09
  3.08105    -82.5 1.339e+04 2.581e-09
  3.09915    -81.3 1.329e+04 2.418e-09
  3.11889    -80.1 1.312e+04 2.193e-09
  3.13864    -78.9 1.290e+04 1.938e-09
  3.15838    -77.8 1.264e+04 1.704e-09
  3.17813    -76.8 1.240e+04 1.528e-09
  3.19787    -75.8 1.227e+04 1.447e-09
  3.20976    -74.6 1.225e+04 1.434e-09
  3.21963    -75.1 1.285e+04 1.879e-09
  3.23737    -74.1 1.282e+04 1.881e-09
  3.25711    -73.0 1.274e+04 1.964e-09
  3.27686    -71.6 1.280e+04 2.100e-09
  3.29660    -70.2 1.295e+04 2.254e-09
  3.31340    -69.0 1.306e+04 2.339e-09
  3.32327    -68.3 1.298e+04 2.238e-09
  3.33609    -67.1 1.305e+04 2.293e-09
  3.34835    -66.2 1.310e+04 2.306e-09
  3.35822    -66.3 1.360e+04 2.543e-09
  3.37558    -65.8 1.385e+04 2.655e-09
  3.39533    -65.6 1.416e+04 2.825e-09
  3.41508    -65.6 1.446e+04 3.094e-09
  3.43482    -65.5 1.469e+04 3.447e-09
  3.45457    -65.4 1.482e+04 3.784e-09
  3.47431    -65.3 1.484e+04 3.955e-09
  3.48693    -65.1 1.480e+04 3.976e-09
  3.49681    -64.9 1.470e+04 4.607e-09
  3.51380    -64.5 1.440e+04 4.075e-09
  3.53355    -64.1 1.397e+04 3.247e-09
  3.55329    -63.9 1.334e+04 2.456e-09
  3.57304    -64.0 1.261e+04 1.804e-09
  3.59279    -64.1 1.184e+04 1.304e-09
  3.61253    -64.0 1.116e+04 9.414e-10
  3.62552    -63.9 1.064e+04 7.054e-10
  3.63540    -64.0 1.114e+04 8.958e-10
  3.65202    -64.0 1.086e+04 7.514e-10
  3.67177    -64.3 1.077e+04 6.980e-10
  3.69151    -65.0 1.079e+04 6.893e-10
  3.71126    -66.7 1.153e+04 7.842e-10
  3.73100    -68.9 1.243e+04 1.156e-09
  3.75075    -70.4 1.308e+04 1.735e-09
  3.76411    -70.8 1.353e+04 2.325e-09
  3.77214    -70.8 1.390e+04 2.730e-09
  3.77852    -70.0 1.391e+04 2.690e-09
  3.79024    -70.1 1.431e+04 3.325e-09
  3.80999    -70.2 1.445e+04 3.514e-09
  3.82973    -70.3 1.437e+04 3.281e-09
  3.84948    -70.7 1.434e+04 2.726e-09
  3.86922    -73.1 1.453e+04 2.538e-09
  3.88897    -77.1 1.547e+04 2.635e-09
  3.90270    -81.0 1.678e+04 4.123e-09
  3.91257    -77.4 1.524e+04 2.359e-09
  3.92846    -80.0 1.710e+04 4.022e-09
  3.94821    -82.1 1.899e+04 6.931e-09
  3.96297    -83.5 1.976e+04 8.283e-09
  3.97189    -84.7 2.123e+04 1.010e-08
  3.97683    -83.9 2.033e+04 8.882e-09
  3.98266    -85.5 2.187e+04 1.147e-08
  3.99254    -86.7 2.333e+04 1.394e-08
  4.00111    -88.6 2.458e+04 1.879e-08
  4.00605    -89.6 2.497e+04 2.786e-08
  4.01228    -91.2 2.503e+04 2.991e-08
  4.02215    -93.4 2.428e+04 3.061e-08
  4.03203    -96.2 2.400e+04 2.790e-08
  4.04119    -99.2 2.336e+04 2.605e-08
  4.04612    -96.9 2.467e+04 3.434e-08
  4.05177   -100.3 2.374e+04 3.239e-08
  4.06164   -103.2 2.342e+04 2.853e-08
  4.07152   -105.8 2.355e+04 2.348e-08
  4.08139   -108.5 2.367e+04 1.798e-08
  4.09126   -111.4 2.327e+04 1.248e-08
  4.10114   -114.3 2.185e+04 8.262e-09
  4.11048   -117.0 1.959e+04 5.762e-09
  4.11542   -116.4 2.118e+04 7.286e-09
  4.12088   -119.2 1.851e+04 4.913e-09
  4.13075   -121.1 1.633e+04 3.715e-09
  4.14063   -122.2 1.528e+04 3.139e-09
  4.15050   -122.5 1.496e+04 2.978e-09
  4.16536   -122.2 1.480e+04 2.882e-09
  4.17987   -121.6 1.399e+04 2.147e-09
  4.18974   -123.6 1.415e+04 2.084e-09
  4.20490   -122.2 1.310e+04 1.395e-09
  4.22390   -121.1 1.217e+04 9.356e-10
  4.23377   -122.4 1.096e+04 5.313e-10
  4.24439   -121.2 1.039e+04 4.142e-10
  4.26413   -120.0 1.004e+04 3.441e-10
  4.28388   -118.6 9.810e+03 3.031e-10
  4.30363   -117.3 9.668e+03 2.829e-10
  4.31846   -116.1 9.583e+03 2.771e-10
  4.32833   -116.5 9.451e+03 2.621e-10
  4.34312   -115.3 9.441e+03 2.612e-10
  4.36286   -114.2 9.443e+03 2.627e-10
  4.39258   -113.0 9.477e+03 2.702e-10
  4.43217   -110.3 9.519e+03 2.971e-10
  4.45724   -108.4 9.726e+03 3.336e-10
  4.46702   -109.1 9.741e+03 3.434e-10
  4.48134   -108.2 9.845e+03 3.725e-10
  4.50108   -107.1 9.983e+03 4.126e-10
  4.52083   -106.2 1.013e+04 4.495e-10
  4.54057   -105.1 1.028e+04 4.931e-10
  4.56032   -104.2 1.039e+04 5.294e-10
  4.58006   -103.0 1.050e+04 5.693e-10
  4.59563   -102.1 1.057e+04 5.943e-10
  4.60551   -102.3 1.060e+04 6.413e-10
  4.61955   -101.2 1.061e+04 6.451e-10
  4.63930   -100.2 1.059e+04 6.403e-10
  4.65905    -99.1 1.054e+04 6.075e-10
  4.67879    -98.0 1.047e+04 5.654e-10
  4.68903    -97.1 1.039e+04 5.103e-10
  4.69890    -97.1 1.010e+04 3.793e-10
  4.71828    -96.3 1.007e+04 3.479e-10
  4.73422    -95.4 1.008e+04 3.391e-10
  4.74409    -96.1 1.008e+04 3.144e-10
  4.75777    -95.3 1.009e+04 3.140e-10
  4.78749    -94.4 1.008e+04 3.143e-10
  4.82708    -92.2 1.015e+04 3.259e-10
  4.86657    -90.6 1.053e+04 4.142e-10
  4.90606    -88.8 1.089e+04 5.407e-10
  4.94555    -86.8 1.124e+04 6.850e-10
  4.98504    -84.7 1.153e+04 8.167e-10
  5.01149    -83.3 1.138e+04 8.003e-10
  5.02127    -83.6 1.168e+04 8.989e-10
  5.03421    -82.6 1.179e+04 9.330e-10
  5.05396    -81.5 1.185e+04 9.515e-10
  5.07370    -80.5 1.195e+04 9.635e-10
  5.09345    -79.5 1.204e+04 9.762e-10
  5.11319    -78.4 1.213e+04 9.849e-10
  5.13294    -77.4 1.216e+04 9.880e-10
  5.14428    -76.3 1.223e+04 9.892e-10
  5.15145    -76.7 1.146e+04 6.986e-10
  5.15986    -76.8 1.119e+04 6.636e-10
  5.18240    -75.5 1.139e+04 6.734e-10
  5.22199    -72.9 1.150e+04 6.776e-10
  5.26148    -71.0 1.194e+04 7.666e-10
  5.28877    -69.5 1.246e+04 1.038e-09
  5.30851    -69.0 1.117e+04 5.844e-10
  5.34046    -67.8 1.187e+04 8.767e-10
  5.36998    -66.8 1.257e+04 1.479e-09
  5.38963    -66.2 1.276e+04 1.772e-09
  5.40938    -65.5 1.299e+04 2.106e-09
  5.42716    -64.7 1.316e+04 2.294e-09
  5.43703    -64.9 1.283e+04 1.979e-09
  5.44887    -64.1 1.299e+04 2.154e-09
  5.46861    -63.5 1.305e+04 2.191e-09
  5.48836    -62.9 1.297e+04 2.036e-09
  5.50810    -62.6 1.274e+04 1.629e-09
  5.52785    -62.6 1.237e+04 1.226e-09
  5.54759    -63.2 1.195e+04 9.278e-10
  5.56575    -63.7 1.157e+04 7.364e-10
  5.57562    -63.8 1.356e+04 1.509e-09
  5.58709    -64.3 1.307e+04 1.242e-09
  5.59953    -64.5 1.249e+04 1.028e-09
  5.60940    -64.4 1.155e+04 8.105e-10
  5.62658    -64.4 1.127e+04 7.107e-10
  5.64632    -63.8 1.102e+04 6.266e-10
  5.66607    -63.0 1.080e+04 5.479e-10
  5.68581    -62.0 1.056e+04 4.688e-10
  5.70433    -60.8 1.036e+04 3.989e-10
  5.71421    -61.1 1.072e+04 4.931e-10
  5.72530    -59.8 1.044e+04 4.012e-10
  5.74505    -58.9 1.028e+04 3.456e-10
  5.77477    -58.1 1.011e+04 2.995e-10
  5.81435    -56.0 9.717e+03 2.321e-10
  5.84312    -53.5 9.417e+03 1.916e-10
  5.86286    -52.9 9.522e+03 2.380e-10
  5.89334    -50.5 9.314e+03 1.997e-10
  5.93283    -48.1 9.289e+03 1.918e-10
  5.97232    -45.9 9.409e+03 2.043e-10
  6.01181    -43.8 9.635e+03 2.559e-10
  6.04511    -41.6 9.845e+03 3.152e-10
  6.06485    -41.5 9.474e+03 2.164e-10
  6.09079    -39.3 9.544e+03 2.239e-10
  6.12029    -37.4 9.591e+03 2.182e-10
  6.14004    -36.9 9.201e+03 1.918e-10
  6.16977    -35.0 9.133e+03 1.818e-10
  6.20927    -33.4 9.099e+03 1.715e-10
  6.24876    -32.0 9.090e+03 1.681e-10
  6.28825    -30.8 9.088e+03 1.848e-10
  6.32774    -30.3 9.267e+03 2.396e-10
  6.36723    -30.3 9.755e+03 3.643e-10
  6.39747    -31.0 1.056e+04 6.281e-10
  6.41721    -29.9 9.940e+03 3.212e-10
  6.44621    -31.1 1.064e+04 6.131e-10
  6.48570    -31.5 1.118e+04 8.927e-10
  6.52519    -32.1 1.128e+04 9.232e-10
  6.56469    -33.0 1.060e+04 5.374e-10
  6.60418    -34.3 9.365e+03 2.215e-10
  6.64367    -35.6 8.916e+03 1.283e-10
  6.67464    -36.6 8.816e+03 1.058e-10
  6.69439    -35.6 8.807e+03 1.085e-10
  6.72265    -36.4 8.789e+03 1.039e-10
  6.76214    -37.7 8.774e+03 1.382e-10
  6.80163    -39.7 9.813e+03 2.836e-10
  6.84112    -41.9 1.102e+04 6.152e-10
  6.88061    -43.5 1.199e+04 1.211e-09
  6.92011    -44.8 1.265e+04 1.713e-09
  6.95182    -46.5 1.284e+04 1.818e-09
  6.96748    -46.2 1.259e+04 1.645e-09
  6.97516    -47.5 1.225e+04 1.360e-09
  6.98902    -48.3 1.170e+04 9.867e-10
  7.00876    -48.6 1.123e+04 7.774e-10
  7.03848    -50.3 1.050e+04 5.561e-10
  7.07807    -50.5 1.050e+04 5.353e-10
  7.11756    -50.6 1.098e+04 6.231e-10
  7.14708    -50.8 1.099e+04 8.799e-10
  7.16673    -54.2 1.317e+04 1.766e-09
  7.18647    -57.6 1.619e+04 4.146e-09
  7.20622    -59.9 1.923e+04 1.123e-08
  7.22098    -59.9 2.015e+04 1.640e-08
  7.23080    -60.8 2.124e+04 2.238e-08
  7.23857    -61.9 2.211e+04 2.702e-08
  7.24351    -60.7 2.105e+04 1.879e-08
  7.25055    -61.4 2.148e+04 2.020e-08
  7.26541    -62.7 2.169e+04 1.748e-08
  7.28520    -65.8 2.126e+04 9.951e-09
  7.30495    -70.7 1.828e+04 4.269e-09
  7.32469    -76.1 1.410e+04 1.879e-09
  7.34444    -77.7 1.223e+04 1.307e-09
  7.36418    -77.8 1.172e+04 1.121e-09
  7.37726    -77.6 1.144e+04 1.039e-09
  7.38713    -76.7 1.171e+04 1.049e-09
  7.40368    -76.1 1.148e+04 1.124e-09
  7.42054    -75.4 1.155e+04 1.177e-09
  7.43041    -74.8 1.155e+04 1.177e-09
  7.44317    -74.2 1.161e+04 1.227e-09
  7.46291    -73.6 1.170e+04 1.224e-09
  7.48266    -73.3 1.175e+04 1.181e-09
  7.50240    -73.0 1.169e+04 1.098e-09
  7.51584    -72.8 1.151e+04 9.941e-10
  7.52572    -71.4 1.242e+04 1.564e-09
  7.54189    -71.1 1.225e+04 1.395e-09
  7.56164    -71.1 1.188e+04 1.177e-09
  7.58139    -71.3 1.136e+04 9.570e-10
  7.60113    -71.3 1.082e+04 7.716e-10
  7.62088    -71.2 1.042e+04 6.323e-10
  7.64062    -70.9 1.018e+04 5.390e-10
  7.67034    -70.6 9.874e+03 4.524e-10
  7.70993    -69.9 9.155e+03 3.269e-10
  7.74942    -69.3 8.927e+03 2.769e-10
  7.78334    -68.4 8.790e+03 2.506e-10
  7.80309    -67.0 8.804e+03 2.486e-10
  7.82840    -65.9 8.704e+03 2.247e-10
  7.86612    -64.6 8.586e+03 2.088e-10
  7.88586    -63.7 8.488e+03 1.763e-10
  7.90738    -62.4 8.410e+03 1.638e-10
  7.94687    -61.0 8.377e+03 1.597e-10
  7.98636    -59.6 8.374e+03 1.594e-10
  8.02586    -58.2 8.460e+03 1.662e-10
  8.06052    -56.9 8.623e+03 1.853e-10
  8.08026    -54.8 8.332e+03 1.391e-10
  8.10484    -53.4 8.513e+03 1.586e-10
  8.14433    -51.9 8.714e+03 1.861e-10
  8.18382    -50.6 8.910e+03 2.204e-10
  8.22331    -49.2 9.069e+03 2.586e-10
  8.26280    -48.0 9.167e+03 2.929e-10
  8.30229    -46.9 9.231e+03 3.204e-10
  8.33769    -45.9 9.252e+03 3.382e-10
  8.35744    -43.5 9.432e+03 3.822e-10
  8.38128    -42.6 9.519e+03 4.224e-10
  8.42077    -42.0 9.477e+03 4.130e-10
  8.46026    -41.5 9.226e+03 3.485e-10
  8.49975    -41.2 8.850e+03 2.683e-10
  8.53924    -40.8 8.487e+03 2.054e-10
  8.57873    -40.2 8.204e+03 1.620e-10
  8.61487    -39.3 7.975e+03 1.309e-10
  8.63461    -37.3 8.037e+03 1.445e-10
  8.65771    -36.3 7.862e+03 1.218e-10
  8.69720    -35.0 7.755e+03 1.076e-10
  8.73670    -33.6 7.686e+03 9.926e-11
  8.77619    -32.1 7.653e+03 9.613e-11
  8.79637    -30.4 7.644e+03 9.530e-11
  8.81611    -28.7 7.637e+03 9.131e-11
  8.85517    -27.0 7.671e+03 9.447e-11
  8.89204    -25.3 7.739e+03 1.033e-10
  8.91179    -23.5 7.754e+03 1.071e-10
  8.93415    -21.8 7.828e+03 1.145e-10
  8.97364    -20.3 7.939e+03 1.249e-10
  9.01313    -19.2 8.192e+03 1.533e-10
  9.05262    -18.2 8.564e+03 2.145e-10
  9.09212    -17.1 8.959e+03 3.096e-10
  9.13161    -16.1 9.264e+03 4.048e-10
  9.16922    -15.2 9.367e+03 4.419e-10
  9.18896    -13.4 9.296e+03 4.077e-10
  9.21059    -12.8 9.373e+03 4.354e-10
  9.25008    -12.2 9.352e+03 4.369e-10
  9.28957    -11.5 9.304e+03 4.248e-10
  9.32906    -11.1 9.291e+03 4.219e-10
  9.36855    -10.5 9.360e+03 4.380e-10
  9.40804     -9.7 9.615e+03 4.941e-10
  9.43756     -8.4 9.638e+03 4.986e-10
  9.45607     -8.4 9.717e+03 5.178e-10
  9.46594     -7.8 9.842e+03 5.577e-10
  9.47696     -7.7 9.948e+03 6.068e-10
  9.49670     -7.7 1.002e+04 6.472e-10
  9.51645     -7.5 1.003e+04 6.766e-10
  9.53619     -7.3 1.004e+04 6.850e-10
  9.55594     -6.9 1.003e+04 6.731e-10
  9.57569     -6.6 9.986e+03 6.549e-10
  9.59465     -6.3 9.868e+03 5.936e-10
  9.60453     -6.0 9.788e+03 5.541e-10
  9.61518     -6.0 9.608e+03 4.736e-10
  9.64489     -6.5 9.391e+03 4.001e-10
  9.68448     -6.0 9.090e+03 3.382e-10
  9.70687     -5.4 8.707e+03 2.740e-10
  9.72621     -3.7 8.952e+03 3.094e-10
  9.74331     -3.4 8.862e+03 2.922e-10
  9.76346     -2.8 8.486e+03 2.353e-10
  9.80296     -1.9 8.170e+03 1.864e-10
  9.84245     -0.8 7.885e+03 1.459e-10
  9.88194      0.3 7.657e+03 1.180e-10
  9.92143      1.4 7.508e+03 1.022e-10
  9.96092      2.8 7.423e+03 9.472e-11
 10.00041      4.3 7.390e+03 9.179e-11
 10.02049      5.8 7.386e+03 9.099e-11
 10.04023      4.9 7.531e+03 1.048e-10
 10.07939      5.7 7.702e+03 1.174e-10
 10.11888      5.8 8.127e+03 1.542e-10
 10.15837      5.5 8.746e+03 2.333e-10
 10.18790      5.4 9.387e+03 3.539e-10
 10.20754      4.9 9.619e+03 3.971e-10
 10.22729      3.9 1.041e+04 6.035e-10
 10.24703      2.9 1.116e+04 7.906e-10
 10.27675      2.0 1.178e+04 9.717e-10
 10.29756     -1.1 1.243e+04 1.321e-09
 10.30734     -2.9 1.242e+04 1.384e-09
 10.32602     -4.2 1.280e+04 1.652e-09
 10.34576     -5.3 1.337e+04 2.096e-09
 10.36551     -6.4 1.427e+04 2.648e-09
 10.38525     -7.6 1.503e+04 3.160e-09
 10.40500     -9.2 1.543e+04 3.447e-09
 10.42474    -11.5 1.564e+04 3.616e-09
 10.43605    -15.7 1.648e+04 4.237e-09
 10.44592    -19.7 1.672e+04 4.203e-09
 10.46424    -26.2 1.920e+04 6.934e-09
 10.47900    -30.1 2.060e+04 9.861e-09
 10.48882    -33.5 2.123e+04 1.406e-08
 10.49869    -36.2 2.147e+04 1.883e-08
 10.50525    -38.6 2.197e+04 2.242e-08
 10.51018    -39.9 2.194e+04 2.239e-08
 10.51844    -43.4 2.215e+04 2.294e-08
 10.52831    -47.4 2.212e+04 2.069e-08
 10.53818    -52.2 2.234e+04 1.828e-08
 10.54806    -59.4 2.479e+04 1.773e-08
 10.55793    -70.8 2.789e+04 1.939e-08
