# Columns:
#   distance along LOS (in CHIMPs)
#   peculiar velocity  (in km/s)
#   temperature (K)
#   HI number density
# pos=(174.651,134.871,31.6728), angles=(1.49849,5.88331)
  0.00864     45.3 1.009e+04 3.693e-10
  0.03317     44.8 1.005e+04 3.511e-10
  0.05443     46.2 9.970e+03 3.474e-10
  0.07033     45.7 1.000e+04 3.553e-10
  0.09002     45.3 1.006e+04 3.699e-10
  0.10065     45.8 1.004e+04 3.745e-10
  0.11275     45.1 1.026e+04 4.151e-10
  0.13401     42.9 1.089e+04 5.568e-10
  0.14706     39.2 1.238e+04 1.029e-09
  0.15769     40.0 1.213e+04 9.747e-10
  0.16649     36.8 1.327e+04 1.784e-09
  0.17712     36.1 1.389e+04 2.230e-09
  0.19347     33.8 1.394e+04 2.769e-09
  0.20410     34.3 1.381e+04 2.584e-09
  0.21905     32.2 1.361e+04 2.480e-09
  0.23988     30.5 1.292e+04 1.944e-09
  0.25051     30.8 1.290e+04 1.939e-09
  0.26157     28.7 1.204e+04 1.246e-09
  0.28283     25.7 1.118e+04 7.590e-10
  0.29692     22.4 1.056e+04 6.330e-10
  0.30755     22.8 1.064e+04 6.792e-10
  0.32535     20.6 1.054e+04 6.828e-10
  0.34333     19.1 1.055e+04 7.329e-10
  0.35396     19.8 1.054e+04 7.252e-10
  0.36787     18.7 1.073e+04 8.163e-10
  0.38913     17.7 1.103e+04 9.371e-10
  0.40037     16.1 1.152e+04 1.139e-09
  0.41100     16.4 1.131e+04 1.005e-09
  0.42922     15.2 1.153e+04 1.154e-09
  0.43985     15.3 1.117e+04 9.639e-10
  0.44688     13.2 1.208e+04 1.495e-09
  0.46823     13.8 1.172e+04 1.245e-09
  0.50625     12.2 1.219e+04 1.666e-09
  0.53804     11.4 1.226e+04 1.766e-09
  0.55023      9.8 1.269e+04 2.097e-09
  0.56086      9.8 1.281e+04 2.001e-09
  0.58046      7.8 1.322e+04 2.634e-09
  0.59664      7.5 1.352e+04 3.242e-09
  0.60727      7.6 1.353e+04 3.352e-09
  0.62298      8.0 1.359e+04 3.475e-09
  0.64305      8.7 1.348e+04 3.278e-09
  0.65368      9.1 1.345e+04 3.292e-09
  0.66550      9.8 1.305e+04 2.592e-09
  0.68676      9.7 1.247e+04 1.829e-09
  0.70009      9.0 1.181e+04 1.227e-09
  0.70528      9.2 1.152e+04 1.079e-09
  0.71321      9.2 1.137e+04 1.061e-09
  0.72928      8.2 1.066e+04 7.343e-10
  0.74650      7.3 1.009e+04 5.573e-10
  0.75713      7.4 9.795e+03 4.688e-10
  0.77180      7.5 9.580e+03 4.150e-10
  0.79291      8.2 9.600e+03 4.165e-10
  0.80354      8.5 9.502e+03 3.603e-10
  0.81432     -0.4 2.027e+04 4.341e-10
  0.82670    -19.4 3.169e+04 2.601e-09
  0.83196    -22.3 3.328e+04 3.109e-09
  0.83916    -26.2 2.731e+04 1.137e-08
  0.84447    -22.2 3.036e+04 5.173e-09
  0.84985    -23.9 2.232e+04 2.796e-08
  0.85517    -24.8 2.162e+04 4.031e-08
  0.86206    -22.2 2.030e+04 7.601e-08
  0.87269    -18.6 2.095e+04 1.086e-07
  0.87837    -16.2 2.145e+04 1.261e-07
  0.88369    -16.0 2.139e+04 1.828e-07
  0.89394    -15.2 2.213e+04 1.852e-07
  0.90158    -17.0 2.341e+04 1.656e-07
  0.90689    -17.4 2.342e+04 2.205e-07
  0.91520    -22.6 2.634e+04 1.865e-07
  0.92478    -31.9 3.524e+04 7.550e-08
  0.93010    -32.7 3.520e+04 7.586e-08
  0.93646    -47.3 2.910e+04 2.796e-08
  0.94709    -57.3 1.991e+04 1.773e-08
  0.95330    -57.5 1.949e+04 1.807e-08
  0.95862    -57.3 1.942e+04 1.840e-08
  0.96835    -56.8 1.924e+04 1.758e-08
  0.97584    -56.1 1.894e+04 1.570e-08
  0.98652    -55.2 1.781e+04 1.086e-08
  0.99976    -54.7 1.792e+04 8.795e-09
  1.00503    -54.5 1.750e+04 8.011e-09
  1.01087    -54.3 1.739e+04 6.608e-09
  1.02687    -55.4 1.627e+04 4.422e-09
  1.04622    -55.7 1.530e+04 3.118e-09
  1.05685    -55.1 1.457e+04 2.409e-09
  1.06943    -55.1 1.364e+04 1.635e-09
  1.09069    -55.0 1.266e+04 1.142e-09
  1.10326    -54.9 1.175e+04 8.232e-10
  1.11389    -54.6 1.090e+04 6.085e-10
  1.13321    -54.3 1.034e+04 4.677e-10
  1.14967    -53.5 9.975e+03 3.892e-10
  1.16030    -52.7 9.675e+03 3.378e-10
  1.17573    -52.0 9.645e+03 3.218e-10
  1.19608    -51.3 9.628e+03 3.207e-10
  1.20671    -51.0 9.478e+03 2.991e-10
  1.22813    -49.8 9.307e+03 2.826e-10
  1.24949    -49.3 8.931e+03 2.247e-10
  1.25332    -47.5 8.627e+03 1.767e-10
  1.27458    -45.9 8.535e+03 1.686e-10
  1.31411    -44.3 8.377e+03 1.402e-10
  1.34614    -42.8 8.270e+03 1.217e-10
  1.36740    -41.2 8.266e+03 1.247e-10
  1.39915    -40.0 8.262e+03 1.158e-10
  1.43896    -39.2 8.309e+03 1.170e-10
  1.46022    -37.7 8.354e+03 1.213e-10
  1.48419    -37.4 8.413e+03 1.387e-10
  1.52671    -36.9 8.482e+03 1.848e-10
  1.55304    -36.2 8.645e+03 2.140e-10
  1.57430    -35.4 8.758e+03 2.255e-10
  1.61175    -35.5 8.873e+03 2.326e-10
  1.64586    -37.9 9.129e+03 2.304e-10
  1.66712    -37.7 9.399e+03 2.547e-10
  1.69679    -42.6 1.043e+04 3.617e-10
  1.73868    -46.1 1.123e+04 7.945e-10
  1.75994    -46.2 1.152e+04 9.387e-10
  1.77110    -46.1 1.178e+04 1.273e-09
  1.78538    -46.6 1.220e+04 1.548e-09
  1.79611    -45.5 1.178e+04 1.218e-09
  1.82434    -46.1 1.225e+04 1.612e-09
  1.85276    -47.4 1.230e+04 1.616e-09
  1.87402    -47.2 1.247e+04 1.719e-09
  1.90938    -49.0 1.189e+04 1.330e-09
  1.94558    -50.4 1.113e+04 1.022e-09
  1.96674    -50.5 1.148e+04 1.169e-09
  1.98360    -50.3 1.140e+04 1.124e-09
  2.00243    -55.2 1.897e+04 8.752e-10
  2.01306    -65.2 4.367e+04 1.036e-09
  2.02075    -83.1 7.636e+04 6.344e-10
  2.03085    -92.6 4.459e+04 8.308e-09
  2.03616    -93.8 3.505e+04 3.201e-08
  2.04196    -96.4 2.432e+04 1.581e-07
  2.05259    -96.8 2.157e+04 3.753e-07
  2.05864    -96.8 2.100e+04 5.110e-07
  2.06010    -98.4 2.048e+04 3.802e-07
  2.06468    -98.9 2.053e+04 3.728e-07
  2.07385    -97.9 2.039e+04 3.311e-07
  2.08257    -97.3 2.152e+04 2.129e-07
  2.08789    -98.7 2.338e+04 1.371e-07
  2.09511    -99.9 2.849e+04 5.812e-08
  2.10574   -106.2 3.591e+04 2.036e-08
  2.11637   -126.9 2.458e+04 4.064e-09
  2.12700   -134.7 1.587e+04 3.415e-09
  2.13430   -136.6 1.471e+04 3.474e-09
  2.13961   -136.7 1.435e+04 3.573e-09
  2.14826   -137.5 1.510e+04 4.547e-09
  2.15750   -138.1 1.578e+04 5.723e-09
  2.16282   -138.0 1.578e+04 5.856e-09
  2.17488   -138.6 1.675e+04 8.000e-09
  2.19619   -139.6 1.856e+04 1.362e-08
  2.20933   -141.1 1.995e+04 1.872e-08
  2.21996   -139.9 1.955e+04 1.889e-08
  2.23871   -142.0 2.023e+04 2.110e-08
  2.25574   -144.3 2.035e+04 2.138e-08
  2.26637   -143.1 1.980e+04 2.055e-08
  2.28123   -144.9 1.968e+04 1.765e-08
  2.30215   -146.8 1.894e+04 1.275e-08
  2.31278   -145.5 1.878e+04 1.273e-08
  2.32146   -147.7 1.772e+04 8.813e-09
  2.33209   -147.6 1.774e+04 7.936e-09
  2.34501   -149.7 1.620e+04 5.179e-09
  2.35919   -151.4 1.478e+04 3.534e-09
  2.36982   -150.5 1.538e+04 4.166e-09
  2.38753   -151.8 1.431e+04 2.980e-09
  2.40560   -152.7 1.348e+04 2.211e-09
  2.41623   -151.6 1.405e+04 2.742e-09
  2.43005   -152.3 1.330e+04 2.013e-09
  2.45131   -153.0 1.244e+04 1.488e-09
  2.46264   -153.7 1.154e+04 1.140e-09
  2.47327   -152.4 1.214e+04 1.288e-09
  2.49383   -153.1 1.121e+04 9.738e-10
  2.50905   -153.4 1.052e+04 8.097e-10
  2.51968   -152.4 1.084e+04 8.231e-10
  2.53634   -152.6 1.022e+04 7.011e-10
  2.55546   -152.6 1.003e+04 6.408e-10
  2.56609   -151.8 9.989e+03 6.044e-10
  2.57886   -151.7 9.824e+03 5.535e-10
  2.59482   -151.4 9.702e+03 5.202e-10
  2.60545   -151.2 9.738e+03 5.497e-10
  2.61250   -150.8 9.660e+03 5.115e-10
  2.62313   -150.2 9.560e+03 4.625e-10
  2.64264   -149.8 9.526e+03 4.289e-10
  2.65901   -149.5 9.523e+03 3.991e-10
  2.66964   -148.7 9.415e+03 3.705e-10
  2.68516   -148.3 9.412e+03 3.567e-10
  2.71715   -148.0 9.411e+03 3.438e-10
  2.75193   -147.2 9.456e+03 3.425e-10
  2.77319   -146.4 9.444e+03 3.329e-10
  2.80228   -145.9 9.737e+03 3.730e-10
  2.84475   -145.5 1.007e+04 4.653e-10
  2.86822   -144.9 1.041e+04 6.312e-10
  2.87881   -145.6 1.058e+04 7.097e-10
  2.89776   -145.4 1.074e+04 7.825e-10
  2.91222   -145.1 1.087e+04 8.393e-10
  2.92285   -144.9 1.087e+04 8.373e-10
  2.94028   -144.7 1.094e+04 8.713e-10
  2.95863   -144.5 1.097e+04 8.822e-10
  2.96926   -144.3 1.082e+04 8.033e-10
  2.98280   -144.2 1.082e+04 8.048e-10
  3.00406   -144.0 1.077e+04 7.899e-10
  3.01567   -143.8 1.065e+04 7.308e-10
  3.02630   -143.6 1.054e+04 6.594e-10
  3.04657   -143.5 1.048e+04 6.233e-10
  3.06208   -143.3 1.037e+04 5.606e-10
  3.07271   -143.3 1.035e+04 5.677e-10
  3.08909   -143.1 1.031e+04 5.498e-10
  3.10849   -143.0 1.024e+04 5.189e-10
  3.11912   -143.1 1.041e+04 5.794e-10
  3.13090   -143.1 1.044e+04 5.869e-10
  3.14153   -143.7 1.061e+04 6.346e-10
  3.15287   -143.6 1.065e+04 6.339e-10
  3.16553   -143.4 1.069e+04 6.009e-10
  3.17616   -143.4 1.126e+04 8.981e-10
  3.19539   -143.2 1.139e+04 9.481e-10
  3.22738   -143.0 1.153e+04 9.990e-10
  3.25855   -142.8 1.172e+04 8.480e-10
  3.27981   -142.4 1.285e+04 2.298e-09
  3.31251   -141.7 1.260e+04 1.930e-09
  3.35137   -141.2 1.186e+04 1.232e-09
  3.37253   -140.2 1.247e+04 1.798e-09
  3.38673   -140.3 1.223e+04 1.576e-09
  3.40426   -140.3 1.205e+04 1.454e-09
  3.41489   -140.8 1.161e+04 1.211e-09
  3.41884   -140.8 1.159e+04 1.185e-09
  3.42947   -140.5 1.203e+04 1.359e-09
  3.45051   -140.5 1.202e+04 1.340e-09
  3.46525   -140.5 1.202e+04 1.321e-09
  3.47588   -140.1 1.240e+04 1.489e-09
  3.49303   -140.1 1.242e+04 1.492e-09
  3.51166   -140.2 1.244e+04 1.484e-09
  3.52229   -140.4 1.253e+04 1.522e-09
  3.53555   -140.6 1.255e+04 1.540e-09
  3.55680   -140.7 1.254e+04 1.558e-09
  3.56870   -140.8 1.252e+04 1.563e-09
  3.57933   -140.8 1.267e+04 1.658e-09
  3.59932   -140.9 1.267e+04 1.671e-09
  3.61511   -140.9 1.265e+04 1.672e-09
  3.62574   -140.9 1.268e+04 1.686e-09
  3.64184   -140.9 1.253e+04 1.634e-09
  3.66152   -140.8 1.232e+04 1.482e-09
  3.67215   -140.7 1.232e+04 1.365e-09
  3.67762   -140.5 1.203e+04 1.138e-09
  3.68825   -141.2 1.192e+04 1.087e-09
  3.70562   -140.9 1.160e+04 8.792e-10
  3.71856   -140.5 1.125e+04 6.950e-10
  3.72919   -140.6 1.125e+04 6.374e-10
  3.74814   -140.2 1.093e+04 5.040e-10
  3.76497   -139.7 1.063e+04 4.032e-10
  3.77560   -140.0 1.067e+04 4.000e-10
  3.79066   -139.6 1.048e+04 3.427e-10
  3.82265   -139.3 1.034e+04 3.109e-10
  3.85799   -138.3 1.005e+04 2.601e-10
  3.87925   -138.5 1.033e+04 3.741e-10
  3.90778   -137.0 9.993e+03 2.959e-10
  3.94054   -135.4 9.705e+03 2.345e-10
  3.96180   -136.5 9.677e+03 2.482e-10
  3.97207   -135.0 9.500e+03 2.113e-10
  3.99333   -134.7 9.739e+03 2.724e-10
  4.03534   -133.3 9.683e+03 2.616e-10
  4.06489   -131.9 9.666e+03 2.611e-10
  4.08615   -131.4 9.946e+03 3.456e-10
  4.12038   -130.0 9.926e+03 3.713e-10
  4.15771   -128.6 9.860e+03 3.878e-10
  4.17897   -127.9 1.020e+04 4.737e-10
  4.20542   -126.6 1.020e+04 4.768e-10
  4.24794   -125.3 1.013e+04 4.710e-10
  4.27179   -124.0 1.005e+04 4.409e-10
  4.29305   -124.1 1.059e+04 5.708e-10
  4.33297   -122.8 1.047e+04 5.218e-10
  4.36461   -121.3 1.031e+04 4.534e-10
  4.38587   -121.8 1.091e+04 6.767e-10
  4.41801   -120.2 1.072e+04 5.632e-10
  4.45743   -118.4 1.069e+04 4.873e-10
  4.47869   -119.2 1.124e+04 8.003e-10
  4.48726   -117.8 1.131e+04 8.129e-10
  4.50852   -119.1 1.171e+04 1.181e-09
  4.54557   -117.9 1.193e+04 1.304e-09
  4.57151   -116.8 1.215e+04 1.432e-09
  4.59277   -117.7 1.227e+04 1.530e-09
  4.63061   -116.6 1.225e+04 1.473e-09
  4.66433   -115.5 1.207e+04 1.234e-09
  4.68559   -117.7 1.136e+04 7.548e-10
  4.71565   -118.2 1.111e+04 6.637e-10
  4.74744   -119.3 1.098e+04 6.546e-10
  4.76042   -120.1 1.098e+04 6.555e-10
  4.77004   -120.7 1.080e+04 5.489e-10
  4.77822   -122.6 1.096e+04 6.155e-10
  4.78986   -123.9 1.113e+04 7.041e-10
  4.81112   -125.1 1.139e+04 8.306e-10
  4.82463   -126.4 1.178e+04 1.087e-09
  4.83526   -127.4 1.174e+04 1.193e-09
  4.85364   -128.2 1.204e+04 1.428e-09
  4.87104   -129.0 1.231e+04 1.705e-09
  4.88167   -129.8 1.225e+04 1.690e-09
  4.89616   -130.4 1.234e+04 1.809e-09
  4.91742   -131.0 1.234e+04 1.836e-09
  4.93868   -132.1 1.222e+04 1.837e-09
  4.95994   -132.2 1.191e+04 1.709e-09
  4.97449   -132.0 1.160e+04 1.514e-09
  4.98512   -132.5 1.169e+04 1.596e-09
  5.00246   -132.1 1.134e+04 1.380e-09
  5.02090   -131.6 1.097e+04 1.158e-09
  5.03096   -131.9 1.099e+04 1.172e-09
  5.03377   -131.9 1.112e+04 1.216e-09
  5.04498   -131.3 1.080e+04 1.024e-09
  5.06623   -130.7 1.047e+04 8.580e-10
  5.07794   -129.9 1.014e+04 7.067e-10
  5.08857   -130.1 1.001e+04 6.426e-10
  5.10875   -129.2 9.756e+03 5.313e-10
  5.14074   -128.3 9.557e+03 4.296e-10
  5.17096   -127.1 9.367e+03 3.679e-10
  5.19222   -127.7 9.334e+03 3.485e-10
  5.22588   -125.6 8.995e+03 2.797e-10
  5.26378   -123.4 8.713e+03 2.284e-10
  5.28504   -123.8 8.693e+03 2.225e-10
  5.31092   -121.5 8.491e+03 1.825e-10
  5.35343   -119.2 8.368e+03 1.534e-10
  5.37786   -117.0 8.299e+03 1.361e-10
  5.39912   -117.2 8.291e+03 1.318e-10
  5.43847   -114.9 8.276e+03 1.234e-10
  5.47068   -112.7 8.274e+03 1.218e-10
  5.49194   -112.8 8.354e+03 1.235e-10
  5.52351   -110.6 8.354e+03 1.229e-10
  5.55942   -108.5 8.430e+03 1.294e-10
  5.57815   -108.4 8.509e+03 1.391e-10
  5.58476   -108.1 8.656e+03 1.551e-10
  5.60855   -106.0 8.701e+03 1.648e-10
  5.65107   -103.9 8.733e+03 1.708e-10
  5.67758   -101.8 8.737e+03 1.717e-10
  5.69884   -101.4 8.865e+03 1.876e-10
  5.73611    -99.2 8.867e+03 1.842e-10
  5.77040    -97.1 8.849e+03 1.671e-10
  5.79166    -96.8 9.035e+03 1.953e-10
  5.82115    -94.6 9.006e+03 1.819e-10
  5.86322    -92.5 8.959e+03 1.691e-10
  5.88448    -92.1 9.112e+03 1.939e-10
  5.90618    -90.0 9.074e+03 1.872e-10
  5.94870    -87.9 9.063e+03 1.854e-10
  5.97730    -85.8 9.206e+03 1.843e-10
  5.99856    -85.8 9.429e+03 2.046e-10
  6.03374    -84.1 9.691e+03 2.373e-10
  6.07012    -82.4 9.937e+03 3.086e-10
  6.09138    -83.4 1.051e+04 4.368e-10
  6.10614    -81.7 1.084e+04 5.630e-10
  6.12740    -81.2 1.100e+04 6.249e-10
  6.16130    -79.7 1.130e+04 7.473e-10
  6.18420    -78.3 1.171e+04 9.343e-10
  6.20546    -80.6 1.195e+04 1.056e-09
  6.24634    -79.7 1.227e+04 1.250e-09
  6.27702    -78.7 1.260e+04 1.534e-09
  6.29828    -80.9 1.198e+04 1.140e-09
  6.33138    -79.6 1.204e+04 1.143e-09
  6.36984    -78.2 1.207e+04 1.135e-09
  6.39110    -79.6 1.103e+04 5.970e-10
  6.41641    -77.9 1.091e+04 5.324e-10
  6.45893    -75.8 1.082e+04 4.735e-10
  6.48392    -74.0 1.051e+04 3.997e-10
  6.50518    -73.7 1.017e+04 2.490e-10
  6.54397    -71.4 1.015e+04 2.460e-10
  6.57674    -69.0 1.019e+04 2.636e-10
  6.59800    -69.0 1.026e+04 2.199e-10
  6.62901    -66.8 1.034e+04 2.876e-10
  6.65285    -64.6 1.055e+04 3.842e-10
  6.67215    -63.7 1.071e+04 4.040e-10
  6.69082    -65.2 1.171e+04 5.735e-10
  6.71405    -63.7 1.258e+04 1.060e-09
  6.73714    -62.0 1.263e+04 1.227e-09
  6.74767    -63.1 1.333e+04 2.003e-09
  6.76700    -62.3 1.367e+04 2.546e-09
  6.78345    -61.5 1.397e+04 3.085e-09
  6.79408    -62.2 1.427e+04 3.657e-09
  6.80952    -61.8 1.438e+04 3.708e-09
  6.82986    -61.8 1.459e+04 3.880e-09
  6.84049    -62.2 1.424e+04 3.227e-09
  6.85204    -62.4 1.421e+04 2.971e-09
  6.87330    -62.3 1.420e+04 2.829e-09
  6.88690    -62.0 1.423e+04 2.668e-09
  6.89753    -63.4 1.303e+04 1.089e-09
  6.91539    -63.5 1.279e+04 9.369e-10
  6.92602    -62.9 1.311e+04 1.413e-09
  6.93331    -63.1 1.290e+04 1.143e-09
  6.94394    -65.2 1.129e+04 4.431e-10
  6.95834    -65.5 1.109e+04 3.768e-10
  6.97960    -65.8 1.087e+04 3.366e-10
  6.99035    -65.8 1.065e+04 3.351e-10
  7.00098    -66.0 1.033e+04 2.513e-10
  7.02212    -65.8 1.033e+04 2.534e-10
  7.03676    -65.3 1.033e+04 2.595e-10
  7.04739    -65.3 1.012e+04 2.201e-10
  7.06464    -65.1 1.008e+04 2.208e-10
  7.08317    -64.5 1.007e+04 2.343e-10
  7.10453    -64.4 9.930e+03 2.059e-10
  7.13924    -63.1 9.916e+03 2.264e-10
  7.17103    -61.4 9.823e+03 2.259e-10
  7.18662    -61.2 9.779e+03 2.274e-10
  7.19390    -61.2 9.654e+03 1.927e-10
  7.19957    -61.0 9.536e+03 1.649e-10
  7.22428    -59.2 9.595e+03 1.796e-10
  7.26680    -57.1 9.666e+03 1.952e-10
  7.29027    -54.8 9.728e+03 2.042e-10
  7.31153    -54.7 9.304e+03 1.380e-10
  7.35184    -52.6 9.372e+03 1.383e-10
  7.38309    -50.8 9.494e+03 1.422e-10
  7.40435    -50.9 9.287e+03 1.181e-10
  7.43687    -49.1 9.221e+03 1.503e-10
  7.47591    -46.5 9.188e+03 1.948e-10
  7.49717    -46.3 9.095e+03 1.747e-10
  7.52191    -43.6 9.210e+03 1.923e-10
  7.56443    -41.3 9.342e+03 1.927e-10
  7.58999    -39.3 9.462e+03 2.043e-10
  7.61125    -40.1 9.602e+03 2.226e-10
  7.64947    -38.7 9.836e+03 3.206e-10
  7.68281    -36.5 1.003e+04 5.036e-10
  7.70407    -37.3 1.013e+04 5.794e-10
  7.72502    -34.9 1.033e+04 6.687e-10
  7.74628    -34.9 9.863e+03 3.410e-10
  7.77563    -33.1 9.909e+03 3.392e-10
  7.79689    -34.2 9.625e+03 2.582e-10
  7.81955    -32.5 9.485e+03 2.120e-10
  7.86207    -30.9 9.403e+03 1.864e-10
  7.88971    -29.0 9.301e+03 1.822e-10
  7.91097    -29.9 8.903e+03 9.654e-11
  7.94710    -28.0 8.815e+03 1.025e-10
  7.98253    -26.0 8.853e+03 1.224e-10
  8.00379    -26.1 8.492e+03 7.557e-11
  8.03214    -23.8 8.496e+03 8.597e-11
  8.07466    -21.6 8.559e+03 9.829e-11
  8.09661    -19.4 8.624e+03 1.118e-10
  8.11787    -18.8 8.370e+03 6.945e-11
  8.15970    -16.5 8.451e+03 7.488e-11
  8.18943    -14.3 8.519e+03 8.497e-11
  8.21069    -13.9 8.492e+03 7.628e-11
  8.24474    -11.5 8.546e+03 9.136e-11
  8.27174     -9.1 8.627e+03 1.088e-10
  8.28799     -9.0 8.599e+03 1.210e-10
  8.30351     -8.5 8.601e+03 1.147e-10
  8.32978     -6.0 8.681e+03 1.341e-10
  8.37230     -3.6 8.800e+03 1.543e-10
  8.39633     -1.3 8.951e+03 1.783e-10
  8.41759     -1.0 8.931e+03 1.558e-10
  8.45733      1.2 9.083e+03 1.814e-10
  8.48915      3.5 9.275e+03 2.187e-10
  8.51041      3.7 9.151e+03 1.827e-10
  8.54237      6.0 9.296e+03 2.146e-10
  8.58197      8.3 9.440e+03 2.468e-10
  8.60323      8.6 9.131e+03 1.911e-10
  8.62741     10.8 9.203e+03 2.091e-10
  8.66993     13.1 9.247e+03 2.256e-10
  8.69605     15.3 9.261e+03 2.410e-10
  8.71731     15.7 8.841e+03 1.684e-10
  8.75497     18.0 8.839e+03 1.794e-10
  8.78887     20.4 8.859e+03 1.924e-10
  8.80984     20.8 8.535e+03 1.353e-10
  8.81845     20.9 8.593e+03 1.438e-10
  8.84001     23.3 8.589e+03 1.499e-10
  8.88170     25.7 8.585e+03 1.548e-10
  8.90295     26.0 8.390e+03 1.240e-10
  8.92504     28.6 8.390e+03 1.280e-10
  8.96756     31.2 8.384e+03 1.303e-10
  8.99578     33.9 8.377e+03 1.318e-10
  9.01704     34.2 8.305e+03 1.217e-10
  9.05260     36.8 8.289e+03 1.212e-10
  9.08860     39.5 8.261e+03 1.198e-10
  9.10986     39.7 8.237e+03 1.177e-10
  9.13764     42.5 8.204e+03 1.156e-10
  9.18016     45.2 8.177e+03 1.129e-10
  9.20268     47.9 8.150e+03 1.092e-10
  9.22394     48.1 8.150e+03 1.164e-10
  9.26520     50.8 8.116e+03 1.140e-10
  9.29550     53.6 8.071e+03 1.100e-10
  9.31676     53.9 8.151e+03 1.319e-10
  9.34391     56.7 8.087e+03 1.219e-10
  9.36517     56.8 7.961e+03 1.040e-10
  9.38832     59.7 7.902e+03 9.576e-11
  9.40958     59.9 7.983e+03 1.012e-10
  9.43527     62.6 7.925e+03 9.178e-11
  9.47779     65.4 7.856e+03 8.402e-11
  9.50240     68.1 7.835e+03 7.997e-11
  9.52366     68.1 7.973e+03 9.552e-11
  9.56283     70.8 7.988e+03 9.878e-11
  9.59522     73.5 8.032e+03 1.065e-10
  9.61648     73.3 8.225e+03 1.403e-10
  9.64787     75.9 8.303e+03 1.589e-10
  9.68804     78.5 8.396e+03 1.837e-10
  9.70930     78.0 8.615e+03 2.301e-10
  9.73291     80.4 8.729e+03 2.645e-10
  9.77543     82.8 8.887e+03 3.077e-10
  9.80212     85.2 9.093e+03 3.587e-10
  9.82338     84.3 9.280e+03 4.079e-10
  9.86047     86.5 9.486e+03 4.555e-10
  9.89062     88.5 9.665e+03 4.918e-10
  9.90384     87.9 9.565e+03 4.761e-10
  9.91620     86.7 9.618e+03 4.955e-10
  9.94550     88.5 9.588e+03 4.857e-10
  9.98776     90.3 9.456e+03 4.449e-10
 10.00902     89.1 9.361e+03 4.322e-10
 10.03054     91.0 9.092e+03 3.504e-10
 10.07306     92.9 8.770e+03 2.663e-10
 10.10184     94.9 8.440e+03 1.960e-10
 10.12310     93.8 8.445e+03 1.960e-10
 10.15810     95.7 8.142e+03 1.518e-10
 10.19466     98.0 7.971e+03 1.335e-10
 10.21592     97.2 8.464e+03 1.979e-10
 10.24314     99.9 8.546e+03 2.040e-10
 10.28566    103.2 8.856e+03 2.234e-10
 10.30864    102.9 9.549e+03 3.016e-10
 10.31918     99.6 1.066e+04 6.081e-10
 10.33861     98.5 1.170e+04 9.904e-10
 10.35496     97.3 1.281e+04 1.670e-09
 10.36559     95.1 1.353e+04 2.633e-09
 10.38113     94.8 1.440e+04 3.856e-09
