# Columns:
#   distance along LOS (in CHIMPs)
#   peculiar velocity  (in km/s)
#   temperature (K)
#   HI number density
# pos=(235.358,175.37,19.2356), angles=(1.52046,4.30267)
  0.01046     25.2 1.053e+04 2.017e-10
  0.03194     26.3 1.048e+04 1.890e-10
  0.04401     27.1 1.037e+04 1.608e-10
  0.05430     27.5 1.030e+04 2.438e-10
  0.08488     28.8 1.035e+04 2.432e-10
  0.12368     30.1 1.046e+04 2.488e-10
  0.14500     30.9 1.037e+04 2.253e-10
  0.17017     32.1 1.055e+04 2.481e-10
  0.21281     33.2 1.072e+04 2.567e-10
  0.23673     34.0 1.076e+04 2.532e-10
  0.25805     35.1 1.074e+04 2.571e-10
  0.29809     35.8 1.074e+04 2.493e-10
  0.32847     36.4 1.067e+04 2.313e-10
  0.34979     37.5 1.066e+04 2.333e-10
  0.38337     38.1 1.056e+04 2.135e-10
  0.42020     38.6 1.046e+04 1.931e-10
  0.44152     39.8 1.044e+04 1.971e-10
  0.46865     40.4 1.036e+04 1.790e-10
  0.51130     41.0 1.026e+04 1.584e-10
  0.53325     41.8 1.012e+04 1.445e-10
  0.55457     43.0 1.008e+04 1.424e-10
  0.59658     43.8 1.003e+04 1.415e-10
  0.62499     44.6 1.003e+04 1.497e-10
  0.64631     45.7 1.003e+04 1.471e-10
  0.68186     46.1 1.010e+04 1.900e-10
  0.71672     46.6 1.019e+04 2.685e-10
  0.73804     47.7 1.029e+04 3.060e-10
  0.76714     48.2 1.039e+04 3.867e-10
  0.80494     48.3 1.050e+04 4.136e-10
  0.82493     48.6 1.060e+04 4.018e-10
  0.82977     49.6 1.068e+04 4.263e-10
  0.85243     49.2 1.079e+04 4.633e-10
  0.89507     48.3 1.104e+04 5.887e-10
  0.92151     47.3 1.147e+04 8.748e-10
  0.94283     48.0 1.161e+04 9.587e-10
  0.98035     47.1 1.200e+04 1.363e-09
  1.01324     46.4 1.202e+04 1.427e-09
  1.03456     46.9 1.202e+04 1.455e-09
  1.06563     46.8 1.188e+04 1.384e-09
  1.10497     46.9 1.151e+04 1.133e-09
  1.12629     47.8 1.112e+04 9.681e-10
  1.15092     48.5 1.072e+04 6.800e-10
  1.19356     49.2 1.039e+04 4.438e-10
  1.21803     50.0 1.016e+04 2.899e-10
  1.23935     51.0 1.005e+04 2.205e-10
  1.27884     51.9 9.914e+03 1.684e-10
  1.30976     52.9 9.794e+03 1.401e-10
  1.33108     53.9 9.679e+03 1.228e-10
  1.36412     55.1 9.614e+03 1.126e-10
  1.40150     56.3 9.584e+03 1.036e-10
  1.42282     57.4 9.511e+03 9.960e-11
  1.44941     58.5 9.516e+03 9.578e-11
  1.49205     59.5 9.535e+03 9.220e-11
  1.51455     60.6 9.572e+03 9.152e-11
  1.53587     61.6 9.498e+03 1.117e-10
  1.57690     62.6 9.559e+03 1.148e-10
  1.59822     62.4 9.530e+03 8.823e-11
  1.60628     63.3 9.520e+03 9.017e-11
  1.62760     64.2 9.527e+03 1.215e-10
  1.66261     65.0 9.562e+03 1.284e-10
  1.69802     65.6 9.659e+03 1.613e-10
  1.71934     66.4 9.718e+03 2.077e-10
  1.74790     66.7 9.975e+03 3.049e-10
  1.78975     67.2 1.035e+04 4.786e-10
  1.81107     67.8 1.045e+04 5.323e-10
  1.83318     68.1 1.074e+04 6.428e-10
  1.87582     68.1 1.076e+04 6.320e-10
  1.90280     68.3 1.068e+04 5.228e-10
  1.92412     68.6 1.064e+04 4.744e-10
  1.96110     68.4 1.053e+04 3.049e-10
  1.99454     67.8 1.030e+04 1.957e-10
  2.01586     67.6 1.028e+04 2.180e-10
  2.04639     67.3 1.022e+04 2.199e-10
  2.08627     67.2 1.021e+04 2.322e-10
  2.10759     67.2 1.043e+04 3.150e-10
  2.13167     67.1 1.057e+04 3.265e-10
  2.17431     66.7 1.061e+04 3.217e-10
  2.19932     66.4 1.069e+04 2.925e-10
  2.22065     66.3 1.082e+04 3.599e-10
  2.25959     65.8 1.085e+04 2.715e-10
  2.29106     65.1 1.084e+04 1.983e-10
  2.31238     64.8 1.078e+04 2.135e-10
  2.34488     64.1 1.058e+04 1.619e-10
  2.37018     63.7 1.025e+04 1.421e-10
  2.38677     63.5 1.037e+04 2.261e-10
  2.40411     63.3 1.027e+04 2.194e-10
  2.43016     63.6 9.889e+03 1.577e-10
  2.47280     64.4 9.684e+03 1.162e-10
  2.49585     65.5 9.674e+03 8.855e-11
  2.51717     65.6 9.713e+03 8.097e-11
  2.55808     66.7 9.797e+03 6.563e-11
  2.58758     67.9 9.846e+03 6.345e-11
  2.60890     67.9 9.767e+03 7.237e-11
  2.64337     69.1 9.736e+03 8.027e-11
  2.67931     70.4 9.753e+03 1.114e-10
  2.70063     70.8 9.858e+03 1.608e-10
  2.72865     72.1 1.032e+04 2.434e-10
  2.75606     72.2 1.055e+04 3.059e-10
  2.76662     72.2 1.053e+04 2.952e-10
  2.78151     72.0 1.075e+04 3.580e-10
  2.79217     71.7 1.083e+04 3.919e-10
  2.80308     71.6 1.106e+04 4.814e-10
  2.82440     71.4 1.132e+04 5.881e-10
  2.83804     71.1 1.163e+04 7.009e-10
  2.84870     70.5 1.160e+04 6.956e-10
  2.86704     70.1 1.192e+04 7.984e-10
  2.88390     69.4 1.221e+04 8.776e-10
  2.89456     69.1 1.216e+04 8.635e-10
  2.90968     68.4 1.239e+04 8.794e-10
  2.92977     67.5 1.249e+04 8.749e-10
  2.94043     67.6 1.249e+04 8.934e-10
  2.95232     66.7 1.248e+04 8.796e-10
  2.97574     65.5 1.269e+04 8.629e-10
  2.99715     66.0 1.257e+04 9.128e-10
  3.02714     64.5 1.274e+04 9.425e-10
  3.05902     63.0 1.335e+04 1.104e-09
  3.07803     61.6 1.387e+04 1.393e-09
  3.08869     61.4 1.392e+04 1.518e-09
  3.10157     60.6 1.408e+04 1.924e-09
  3.12289     60.3 1.414e+04 2.276e-09
  3.13456     60.2 1.411e+04 2.297e-09
  3.14295     60.4 1.403e+04 2.276e-09
  3.15260     60.0 1.403e+04 2.344e-09
  3.16553     59.7 1.369e+04 1.959e-09
  3.18052     59.1 1.302e+04 1.253e-09
  3.20194     59.3 1.261e+04 9.649e-10
  3.24035     58.9 1.180e+04 4.389e-10
  3.27235     58.3 1.106e+04 1.898e-10
  3.29367     58.7 1.080e+04 1.611e-10
  3.32563     58.6 1.033e+04 1.340e-10
  3.36409     59.6 1.027e+04 1.342e-10
  3.38541     60.6 1.013e+04 1.203e-10
  3.41091     62.1 1.009e+04 1.298e-10
  3.45355     63.4 1.014e+04 1.534e-10
  3.47714     64.7 1.027e+04 1.871e-10
  3.49846     65.5 1.012e+04 1.523e-10
  3.53884     66.5 1.030e+04 1.857e-10
  3.56888     67.4 1.052e+04 2.321e-10
  3.59020     67.9 1.040e+04 2.065e-10
  3.62412     68.6 1.073e+04 2.820e-10
  3.66061     69.1 1.097e+04 3.656e-10
  3.68193     69.8 1.098e+04 3.961e-10
  3.70940     70.2 1.110e+04 4.543e-10
  3.74128     70.6 1.117e+04 4.350e-10
  3.76251     70.9 1.121e+04 4.393e-10
  3.77347     71.2 1.125e+04 4.414e-10
  3.78413     71.8 1.126e+04 4.666e-10
  3.80515     72.0 1.134e+04 4.749e-10
  3.81933     71.9 1.145e+04 4.922e-10
  3.82999     72.5 1.157e+04 5.222e-10
  3.84779     72.2 1.181e+04 5.748e-10
  3.86520     71.6 1.211e+04 6.967e-10
  3.87586     71.9 1.239e+04 7.900e-10
  3.89043     70.9 1.277e+04 1.115e-09
  3.91107     69.8 1.312e+04 1.693e-09
  3.92173     70.0 1.354e+04 2.104e-09
  3.92456     69.8 1.409e+04 3.235e-09
  3.93522     69.9 1.349e+04 2.795e-09
  3.95439     69.9 1.393e+04 3.123e-09
  3.96759     69.8 1.396e+04 3.038e-09
  3.97826     70.3 1.429e+04 3.542e-09
  3.99704     70.1 1.418e+04 2.927e-09
  4.01346     69.4 1.380e+04 2.180e-09
  4.02412     69.5 1.390e+04 2.156e-09
  4.04877     68.0 1.276e+04 1.179e-09
  4.07018     67.9 1.289e+04 1.196e-09
  4.09317     67.0 1.192e+04 7.923e-10
  4.13581     66.9 1.125e+04 5.156e-10
  4.16192     67.7 1.084e+04 3.030e-10
  4.18324     68.8 1.086e+04 3.200e-10
  4.22110     69.6 1.067e+04 1.677e-10
  4.25365     70.2 1.041e+04 1.191e-10
  4.27497     71.2 1.039e+04 1.288e-10
  4.30638     72.5 1.037e+04 1.292e-10
  4.34538     73.8 1.033e+04 1.364e-10
  4.36670     75.2 1.038e+04 1.459e-10
  4.39166     76.4 1.040e+04 1.821e-10
  4.43430     77.5 1.051e+04 2.422e-10
  4.45844     78.6 1.064e+04 3.026e-10
  4.47976     79.8 1.078e+04 3.578e-10
  4.51959     80.4 1.087e+04 3.774e-10
  4.55017     80.8 1.085e+04 3.707e-10
  4.57149     82.0 1.097e+04 4.418e-10
  4.60487     82.3 1.086e+04 4.004e-10
  4.64191     82.7 1.069e+04 3.566e-10
  4.66323     84.0 1.072e+04 3.830e-10
  4.68605     84.4 1.070e+04 3.842e-10
  4.70737     84.7 1.045e+04 2.965e-10
  4.73279     85.2 1.055e+04 3.507e-10
  4.75496     85.7 1.082e+04 4.894e-10
  4.77628     86.7 1.074e+04 5.039e-10
  4.81808     87.5 1.109e+04 7.247e-10
  4.84669     88.3 1.145e+04 9.566e-10
  4.85726     89.0 1.143e+04 8.947e-10
  4.87118     89.3 1.169e+04 1.076e-09
  4.90326     90.1 1.154e+04 9.393e-10
  4.93843     90.6 1.152e+04 9.291e-10
  4.95965     91.6 1.143e+04 7.061e-10
  4.98855     91.9 1.102e+04 5.396e-10
  5.03016     92.0 1.100e+04 5.428e-10
  5.05148     92.7 1.067e+04 2.881e-10
  5.07393     92.5 1.067e+04 3.186e-10
  5.11657     92.3 1.065e+04 3.485e-10
  5.14321     92.1 1.073e+04 3.783e-10
  5.16453     93.1 1.038e+04 2.273e-10
  5.20185     92.8 1.056e+04 2.472e-10
  5.23495     92.3 1.071e+04 2.661e-10
  5.25627     93.1 1.059e+04 1.793e-10
  5.28713     92.5 1.060e+04 2.021e-10
  5.32668     92.1 1.052e+04 2.280e-10
  5.34800     93.0 1.052e+04 2.005e-10
  5.37242     92.8 1.052e+04 2.544e-10
  5.41506     92.7 1.059e+04 3.173e-10
  5.43973     92.6 1.071e+04 3.766e-10
  5.46106     93.3 1.097e+04 4.915e-10
  5.47933     93.1 1.113e+04 5.881e-10
  5.50065     93.9 1.112e+04 5.900e-10
  5.53147     93.5 1.125e+04 6.327e-10
  5.55279     94.0 1.150e+04 8.134e-10
  5.58562     93.4 1.140e+04 7.751e-10
  5.62320     93.2 1.111e+04 6.428e-10
  5.64452     93.9 1.113e+04 6.232e-10
  5.67091     93.5 1.074e+04 4.269e-10
  5.71355     92.7 1.047e+04 3.153e-10
  5.73626     92.1 1.026e+04 2.658e-10
  5.75758     92.4 1.013e+04 2.683e-10
  5.79883     92.4 1.001e+04 2.503e-10
  5.82799     92.6 9.882e+03 2.227e-10
  5.84931     93.5 9.867e+03 2.416e-10
  5.88411     94.0 9.740e+03 1.973e-10
  5.91972     94.5 9.620e+03 1.494e-10
  5.94104     95.5 9.604e+03 1.408e-10
  5.96939     95.8 9.432e+03 1.012e-10
  6.01146     96.1 9.248e+03 9.292e-11
  6.03278     97.0 9.177e+03 8.583e-11
  6.05468     97.7 9.167e+03 8.658e-11
  6.09732     98.5 9.157e+03 9.345e-11
  6.12451     99.3 9.204e+03 1.159e-10
  6.14583    100.5 9.193e+03 1.064e-10
  6.18260    101.4 9.344e+03 1.404e-10
  6.21624    102.1 9.640e+03 1.966e-10
  6.23756    103.1 9.603e+03 1.765e-10
  6.25129    103.1 9.979e+03 2.564e-10
  6.27261    102.8 1.022e+04 2.913e-10
  6.29977    102.6 1.054e+04 4.013e-10
  6.31844    102.2 1.089e+04 5.608e-10
  6.32910    102.6 1.089e+04 5.819e-10
  6.34231    102.2 1.120e+04 8.042e-10
  6.36363    101.6 1.160e+04 9.903e-10
  6.37497     98.7 1.309e+04 1.388e-09
  6.38563     97.7 1.392e+04 1.942e-09
  6.40627     90.9 1.678e+04 4.317e-09
  6.42084     85.5 1.762e+04 8.074e-09
  6.43150     85.5 1.784e+04 1.035e-08
  6.44892     82.6 1.761e+04 1.029e-08
  6.46670     80.6 1.704e+04 8.040e-09
  6.47736     81.4 1.743e+04 8.332e-09
  6.49156     76.9 1.735e+04 3.561e-09
  6.51257     67.5 1.599e+04 1.172e-09
  6.52323     65.5 1.541e+04 9.881e-10
  6.53420     56.7 1.090e+04 7.619e-10
  6.55552     54.2 1.083e+04 7.555e-10
  6.56910     53.1 1.106e+04 7.574e-10
  6.57976     53.2 1.135e+04 8.607e-10
  6.60440     50.5 1.139e+04 7.746e-10
  6.62582     49.7 1.193e+04 1.045e-09
  6.65166     45.6 1.176e+04 1.056e-09
  6.69430     42.3 1.133e+04 9.771e-10
  6.71755     39.9 1.079e+04 7.903e-10
  6.73887     39.4 1.072e+04 7.527e-10
  6.77958     37.4 1.054e+04 7.220e-10
  6.80929     35.8 1.073e+04 8.514e-10
  6.83061     36.0 1.060e+04 8.193e-10
  6.86486     35.6 1.087e+04 1.003e-09
  6.90102     35.2 1.083e+04 9.830e-10
  6.92234     35.6 1.053e+04 7.976e-10
  6.95015     35.0 1.030e+04 6.755e-10
  6.99275     33.8 1.008e+04 5.652e-10
  7.02321     32.3 9.808e+03 4.722e-10
  7.04457     33.3 1.047e+04 7.209e-10
  7.07807     31.0 1.042e+04 7.074e-10
  7.10581     29.6 9.766e+03 5.594e-10
  7.12713     30.6 9.452e+03 4.823e-10
  7.16335     29.8 8.639e+03 2.739e-10
  7.19754     28.2 8.051e+03 1.504e-10
  7.21886     29.1 7.953e+03 1.361e-10
  7.24864     28.3 7.614e+03 1.198e-10
  7.28927     28.3 7.676e+03 1.280e-10
  7.31059     29.8 7.564e+03 1.220e-10
  7.33392     29.4 7.853e+03 1.529e-10
  7.37656     28.6 8.843e+03 3.349e-10
  7.40223     26.2 1.050e+04 6.261e-10
  7.42355     25.4 1.146e+04 8.185e-10
  7.44810     21.1 1.315e+04 3.024e-09
  7.45866     20.3 1.362e+04 2.983e-09
  7.47231     16.4 1.609e+04 6.921e-09
  7.49363     15.0 1.708e+04 1.119e-08
  7.50453     13.3 1.699e+04 1.148e-08
  7.50981     13.9 1.719e+04 1.323e-08
  7.52018     14.1 1.688e+04 1.256e-08
  7.53622     13.8 1.616e+04 8.133e-09
  7.55039     11.5 1.528e+04 3.427e-09
  7.56105     13.5 1.603e+04 3.291e-09
  7.57891      6.4 1.270e+04 9.992e-10
  7.59626      2.2 1.041e+04 5.109e-10
  7.60692      1.8 1.010e+04 4.158e-10
  7.63231      2.4 9.915e+03 3.550e-10
  7.67505      3.2 9.515e+03 2.258e-10
  7.69885      3.5 9.125e+03 1.671e-10
  7.72017      4.1 9.194e+03 1.744e-10
  7.76033      5.0 9.016e+03 1.572e-10
  7.79058      6.2 8.931e+03 1.489e-10
  7.80413      6.8 9.085e+03 1.626e-10
  7.81653      5.8 8.971e+03 1.451e-10
  7.84562      6.6 8.994e+03 1.491e-10
  7.88231      6.8 9.135e+03 1.717e-10
  7.90364      6.5 9.559e+03 2.519e-10
  7.93090      6.6 9.991e+03 3.755e-10
  7.96278      6.5 1.018e+04 6.124e-10
  7.98401      6.8 1.037e+04 7.221e-10
  7.99517      7.5 1.059e+04 8.365e-10
  8.00583      7.4 1.086e+04 9.294e-10
  8.02665      7.5 1.082e+04 8.953e-10
  8.04104      7.4 1.060e+04 8.051e-10
  8.05170      6.9 1.053e+04 7.754e-10
  8.06929      6.8 1.043e+04 6.658e-10
  8.08691      6.4 1.032e+04 5.727e-10
  8.09757      5.6 1.022e+04 5.356e-10
  8.11193      4.7 1.034e+04 5.087e-10
  8.13277      2.8 1.085e+04 5.562e-10
  8.14343      1.6 1.097e+04 5.847e-10
  8.15457     -0.4 1.128e+04 7.826e-10
  8.17589     -1.5 1.143e+04 1.075e-09
  8.18930     -1.9 1.172e+04 1.384e-09
  8.19440     -2.2 1.177e+04 1.378e-09
  8.20231     -2.8 1.208e+04 1.515e-09
  8.21853     -3.2 1.227e+04 1.560e-09
  8.23517     -4.7 1.226e+04 1.394e-09
  8.24583     -5.8 1.215e+04 1.328e-09
  8.26117     -7.7 1.189e+04 1.232e-09
  8.28103     -9.3 1.153e+04 1.170e-09
  8.29169     -9.7 1.138e+04 1.154e-09
  8.31457    -10.0 1.141e+04 1.247e-09
  8.35731    -10.6 1.148e+04 1.373e-09
  8.38362    -10.7 1.135e+04 1.315e-09
  8.40494    -10.3 1.098e+04 1.039e-09
  8.44260    -10.3 1.050e+04 7.337e-10
  8.47536    -10.8 1.000e+04 5.370e-10
  8.49668    -10.3 9.739e+03 4.488e-10
  8.52788     -9.8 9.628e+03 4.236e-10
  8.56709     -9.6 9.878e+03 4.855e-10
  8.58841     -7.8 9.154e+03 2.939e-10
  8.61316     -7.9 9.686e+03 3.914e-10
  8.65580     -8.2 1.055e+04 6.640e-10
  8.68005     -8.1 1.168e+04 1.285e-09
  8.70137     -7.0 1.153e+04 1.292e-09
  8.72591     -6.3 1.225e+04 2.216e-09
  8.73648     -5.4 1.226e+04 2.118e-09
  8.75155     -4.9 1.225e+04 2.173e-09
  8.77178     -4.4 1.218e+04 1.774e-09
  8.79320     -3.2 1.179e+04 1.478e-09
  8.82637     -3.3 1.092e+04 9.067e-10
  8.86361     -3.6 1.069e+04 7.730e-10
  8.88493     -1.9 1.041e+04 6.406e-10
  8.91165     -2.2 1.096e+04 7.220e-10
  8.94353     -5.1 1.246e+04 1.143e-09
  8.96361     -6.9 1.363e+04 2.264e-09
  8.97427     -6.3 1.360e+04 2.301e-09
  8.97647     -7.8 1.437e+04 4.887e-09
  8.98713     -7.2 1.444e+04 4.998e-09
  9.00740     -5.5 1.522e+04 8.360e-09
  9.02234     -2.9 1.568e+04 9.854e-09
  9.03300     -2.0 1.563e+04 9.714e-09
  9.05004      0.4 1.546e+04 8.840e-09
  9.06820      2.9 1.499e+04 4.666e-09
  9.07886      3.8 1.494e+04 4.418e-09
  9.09268      1.7 1.367e+04 1.555e-09
  9.12476     -3.0 1.129e+04 7.817e-10
  9.16013     -2.3 1.043e+04 5.558e-10
  9.18136     -0.8 1.014e+04 4.314e-10
  9.21004      0.6 9.900e+03 3.514e-10
  9.25187      1.7 9.839e+03 3.253e-10
  9.27319      3.4 9.687e+03 3.135e-10
  9.29542      4.7 9.846e+03 3.326e-10
  9.33807      5.7 1.012e+04 4.061e-10
  9.36044      6.5 1.041e+04 5.348e-10
  9.36598      7.4 1.045e+04 5.131e-10
  9.37548      8.4 1.045e+04 5.050e-10
  9.39117      8.2 1.049e+04 5.252e-10
  9.41059      9.0 1.083e+04 7.052e-10
  9.42125      9.7 1.084e+04 6.897e-10
  9.43381      9.6 1.090e+04 7.441e-10
  9.45513     10.6 1.108e+04 8.864e-10
  9.46712     11.2 1.104e+04 8.970e-10
  9.47778     12.0 1.105e+04 8.877e-10
  9.49778     13.1 1.093e+04 8.573e-10
  9.51298     14.3 1.065e+04 6.910e-10
  9.52365     14.9 1.074e+04 7.052e-10
  9.54042     15.6 1.063e+04 5.304e-10
  9.55885     15.6 1.044e+04 3.877e-10
  9.56951     16.3 1.051e+04 4.091e-10
  9.59382     16.8 1.025e+04 3.257e-10
  9.63656     17.6 9.875e+03 2.778e-10
  9.66144     18.9 9.699e+03 3.017e-10
  9.68276     20.5 9.984e+03 3.518e-10
  9.72184     21.8 1.019e+04 4.000e-10
  9.74633     22.7 1.041e+04 4.436e-10
  9.75624     22.5 1.047e+04 4.956e-10
  9.76364     23.0 1.053e+04 5.074e-10
  9.77494     23.0 1.069e+04 5.508e-10
  9.79626     23.3 1.082e+04 6.420e-10
  9.80951     23.4 1.088e+04 7.128e-10
  9.82017     24.0 1.083e+04 7.144e-10
  9.83891     24.6 1.087e+04 7.976e-10
  9.85537     25.2 1.099e+04 8.249e-10
  9.86603     25.8 1.094e+04 8.005e-10
  9.88155     26.2 1.097e+04 7.778e-10
  9.90124     26.6 1.095e+04 7.103e-10
  9.91190     27.1 1.094e+04 7.055e-10
  9.92419     27.2 1.088e+04 6.239e-10
  9.94551     26.9 1.091e+04 5.555e-10
  9.95777     26.1 1.117e+04 5.383e-10
  9.96843     26.7 1.116e+04 5.473e-10
  9.98815     25.0 1.176e+04 6.354e-10
 10.00363     20.6 1.346e+04 1.135e-09
 10.01429     21.3 1.355e+04 1.133e-09
 10.03079     14.5 1.614e+04 3.066e-09
 10.04950      9.3 1.777e+04 7.497e-09
 10.06016      9.4 1.798e+04 7.837e-09
 10.07343      6.2 1.868e+04 1.166e-08
 10.09475      2.2 1.842e+04 1.073e-08
 10.10603     -2.5 1.693e+04 4.130e-09
 10.11669     -1.9 1.704e+04 3.892e-09
 10.13221    -12.7 1.361e+04 1.074e-09
 10.14287    -15.0 1.236e+04 8.578e-10
 10.15189    -22.8 9.723e+03 3.913e-10
 10.16255    -22.6 9.526e+03 3.495e-10
 10.18004    -24.4 9.014e+03 2.800e-10
 10.19776    -25.6 8.913e+03 2.573e-10
 10.20842    -25.5 8.812e+03 2.409e-10
 10.23306    -27.5 9.001e+03 2.567e-10
 10.25448    -25.9 8.493e+03 2.063e-10
 10.27618    -29.0 8.705e+03 2.342e-10
 10.31882    -34.7 1.110e+04 5.146e-10
 10.34612    -37.5 1.172e+04 6.361e-10
 10.36744    -36.6 1.162e+04 7.030e-10
 10.39199    -40.6 1.294e+04 1.497e-09
 10.40255    -38.9 1.215e+04 9.934e-10
 10.41457    -41.0 1.314e+04 1.819e-09
 10.43589    -42.2 1.396e+04 2.871e-09
 10.44841    -43.5 1.463e+04 3.978e-09
 10.45907    -42.5 1.415e+04 3.167e-09
 10.47853    -43.9 1.465e+04 4.140e-09
 10.49428    -45.3 1.475e+04 4.442e-09
 10.50494    -44.3 1.465e+04 4.257e-09
 10.51819    -45.7 1.466e+04 4.379e-09
 10.52885    -45.4 1.398e+04 3.352e-09
 10.54015    -46.7 1.357e+04 2.972e-09
 10.55081    -45.7 1.385e+04 3.313e-09
 10.56381    -46.9 1.329e+04 2.811e-09
 10.58513    -47.7 1.257e+04 2.179e-09
 10.59668    -48.4 1.182e+04 1.613e-09
 10.60734    -47.5 1.229e+04 1.928e-09
 10.62777    -48.1 1.155e+04 1.363e-09
 10.64254    -48.6 1.092e+04 9.569e-10
 10.65320    -47.9 1.133e+04 1.124e-09
 10.67041    -48.5 1.069e+04 7.700e-10
 10.68841    -48.9 1.014e+04 5.507e-10
 10.69907    -48.4 1.033e+04 6.197e-10
 10.71306    -48.7 9.783e+03 4.622e-10
 10.73428    -48.9 9.436e+03 3.793e-10
 10.74494    -48.4 9.599e+03 4.355e-10
 10.75570    -48.4 9.391e+03 3.804e-10
 10.77702    -48.3 9.311e+03 3.582e-10
 10.79080    -48.0 9.299e+03 3.537e-10
 10.80146    -47.8 9.513e+03 4.215e-10
 10.81966    -47.7 9.529e+03 4.212e-10
 10.83667    -47.6 9.677e+03 4.396e-10
 10.84733    -47.7 1.006e+04 5.681e-10
 10.86230    -47.7 1.018e+04 6.031e-10
 10.88254    -47.6 1.033e+04 6.470e-10
 10.89320    -47.8 1.084e+04 8.494e-10
 10.90417    -47.7 1.089e+04 8.631e-10
 10.91483    -47.3 1.077e+04 8.012e-10
 10.92626    -47.1 1.082e+04 8.168e-10
 10.93906    -46.9 1.085e+04 8.051e-10
 10.94972    -47.5 1.112e+04 9.220e-10
 10.96890    -47.3 1.104e+04 8.522e-10
 10.98493    -47.2 1.092e+04 7.742e-10
 10.99559    -48.2 1.119e+04 9.175e-10
 11.01154    -48.1 1.102e+04 8.360e-10
 11.03080    -48.0 1.086e+04 7.686e-10
 11.04146    -49.0 1.113e+04 9.649e-10
 11.05419    -48.7 1.098e+04 9.052e-10
 11.07551    -48.2 1.085e+04 8.547e-10
 11.08732    -47.7 1.072e+04 8.098e-10
 11.09798    -48.4 1.102e+04 1.009e-09
 11.11815    -47.7 1.089e+04 9.497e-10
 11.13319    -47.1 1.076e+04 8.934e-10
 11.14385    -47.7 1.099e+04 1.051e-09
 11.16079    -46.9 1.083e+04 9.783e-10
 11.17906    -46.0 1.067e+04 9.117e-10
 11.18972    -46.4 1.080e+04 1.014e-09
 11.20343    -45.4 1.062e+04 9.335e-10
 11.22475    -44.3 1.047e+04 8.643e-10
 11.23558    -43.2 1.037e+04 8.118e-10
 11.24624    -43.4 1.043e+04 8.505e-10
 11.26739    -42.4 1.034e+04 7.973e-10
