# Columns:
#   distance along LOS (in CHIMPs)
#   peculiar velocity  (in km/s)
#   temperature (K)
#   HI number density
# pos=(139.448,158.501,235.818), angles=(1.67776,4.70526)
  0.00020     44.1 1.808e+04 5.473e-09
  0.01022     38.9 1.591e+04 3.798e-09
  0.02986     36.3 1.403e+04 3.373e-09
  0.04951     36.3 1.381e+04 3.394e-09
  0.06915     36.5 1.376e+04 3.309e-09
  0.08879     36.6 1.372e+04 3.115e-09
  0.09941     36.5 1.364e+04 2.825e-09
  0.10923     37.2 1.300e+04 2.369e-09
  0.12808     36.8 1.278e+04 1.956e-09
  0.14773     36.3 1.254e+04 1.606e-09
  0.16737     35.6 1.231e+04 1.338e-09
  0.18701     35.1 1.212e+04 1.167e-09
  0.20666     34.8 1.188e+04 1.026e-09
  0.22630     34.7 1.171e+04 9.473e-10
  0.25587     33.8 1.086e+04 6.890e-10
  0.29525     33.9 1.035e+04 6.023e-10
  0.33454     34.1 9.961e+03 5.413e-10
  0.37383     34.3 9.923e+03 5.436e-10
  0.41312     34.2 1.019e+04 6.691e-10
  0.44952     34.6 1.097e+04 9.454e-10
  0.46916     35.0 1.054e+04 6.974e-10
  0.48177     35.1 1.104e+04 9.552e-10
  0.50132     35.1 1.160e+04 1.227e-09
  0.52096     34.6 1.232e+04 1.628e-09
  0.54061     34.5 1.274e+04 2.193e-09
  0.56025     35.1 1.284e+04 2.684e-09
  0.57990     35.9 1.288e+04 2.766e-09
  0.59954     36.5 1.292e+04 2.627e-09
  0.61918     36.9 1.273e+04 2.303e-09
  0.63883     37.0 1.227e+04 1.746e-09
  0.64884     36.6 1.171e+04 1.372e-09
  0.65866     37.8 1.279e+04 2.005e-09
  0.67812     37.2 1.195e+04 1.440e-09
  0.69776     36.6 1.116e+04 1.108e-09
  0.71740     36.8 1.062e+04 9.235e-10
  0.73705     37.3 1.037e+04 8.148e-10
  0.75669     38.1 1.024e+04 7.380e-10
  0.77634     39.0 1.009e+04 6.644e-10
  0.79598     40.0 9.945e+03 5.896e-10
  0.81562     40.9 9.843e+03 5.223e-10
  0.82871     41.5 9.760e+03 4.662e-10
  0.83853     42.1 1.013e+04 5.977e-10
  0.85491     42.8 1.001e+04 5.285e-10
  0.87456     43.5 1.000e+04 5.134e-10
  0.89420     44.2 1.004e+04 5.203e-10
  0.91384     44.8 1.016e+04 5.474e-10
  0.93349     45.5 1.038e+04 6.199e-10
  0.95313     46.2 1.065e+04 7.289e-10
  0.97278     47.1 1.095e+04 8.784e-10
  0.99242     48.0 1.144e+04 1.110e-09
  1.00858     48.1 1.268e+04 1.745e-09
  1.01840     49.8 1.190e+04 1.329e-09
  1.03171     50.2 1.402e+04 2.286e-09
  1.04639     48.6 1.600e+04 3.627e-09
  1.05616     46.6 1.825e+04 6.048e-09
  1.06599     44.8 2.050e+04 1.061e-08
  1.07581     43.4 2.225e+04 1.803e-08
  1.08563     42.6 2.345e+04 3.184e-08
  1.09545     42.1 2.386e+04 5.442e-08
  1.10333     40.7 2.442e+04 8.457e-08
  1.10824     43.0 2.535e+04 1.294e-07
  1.11510     37.8 2.576e+04 2.227e-07
  1.12492     30.7 2.664e+04 1.766e-07
  1.13474     22.8 2.813e+04 7.993e-08
  1.14456     14.6 2.335e+04 3.865e-08
  1.15439     11.0 1.916e+04 2.837e-08
  1.16421     11.1 1.882e+04 2.537e-08
  1.17403     11.9 1.893e+04 2.351e-08
  1.18840     12.1 1.904e+04 1.808e-08
  1.19822     11.8 1.948e+04 2.069e-08
  1.20845     12.2 1.894e+04 1.535e-08
  1.22815     12.2 1.761e+04 1.039e-08
  1.24779     12.8 1.603e+04 7.259e-09
  1.26744     14.0 1.493e+04 5.095e-09
  1.28708     15.4 1.407e+04 3.587e-09
  1.30672     16.2 1.337e+04 2.615e-09
  1.32637     16.5 1.265e+04 1.859e-09
  1.34601     17.2 1.174e+04 1.264e-09
  1.36566     17.5 1.131e+04 9.985e-10
  1.37814     18.0 1.093e+04 8.283e-10
  1.38796     18.3 1.102e+04 8.497e-10
  1.40494     18.9 1.070e+04 7.408e-10
  1.42459     19.8 1.027e+04 6.612e-10
  1.44423     20.5 1.024e+04 6.659e-10
  1.46388     21.0 1.031e+04 7.073e-10
  1.48352     21.9 1.030e+04 7.450e-10
  1.50316     22.3 1.058e+04 8.766e-10
  1.52281     23.1 1.073e+04 9.874e-10
  1.54245     23.7 1.092e+04 1.071e-09
  1.55801     24.4 1.116e+04 1.148e-09
  1.56783     24.4 1.128e+04 1.224e-09
  1.58174     24.9 1.142e+04 1.289e-09
  1.60132     25.6 1.156e+04 1.279e-09
  1.62097     24.9 1.169e+04 1.122e-09
  1.64067     24.9 1.167e+04 1.108e-09
  1.67024     24.4 1.206e+04 1.267e-09
  1.70962     22.9 1.231e+04 1.406e-09
  1.73798     21.4 1.206e+04 1.379e-09
  1.74770     22.7 1.202e+04 1.320e-09
  1.75854     22.1 1.169e+04 1.272e-09
  1.77818     22.0 1.168e+04 1.289e-09
  1.79782     21.1 1.201e+04 1.402e-09
  1.81747     19.8 1.237e+04 1.563e-09
  1.83711     18.6 1.240e+04 1.711e-09
  1.85676     17.7 1.259e+04 1.886e-09
  1.87640     16.9 1.324e+04 2.112e-09
  1.89604     15.1 1.449e+04 2.578e-09
  1.91569     11.8 1.594e+04 3.328e-09
  1.92757      8.2 1.679e+04 4.762e-09
  1.93740      9.1 1.711e+04 5.949e-09
  1.95498      7.5 1.682e+04 7.313e-09
  1.97462      7.4 1.686e+04 9.122e-09
  1.99426      7.9 1.730e+04 1.053e-08
  2.01391      8.0 1.761e+04 1.053e-08
  2.03355      8.5 1.733e+04 8.838e-09
  2.05320      8.1 1.652e+04 6.766e-09
  2.07284      7.4 1.542e+04 4.541e-09
  2.09248      6.9 1.440e+04 3.229e-09
  2.10744      6.9 1.356e+04 2.385e-09
  2.11727      7.7 1.433e+04 3.649e-09
  2.13177      8.2 1.355e+04 2.764e-09
  2.15142      8.9 1.239e+04 2.098e-09
  2.17106      9.9 1.171e+04 1.485e-09
  2.19070     11.2 1.128e+04 1.249e-09
  2.22027     12.1 1.069e+04 8.492e-10
  2.25965     13.8 1.019e+04 7.180e-10
  2.28751     16.3 9.902e+03 6.451e-10
  2.30715     16.1 9.585e+03 4.887e-10
  2.33823     19.0 9.277e+03 4.172e-10
  2.37752     21.6 9.082e+03 3.519e-10
  2.41681     24.1 8.895e+03 2.949e-10
  2.45609     26.4 8.747e+03 2.541e-10
  2.49538     28.9 8.601e+03 2.205e-10
  2.53467     31.3 8.457e+03 1.931e-10
  2.57396     33.7 8.356e+03 1.745e-10
  2.61325     36.0 8.352e+03 1.709e-10
  2.64725     38.2 8.364e+03 1.793e-10
  2.66689     37.7 8.332e+03 1.770e-10
  2.69182     40.0 8.391e+03 1.953e-10
  2.73111     42.5 8.466e+03 2.042e-10
  2.77040     44.8 8.475e+03 2.012e-10
  2.80969     47.0 8.482e+03 1.853e-10
  2.84897     49.0 8.516e+03 1.650e-10
  2.88826     50.8 8.547e+03 1.623e-10
  2.92755     52.5 8.577e+03 1.675e-10
  2.96684     54.2 8.711e+03 1.853e-10
  3.00613     56.0 8.851e+03 2.118e-10
  3.02663     57.8 8.979e+03 2.389e-10
  3.04628     58.0 8.765e+03 1.975e-10
  3.08470     59.7 8.868e+03 2.100e-10
  3.12399     61.3 8.986e+03 2.330e-10
  3.16328     62.8 9.146e+03 2.761e-10
  3.20257     64.4 9.322e+03 3.409e-10
  3.24185     66.0 9.549e+03 4.096e-10
  3.28114     67.6 9.731e+03 4.717e-10
  3.32043     69.1 9.877e+03 5.010e-10
  3.35972     70.5 9.991e+03 5.143e-10
  3.38637     71.8 1.008e+04 5.328e-10
  3.40602     72.6 1.036e+04 6.224e-10
  3.43830     73.9 1.040e+04 6.309e-10
  3.47758     75.4 1.045e+04 6.285e-10
  3.50695     76.2 1.044e+04 6.269e-10
  3.52650     77.0 1.042e+04 6.099e-10
  3.54614     77.7 1.037e+04 5.896e-10
  3.56579     78.5 1.035e+04 5.780e-10
  3.57587     79.4 1.034e+04 5.752e-10
  3.58569     79.5 1.045e+04 6.131e-10
  3.60507     80.5 1.045e+04 6.170e-10
  3.63464     81.5 1.048e+04 6.173e-10
  3.67402     83.1 1.061e+04 6.760e-10
  3.71331     84.5 1.086e+04 8.058e-10
  3.74611     85.8 1.108e+04 8.824e-10
  3.76576     86.2 1.096e+04 8.369e-10
  3.79189     87.2 1.092e+04 7.869e-10
  3.83118     87.9 1.082e+04 6.794e-10
  3.87046     88.2 1.069e+04 5.722e-10
  3.90975     88.4 1.070e+04 5.704e-10
  3.94904     88.7 1.082e+04 6.096e-10
  3.97841     89.1 1.079e+04 6.160e-10
  3.99795     89.4 1.082e+04 6.413e-10
  4.01760     89.7 1.089e+04 6.775e-10
  4.03724     90.1 1.100e+04 7.231e-10
  4.05689     90.4 1.115e+04 7.822e-10
  4.07653     90.7 1.132e+04 8.533e-10
  4.09617     90.9 1.149e+04 9.226e-10
  4.11548     91.3 1.167e+04 9.721e-10
  4.12530     92.0 1.152e+04 9.470e-10
  4.13546     92.4 1.171e+04 1.009e-09
  4.15511     92.7 1.183e+04 1.004e-09
  4.17475     93.0 1.186e+04 9.869e-10
  4.19439     93.2 1.186e+04 9.309e-10
  4.21404     93.5 1.178e+04 8.504e-10
  4.23368     93.7 1.165e+04 7.628e-10
  4.25333     93.9 1.149e+04 6.838e-10
  4.27297     94.0 1.133e+04 6.250e-10
  4.29261     94.1 1.119e+04 5.906e-10
  4.30517     94.2 1.107e+04 5.758e-10
  4.31499     95.0 1.115e+04 5.866e-10
  4.33190     95.1 1.107e+04 5.833e-10
  4.35155     95.4 1.101e+04 5.837e-10
  4.36459     95.7 1.094e+04 5.787e-10
  4.37441     95.8 1.116e+04 7.228e-10
  4.39083     96.2 1.110e+04 7.163e-10
  4.41048     96.6 1.098e+04 6.811e-10
  4.43012     97.0 1.083e+04 6.182e-10
  4.44977     97.3 1.070e+04 5.435e-10
  4.46941     97.5 1.061e+04 4.843e-10
  4.48504     97.8 1.050e+04 4.445e-10
  4.49486     98.5 1.083e+04 5.864e-10
  4.50870     98.7 1.075e+04 5.504e-10
  4.53826     99.5 1.098e+04 6.484e-10
  4.57765     99.8 1.084e+04 6.312e-10
  4.61694     99.8 1.083e+04 6.621e-10
  4.65622     99.5 1.082e+04 6.736e-10
  4.69551     99.0 1.072e+04 6.343e-10
  4.73480     98.5 1.041e+04 5.077e-10
  4.77409     98.0 9.984e+03 3.463e-10
  4.81338     97.3 9.513e+03 2.207e-10
  4.84498     96.7 9.246e+03 1.697e-10
  4.86462     97.1 9.128e+03 1.507e-10
  4.89195     97.0 9.118e+03 1.431e-10
  4.93124     97.0 9.137e+03 1.464e-10
  4.97053     97.0 9.191e+03 1.591e-10
  5.00982     97.1 9.247e+03 1.779e-10
  5.04910     97.3 9.278e+03 1.908e-10
  5.08839     97.5 9.267e+03 1.888e-10
  5.12768     97.8 9.233e+03 1.778e-10
  5.16697     98.2 9.168e+03 1.625e-10
  5.20472     98.7 9.087e+03 1.524e-10
  5.22436     99.3 8.736e+03 9.065e-11
  5.24554     99.9 8.725e+03 9.828e-11
  5.28483    100.9 8.747e+03 1.157e-10
  5.32412    102.2 8.787e+03 1.355e-10
  5.36341    103.7 8.872e+03 1.427e-10
  5.40270    105.1 8.891e+03 1.413e-10
  5.44198    106.6 8.919e+03 1.326e-10
  5.48127    107.9 8.890e+03 1.188e-10
  5.52056    109.3 8.862e+03 1.118e-10
  5.55985    110.6 8.867e+03 1.128e-10
  5.58410    111.8 8.910e+03 1.198e-10
  5.60374    112.4 8.728e+03 1.097e-10
  5.63842    113.7 8.815e+03 1.218e-10
  5.67771    115.1 8.927e+03 1.473e-10
  5.71700    116.5 9.128e+03 1.953e-10
  5.75629    118.0 9.342e+03 2.561e-10
  5.79558    119.3 9.549e+03 2.982e-10
  5.83487    120.2 9.704e+03 3.111e-10
  5.87415    120.8 9.755e+03 3.096e-10
  5.91344    121.2 9.818e+03 3.034e-10
  5.94384    121.2 9.882e+03 2.917e-10
  5.96348    121.8 9.881e+03 2.969e-10
  5.99202    121.8 9.884e+03 2.782e-10
  6.03131    121.9 9.850e+03 2.624e-10
  6.07059    122.1 9.851e+03 2.621e-10
  6.10988    122.6 9.900e+03 2.685e-10
  6.14917    123.3 1.002e+04 2.858e-10
  6.18846    124.3 1.017e+04 3.064e-10
  6.22775    125.4 1.035e+04 3.356e-10
  6.26703    126.6 1.057e+04 3.793e-10
  6.30358    128.0 1.089e+04 4.759e-10
  6.32322    129.2 1.042e+04 3.409e-10
  6.34561    130.6 1.056e+04 3.827e-10
  6.38490    132.1 1.071e+04 4.270e-10
  6.41427    132.7 1.071e+04 4.431e-10
  6.43381    133.2 1.068e+04 4.486e-10
  6.45346    133.9 1.066e+04 4.481e-10
  6.47310    134.7 1.064e+04 4.421e-10
  6.49274    135.5 1.063e+04 4.251e-10
  6.50290    136.1 1.065e+04 4.069e-10
  6.51272    136.8 1.056e+04 4.277e-10
  6.53203    137.6 1.059e+04 4.261e-10
  6.55168    138.3 1.066e+04 4.270e-10
  6.57132    138.8 1.076e+04 4.356e-10
  6.59096    139.2 1.086e+04 4.621e-10
  6.61061    139.5 1.095e+04 5.137e-10
  6.63025    139.8 1.107e+04 5.967e-10
  6.64990    140.0 1.124e+04 7.108e-10
  6.66954    140.1 1.155e+04 8.790e-10
  6.68277    139.9 1.224e+04 1.158e-09
  6.69259    141.5 1.178e+04 1.045e-09
  6.70883    141.1 1.266e+04 1.413e-09
  6.72847    139.8 1.412e+04 2.146e-09
  6.74812    137.9 1.555e+04 3.391e-09
  6.76776    136.2 1.645e+04 4.789e-09
  6.78244    135.4 1.698e+04 5.481e-09
  6.79222    134.4 1.716e+04 6.399e-09
  6.80204    133.5 1.707e+04 6.539e-09
  6.81186    132.9 1.693e+04 6.382e-09
  6.82168    132.3 1.656e+04 5.769e-09
  6.83151    131.7 1.598e+04 4.911e-09
  6.84629    131.0 1.556e+04 3.942e-09
  6.86264    129.5 1.454e+04 2.341e-09
  6.87246    131.7 1.613e+04 3.938e-09
  6.88562    129.6 1.483e+04 2.122e-09
  6.90527    126.4 1.271e+04 9.279e-10
  6.92491    123.0 1.049e+04 4.209e-10
  6.94456    121.5 9.813e+03 3.156e-10
  6.96420    121.6 9.659e+03 2.972e-10
  6.98384    121.8 9.687e+03 2.938e-10
  7.01341    122.9 9.655e+03 2.827e-10
  7.04270    124.6 9.516e+03 2.721e-10
  7.06235    124.3 9.693e+03 2.864e-10
  7.09208    126.4 9.624e+03 2.848e-10
  7.13137    128.4 9.648e+03 2.953e-10
  7.17066    130.3 9.793e+03 3.392e-10
  7.20995    132.1 1.002e+04 4.059e-10
  7.23230    132.6 1.011e+04 4.458e-10
  7.24202    132.7 1.011e+04 4.420e-10
  7.25886    133.6 1.017e+04 4.790e-10
  7.27851    134.7 1.025e+04 5.286e-10
  7.29815    135.7 1.033e+04 5.735e-10
  7.31779    136.6 1.040e+04 6.031e-10
  7.33744    137.3 1.047e+04 6.242e-10
  7.35708    138.0 1.053e+04 6.429e-10
  7.37673    138.6 1.060e+04 6.601e-10
  7.39637    139.2 1.066e+04 6.663e-10
  7.41207    139.8 1.066e+04 6.629e-10
  7.42189    140.1 1.076e+04 7.131e-10
  7.43566    140.7 1.074e+04 6.989e-10
  7.45530    141.3 1.066e+04 6.581e-10
  7.47495    141.9 1.055e+04 5.864e-10
  7.49459    142.2 1.042e+04 5.105e-10
  7.52415    143.1 1.026e+04 4.376e-10
  7.56354    143.9 9.916e+03 3.265e-10
  7.60283    144.6 9.591e+03 2.464e-10
  7.64211    145.3 9.413e+03 2.120e-10
  7.68140    146.1 9.404e+03 2.110e-10
  7.72069    147.2 9.450e+03 2.165e-10
  7.75998    147.7 9.640e+03 2.430e-10
  7.78183    147.6 9.884e+03 2.935e-10
  7.80147    148.1 9.908e+03 3.123e-10
  7.82864    147.7 1.001e+04 3.461e-10
  7.84818    147.5 1.023e+04 4.214e-10
  7.86783    147.4 1.060e+04 5.835e-10
  7.88747    147.2 1.101e+04 8.171e-10
  7.90711    147.1 1.135e+04 1.058e-09
  7.92676    146.9 1.160e+04 1.129e-09
  7.94640    146.4 1.160e+04 1.119e-09
  7.96150    145.7 1.155e+04 1.038e-09
  7.97132    146.4 1.192e+04 1.280e-09
  7.98569    145.5 1.177e+04 1.065e-09
  8.00533    144.1 1.159e+04 8.248e-10
  8.02498    142.0 1.158e+04 7.452e-10
  8.04462    139.4 1.166e+04 7.689e-10
  8.06427    135.9 1.227e+04 9.500e-10
  8.08391    131.5 1.364e+04 1.717e-09
  8.10355    127.9 1.525e+04 3.687e-09
  8.12320    125.7 1.658e+04 6.992e-09
  8.14137    124.1 1.762e+04 9.415e-09
  8.15119    122.8 1.854e+04 1.127e-08
  8.16249    120.2 1.874e+04 9.942e-09
  8.18213    116.3 1.857e+04 6.886e-09
  8.20177    110.4 1.798e+04 4.011e-09
  8.22142    103.7 1.600e+04 2.778e-09
  8.24106     98.8 1.431e+04 2.655e-09
  8.26071     96.5 1.404e+04 2.696e-09
  8.28035     95.4 1.401e+04 2.716e-09
  8.29999     94.5 1.394e+04 2.633e-09
  8.31964     93.7 1.362e+04 2.311e-09
  8.33106     92.9 1.319e+04 1.905e-09
  8.34089     91.8 1.312e+04 1.852e-09
  8.35893     91.0 1.263e+04 1.473e-09
  8.38849     89.2 1.188e+04 1.053e-09
  8.42788     87.7 1.089e+04 6.955e-10
  8.46716     87.2 1.010e+04 4.628e-10
  8.50131     87.1 9.494e+03 3.054e-10
  8.52095     86.2 9.488e+03 2.872e-10
  8.54574     86.2 9.035e+03 2.031e-10
  8.58503     86.3 8.715e+03 1.639e-10
  8.62432     86.6 8.621e+03 1.593e-10
  8.66360     87.1 8.635e+03 1.638e-10
  8.70289     87.2 8.815e+03 1.918e-10
  8.74218     86.9 9.230e+03 2.566e-10
  8.78147     86.2 9.653e+03 3.346e-10
  8.81084     85.4 9.955e+03 4.239e-10
  8.83038     84.6 1.043e+04 5.831e-10
  8.85003     83.4 1.110e+04 8.417e-10
  8.86967     81.9 1.184e+04 1.209e-09
  8.88050     80.5 1.255e+04 1.673e-09
  8.89032     79.6 1.273e+04 1.800e-09
  8.90896     78.0 1.315e+04 1.952e-09
  8.92860     76.0 1.316e+04 1.888e-09
  8.94825     73.7 1.295e+04 1.584e-09
  8.96789     71.3 1.236e+04 1.124e-09
  8.98753     68.8 1.150e+04 7.189e-10
  9.01710     64.5 1.051e+04 4.212e-10
  9.05648     61.5 9.616e+03 2.575e-10
  9.09577     59.0 9.099e+03 1.845e-10
  9.13506     56.3 9.199e+03 1.935e-10
  9.17435     53.2 9.630e+03 2.677e-10
  9.21364     50.9 1.005e+04 4.269e-10
  9.24043     49.1 1.042e+04 5.258e-10
  9.26008     47.4 1.048e+04 5.863e-10
  9.29221     44.9 1.092e+04 5.867e-10
  9.32158     44.3 1.060e+04 5.692e-10
  9.34113     38.1 1.397e+04 9.438e-10
  9.36077     28.2 1.692e+04 2.880e-09
  9.38041     24.4 1.621e+04 5.928e-09
  9.39510     23.5 1.615e+04 7.113e-09
  9.40487     23.6 1.624e+04 7.707e-09
  9.41965     22.6 1.687e+04 7.912e-09
  9.42993     17.2 1.931e+04 6.011e-09
  9.43975     17.2 1.801e+04 4.011e-09
  9.45899      2.2 1.747e+04 2.541e-09
  9.47863     -9.6 1.580e+04 2.832e-09
  9.49828    -14.4 1.521e+04 3.710e-09
  9.51792    -18.5 1.557e+04 4.127e-09
  9.53757    -25.3 1.926e+04 4.021e-09
  9.55721    -37.4 2.067e+04 4.360e-09
  9.57685    -46.7 1.791e+04 6.077e-09
  9.59650    -49.3 1.764e+04 8.716e-09
  9.60980    -50.4 1.761e+04 9.426e-09
  9.61962    -49.5 1.810e+04 1.114e-08
  9.63579    -50.3 1.787e+04 1.103e-08
  9.65543    -51.0 1.733e+04 8.013e-09
  9.67508    -53.0 1.602e+04 3.892e-09
  9.69472    -56.6 1.337e+04 1.579e-09
  9.71436    -60.0 1.083e+04 7.514e-10
  9.73401    -61.1 9.892e+03 5.232e-10
  9.75365    -61.2 9.522e+03 4.436e-10
  9.77330    -60.4 9.350e+03 4.031e-10
  9.78967    -59.4 9.306e+03 3.822e-10
  9.79949    -59.7 9.534e+03 4.649e-10
  9.81258    -58.7 9.469e+03 4.379e-10
  9.84215    -57.7 9.367e+03 3.897e-10
  9.87167    -56.3 9.299e+03 3.750e-10
  9.89131    -55.1 9.374e+03 3.819e-10
  9.92082    -53.6 9.150e+03 3.438e-10
  9.95991    -52.2 9.065e+03 3.280e-10
  9.97956    -51.7 9.255e+03 3.641e-10
  9.99940    -50.2 9.230e+03 3.589e-10
 10.03868    -48.9 9.349e+03 3.806e-10
 10.07797    -47.9 9.488e+03 4.209e-10
 10.11726    -46.7 9.619e+03 4.580e-10
 10.15655    -45.8 9.646e+03 4.713e-10
 10.19584    -44.5 9.499e+03 4.216e-10
 10.23512    -43.1 9.225e+03 3.299e-10
 10.27441    -41.8 8.984e+03 2.573e-10
 10.31370    -40.7 8.833e+03 2.191e-10
 10.33930    -39.7 8.794e+03 2.108e-10
 10.35894    -38.9 9.178e+03 2.787e-10
 10.39228    -38.1 9.223e+03 2.798e-10
 10.43157    -37.7 9.527e+03 3.267e-10
 10.47085    -37.6 9.798e+03 4.101e-10
 10.50022    -37.5 9.924e+03 5.021e-10
 10.51897    -37.3 9.989e+03 5.275e-10
 10.52879    -36.9 1.003e+04 5.482e-10
 10.53941    -37.7 1.028e+04 5.908e-10
 10.55906    -40.0 1.141e+04 7.305e-10
 10.57870    -42.9 1.332e+04 1.136e-09
 10.59834    -45.2 1.421e+04 1.809e-09
 10.61799    -46.4 1.432e+04 2.519e-09
 10.63763    -46.9 1.409e+04 2.895e-09
 10.65728    -47.0 1.368e+04 2.802e-09
 10.67692    -47.0 1.326e+04 2.459e-09
 10.69656    -46.6 1.273e+04 1.982e-09
 10.70866    -46.1 1.221e+04 1.376e-09
 10.71848    -45.9 1.239e+04 1.393e-09
 10.73585    -45.8 1.181e+04 8.589e-10
 10.75550    -46.0 1.118e+04 5.264e-10
 10.77514    -46.1 1.062e+04 3.471e-10
 10.79478    -46.0 1.033e+04 2.826e-10
 10.82435    -44.6 1.026e+04 2.649e-10
 10.86373    -42.9 1.011e+04 2.335e-10
 10.90302    -41.2 9.850e+03 1.930e-10
 10.94231    -39.6 9.653e+03 1.677e-10
 10.98160    -38.0 9.563e+03 1.593e-10
 11.02089    -36.4 9.546e+03 1.613e-10
 11.05878    -35.0 9.538e+03 1.675e-10
 11.07842    -34.4 9.551e+03 1.770e-10
 11.09946    -33.0 9.538e+03 1.818e-10
 11.13875    -31.6 9.494e+03 1.801e-10
 11.17804    -30.5 9.474e+03 1.786e-10
 11.21733    -29.9 9.549e+03 1.860e-10
 11.25661    -29.9 9.881e+03 2.562e-10
 11.29590    -30.4 1.062e+04 4.577e-10
 11.32527    -32.7 1.098e+04 7.152e-10
 11.34482    -35.0 1.224e+04 1.040e-09
 11.36446    -35.0 1.324e+04 1.317e-09
 11.38410    -39.5 1.515e+04 2.229e-09
 11.40375    -43.6 1.588e+04 3.517e-09
 11.42339    -47.2 1.582e+04 4.617e-09
 11.43796    -50.2 1.567e+04 5.028e-09
 11.44779    -49.3 1.555e+04 4.484e-09
 11.46268    -52.5 1.557e+04 4.835e-09
 11.48232    -56.0 1.543e+04 4.699e-09
 11.50197    -59.6 1.486e+04 3.872e-09
 11.52161    -63.0 1.392e+04 2.940e-09
 11.54126    -65.6 1.290e+04 2.182e-09
 11.56090    -67.3 1.209e+04 1.598e-09
 11.58054    -68.8 1.141e+04 1.135e-09
 11.60019    -70.3 1.072e+04 7.839e-10
 11.61783    -71.5 1.005e+04 5.527e-10
 11.62766    -70.8 1.017e+04 5.923e-10
 11.63948    -71.7 9.651e+03 4.469e-10
 11.65912    -72.1 9.477e+03 3.933e-10
 11.67876    -72.4 9.440e+03 3.824e-10
 11.69841    -72.9 9.491e+03 3.839e-10
 11.71805    -74.5 9.778e+03 4.287e-10
 11.73770    -77.7 1.106e+04 8.224e-10
 11.75734    -80.7 1.360e+04 2.009e-09
 11.77698    -82.7 1.603e+04 4.713e-09
 11.79663    -84.0 1.807e+04 9.636e-09
 11.80753    -85.1 1.964e+04 1.680e-08
 11.81735    -84.1 1.946e+04 1.542e-08
 11.83096    -85.6 2.042e+04 2.113e-08
 11.84073    -86.7 2.078e+04 2.557e-08
 11.85055    -87.8 2.080e+04 2.850e-08
