# Columns:
#   distance along LOS (in CHIMPs)
#   peculiar velocity  (in km/s)
#   temperature (K)
#   HI number density
# pos=(6.31014,183.589,251.097), angles=(2.87581,2.48854)
  0.00799    -42.1 1.159e+04 1.080e-09
  0.02553    -42.4 1.120e+04 7.676e-10
  0.03565    -42.6 1.112e+04 6.889e-10
  0.04073    -43.7 1.065e+04 4.780e-10
  0.05085    -41.0 1.091e+04 6.102e-10
  0.06658    -42.0 1.062e+04 4.338e-10
  0.08682    -43.5 1.038e+04 3.757e-10
  0.10706    -45.2 1.035e+04 4.028e-10
  0.12731    -47.1 1.053e+04 4.693e-10
  0.13815    -48.6 1.063e+04 5.790e-10
  0.14817    -45.7 1.089e+04 5.678e-10
  0.15757    -46.5 1.063e+04 5.559e-10
  0.16779    -47.5 1.072e+04 6.606e-10
  0.18803    -48.1 1.095e+04 7.601e-10
  0.20827    -48.9 1.134e+04 8.169e-10
  0.22544    -50.6 1.170e+04 8.089e-10
  0.23556    -47.0 1.167e+04 8.025e-10
  0.24876    -49.0 1.175e+04 7.581e-10
  0.26900    -52.7 1.176e+04 7.059e-10
  0.27948    -57.7 1.219e+04 7.762e-10
  0.28961    -61.4 1.272e+04 1.012e-09
  0.30948    -66.3 1.358e+04 1.556e-09
  0.32286    -70.7 1.431e+04 2.271e-09
  0.33298    -67.5 1.408e+04 1.912e-09
  0.34997    -72.1 1.488e+04 2.734e-09
  0.37021    -77.5 1.555e+04 3.040e-09
  0.39045    -85.5 1.616e+04 2.949e-09
  0.40140    -96.7 1.673e+04 2.833e-09
  0.41098    -94.3 1.509e+04 2.222e-09
  0.42028    -92.9 1.602e+04 2.646e-09
  0.43094   -104.4 1.713e+04 3.314e-09
  0.45118   -111.9 1.805e+04 6.829e-09
  0.47142   -116.1 1.906e+04 1.097e-08
  0.49166   -120.1 1.943e+04 1.226e-08
  0.50757   -124.7 1.940e+04 1.086e-08
  0.51769   -125.7 1.904e+04 7.936e-09
  0.52331   -131.5 1.733e+04 4.329e-09
  0.53344   -127.2 1.842e+04 6.977e-09
  0.55239   -132.8 1.632e+04 3.643e-09
  0.57263   -137.2 1.420e+04 2.311e-09
  0.59287   -139.5 1.308e+04 1.776e-09
  0.60499   -140.8 1.250e+04 1.435e-09
  0.61511   -140.8 1.211e+04 1.215e-09
  0.63336   -141.8 1.158e+04 9.277e-10
  0.64523   -142.6 1.102e+04 6.870e-10
  0.65535   -141.6 1.157e+04 9.444e-10
  0.67384   -142.4 1.104e+04 7.003e-10
  0.69228   -143.0 1.052e+04 5.050e-10
  0.70241   -143.1 1.012e+04 3.876e-10
  0.71432   -143.6 9.786e+03 3.001e-10
  0.73457   -143.8 9.686e+03 2.645e-10
  0.76503   -144.1 9.686e+03 2.494e-10
  0.78990   -144.9 9.175e+03 1.945e-10
  0.81014   -145.1 8.821e+03 1.571e-10
  0.84609   -145.4 8.467e+03 1.253e-10
  0.87913   -144.6 8.357e+03 1.126e-10
  0.89938   -145.2 8.378e+03 1.095e-10
  0.92706   -144.5 8.354e+03 1.061e-10
  0.96449   -144.8 8.439e+03 1.090e-10
  0.98473   -146.6 8.513e+03 1.093e-10
  1.00803   -149.4 9.848e+03 2.120e-10
  1.04851   -151.5 1.158e+04 6.946e-10
  1.07193   -152.5 1.261e+04 1.481e-09
  1.08195   -152.9 1.253e+04 1.492e-09
  1.09892   -152.8 1.284e+04 1.831e-09
  1.11916   -152.9 1.309e+04 2.043e-09
  1.13289   -153.5 1.312e+04 2.086e-09
  1.14301   -154.8 1.310e+04 2.106e-09
  1.15913   -155.6 1.296e+04 1.886e-09
  1.16925   -156.6 1.252e+04 1.606e-09
  1.17989   -157.9 1.245e+04 1.514e-09
  1.20013   -159.2 1.246e+04 1.510e-09
  1.22037   -160.2 1.284e+04 1.773e-09
  1.24061   -160.6 1.329e+04 2.266e-09
  1.25480   -160.7 1.355e+04 2.680e-09
  1.26061   -161.6 1.341e+04 2.637e-09
  1.26667   -162.0 1.348e+04 2.640e-09
  1.28110   -162.0 1.351e+04 2.692e-09
  1.30134   -161.9 1.325e+04 2.597e-09
  1.32158   -161.4 1.271e+04 2.132e-09
  1.34182   -161.0 1.209e+04 1.633e-09
  1.35396   -160.6 1.149e+04 1.237e-09
  1.36408   -161.2 1.152e+04 1.260e-09
  1.37672   -160.6 1.099e+04 9.704e-10
  1.38684   -161.3 1.078e+04 8.646e-10
  1.40255   -160.6 1.045e+04 7.126e-10
  1.42279   -159.8 1.020e+04 6.187e-10
  1.44126   -158.8 1.004e+04 5.599e-10
  1.45138   -159.2 1.001e+04 5.344e-10
  1.46328   -158.3 9.851e+03 4.880e-10
  1.48352   -157.3 9.697e+03 4.525e-10
  1.49863   -156.3 9.582e+03 4.281e-10
  1.50875   -157.0 9.891e+03 4.595e-10
  1.52400   -156.0 9.946e+03 4.652e-10
  1.53867   -155.0 1.007e+04 4.904e-10
  1.54879   -155.3 9.879e+03 4.291e-10
  1.56449   -154.3 1.004e+04 4.601e-10
  1.58473   -153.3 1.011e+04 4.735e-10
  1.61053   -152.3 9.972e+03 4.354e-10
  1.63086   -153.6 1.092e+04 8.122e-10
  1.65577   -151.6 1.081e+04 7.990e-10
  1.69626   -149.7 1.070e+04 7.794e-10
  1.72358   -147.8 1.065e+04 8.013e-10
  1.74382   -147.5 1.036e+04 6.373e-10
  1.77722   -145.5 1.043e+04 6.748e-10
  1.81771   -143.7 1.072e+04 7.782e-10
  1.85445   -141.9 1.105e+04 9.199e-10
  1.87469   -142.6 1.100e+04 9.003e-10
  1.89817   -140.9 1.103e+04 9.098e-10
  1.91842   -140.2 1.068e+04 7.161e-10
  1.93916   -138.5 1.064e+04 6.944e-10
  1.97964   -136.6 1.047e+04 6.208e-10
  2.02013   -134.6 1.019e+04 5.065e-10
  2.06061   -132.5 9.945e+03 3.991e-10
  2.09301   -130.5 9.799e+03 3.276e-10
  2.11044   -129.7 9.946e+03 3.659e-10
  2.11852   -129.9 9.923e+03 3.712e-10
  2.14158   -127.8 9.970e+03 3.478e-10
  2.18206   -125.7 9.997e+03 3.437e-10
  2.22255   -123.9 1.020e+04 3.506e-10
  2.26303   -122.4 1.044e+04 3.922e-10
  2.28784   -121.0 1.066e+04 4.562e-10
  2.30808   -121.1 1.103e+04 6.179e-10
  2.34211   -120.0 1.122e+04 7.092e-10
  2.36235   -120.3 1.127e+04 7.566e-10
  2.38448   -119.2 1.147e+04 8.685e-10
  2.42497   -118.2 1.168e+04 1.004e-09
  2.46243   -117.2 1.179e+04 1.096e-09
  2.48268   -117.5 1.151e+04 8.850e-10
  2.50593   -116.2 1.139e+04 8.111e-10
  2.54642   -114.7 1.117e+04 6.552e-10
  2.58594   -112.9 1.088e+04 4.918e-10
  2.60618   -113.4 1.094e+04 4.891e-10
  2.62739   -111.8 1.068e+04 3.634e-10
  2.65727   -110.1 1.055e+04 2.856e-10
  2.67751   -110.0 1.044e+04 1.985e-10
  2.70835   -108.2 1.043e+04 1.754e-10
  2.74884   -106.3 1.042e+04 1.675e-10
  2.78932   -104.2 1.039e+04 1.650e-10
  2.82977   -102.1 1.036e+04 1.625e-10
  2.85207   -100.3 1.036e+04 1.785e-10
  2.87234   -100.1 1.034e+04 1.426e-10
  2.91077    -97.7 1.030e+04 1.300e-10
  2.95126    -95.2 1.029e+04 1.179e-10
  2.99174    -92.7 1.030e+04 1.068e-10
  3.02669    -90.2 1.033e+04 9.757e-11
  3.04694    -89.9 1.040e+04 8.914e-11
  3.07271    -87.4 1.044e+04 8.588e-11
  3.09384    -84.9 1.048e+04 8.559e-11
  3.11409    -84.8 1.045e+04 8.327e-11
  3.15368    -82.6 1.066e+04 8.569e-11
  3.19416    -80.7 1.087e+04 1.027e-10
  3.22153    -79.0 1.097e+04 1.499e-10
  3.24177    -78.7 1.104e+04 1.434e-10
  3.27513    -76.9 1.120e+04 2.307e-10
  3.31561    -74.9 1.147e+04 3.589e-10
  3.33767    -72.9 1.181e+04 5.051e-10
  3.35792    -72.7 1.192e+04 5.950e-10
  3.39612    -71.1 1.209e+04 6.446e-10
  3.41636    -70.9 1.212e+04 6.643e-10
  3.43707    -69.5 1.213e+04 6.645e-10
  3.47755    -68.0 1.210e+04 5.802e-10
  3.51803    -66.8 1.208e+04 5.176e-10
  3.54830    -65.7 1.195e+04 4.520e-10
  3.56844    -65.5 1.194e+04 4.650e-10
  3.58131    -64.9 1.206e+04 5.265e-10
  3.59143    -64.2 1.189e+04 4.133e-10
  3.60088    -64.1 1.191e+04 4.456e-10
  3.61110    -63.7 1.184e+04 3.994e-10
  3.62927    -63.3 1.198e+04 5.363e-10
  3.64941    -63.0 1.203e+04 6.357e-10
  3.66965    -62.5 1.212e+04 8.225e-10
  3.68817    -61.9 1.228e+04 9.975e-10
  3.69830    -61.6 1.216e+04 9.534e-10
  3.70322    -60.9 1.243e+04 1.135e-09
  3.71334    -60.6 1.211e+04 8.396e-10
  3.73038    -60.0 1.236e+04 9.665e-10
  3.75062    -59.5 1.269e+04 1.080e-09
  3.77086    -59.1 1.293e+04 1.142e-09
  3.78559    -59.1 1.293e+04 1.166e-09
  3.79571    -58.5 1.285e+04 1.149e-09
  3.81135    -58.3 1.271e+04 1.205e-09
  3.82524    -57.8 1.266e+04 1.330e-09
  3.84558    -57.4 1.248e+04 9.976e-10
  3.88239    -56.5 1.231e+04 1.038e-09
  3.92287    -55.3 1.197e+04 8.197e-10
  3.96038    -53.9 1.148e+04 4.921e-10
  3.98062    -52.5 1.169e+04 5.323e-10
  4.00384    -51.2 1.127e+04 2.748e-10
  4.04433    -50.0 1.101e+04 1.751e-10
  4.06916    -48.8 1.089e+04 1.487e-10
  4.08941    -49.2 1.120e+04 2.520e-10
  4.12529    -48.2 1.136e+04 2.748e-10
  4.15521    -47.0 1.127e+04 3.858e-10
  4.17545    -46.5 1.147e+04 4.002e-10
  4.20626    -44.8 1.149e+04 5.139e-10
  4.24675    -43.2 1.165e+04 5.974e-10
  4.28723    -42.0 1.180e+04 6.800e-10
  4.31299    -40.8 1.187e+04 8.114e-10
  4.33324    -41.9 1.181e+04 8.353e-10
  4.35005    -40.3 1.177e+04 8.916e-10
  4.37029    -40.3 1.167e+04 8.207e-10
  4.40868    -38.8 1.158e+04 7.434e-10
  4.44917    -37.3 1.133e+04 6.257e-10
  4.48965    -35.5 1.106e+04 4.713e-10
  4.52464    -33.8 1.085e+04 3.358e-10
  4.54488    -33.7 1.083e+04 3.256e-10
  4.55682    -32.2 1.073e+04 2.483e-10
  4.57707    -32.1 1.052e+04 2.031e-10
  4.61110    -30.4 1.044e+04 1.702e-10
  4.65159    -28.5 1.034e+04 1.479e-10
  4.69207    -26.3 1.024e+04 1.238e-10
  4.71947    -24.0 1.016e+04 9.396e-11
  4.73971    -23.6 1.010e+04 9.524e-11
  4.77304    -21.3 1.006e+04 6.665e-11
  4.80065    -19.4 1.007e+04 4.833e-11
  4.82090    -18.7 1.002e+04 4.394e-11
  4.85401    -16.9 9.942e+03 3.599e-11
  4.89406    -14.6 9.809e+03 3.546e-11
  4.91431    -14.3 9.761e+03 3.220e-11
  4.93497    -11.9 9.761e+03 3.306e-11
  4.97546     -9.5 9.775e+03 3.670e-11
  5.01594     -7.1 9.790e+03 4.415e-11
  5.04448     -4.6 9.802e+03 5.586e-11
  5.06473     -4.2 9.784e+03 5.326e-11
  5.08890     -1.6 9.826e+03 6.986e-11
  5.10914     -1.2 9.826e+03 6.868e-11
  5.13739      1.5 9.911e+03 8.935e-11
  5.17788      4.2 1.003e+04 1.151e-10
  5.21836      6.7 1.017e+04 1.435e-10
  5.25884      9.0 1.032e+04 1.716e-10
  5.28373     11.0 1.055e+04 2.234e-10
  5.29296     11.5 1.081e+04 3.662e-10
  5.30856     11.5 1.106e+04 4.585e-10
  5.33981     13.3 1.159e+04 7.587e-10
  5.37008     13.6 1.157e+04 7.567e-10
  5.38095     13.8 1.170e+04 8.787e-10
  5.39107     14.2 1.196e+04 1.125e-09
  5.41003     14.3 1.225e+04 1.357e-09
  5.42015     14.0 1.238e+04 1.494e-09
  5.43071     13.9 1.264e+04 1.688e-09
  5.45095     13.6 1.289e+04 1.869e-09
  5.46825     12.8 1.309e+04 2.034e-09
  5.47837     12.7 1.336e+04 2.390e-09
  5.49143     11.9 1.332e+04 2.419e-09
  5.51167     11.1 1.318e+04 2.327e-09
  5.53192     10.2 1.288e+04 2.090e-09
  5.55216      8.7 1.229e+04 1.516e-09
  5.56567      7.9 1.197e+04 1.318e-09
  5.57579      8.2 1.184e+04 1.167e-09
  5.59264      7.6 1.148e+04 9.497e-10
  5.62310      6.8 1.130e+04 8.246e-10
  5.65316      6.4 1.101e+04 6.334e-10
  5.67340      6.9 1.095e+04 6.055e-10
  5.70417      6.9 1.083e+04 5.869e-10
  5.74465      7.3 1.084e+04 6.299e-10
  5.77597      8.0 1.092e+04 7.374e-10
  5.79621      6.9 1.068e+04 6.117e-10
  5.82562      7.9 1.073e+04 7.043e-10
  5.84799      9.1 1.075e+04 7.124e-10
  5.86823      9.5 1.094e+04 8.082e-10
  5.89637     10.1 1.091e+04 8.076e-10
  5.90781     10.6 1.083e+04 7.723e-10
  5.91793     10.0 1.065e+04 6.318e-10
  5.93509     10.5 1.060e+04 5.522e-10
  5.94521     10.5 1.067e+04 6.018e-10
  5.95700     10.8 1.062e+04 5.425e-10
  5.97724     10.7 1.059e+04 4.690e-10
  5.99748     10.6 1.052e+04 4.343e-10
  6.01772     10.6 1.044e+04 4.196e-10
  6.02973     10.6 1.036e+04 4.148e-10
  6.03449      9.8 1.026e+04 3.963e-10
  6.04283      9.4 1.026e+04 4.183e-10
  6.06852      9.8 1.014e+04 4.301e-10
  6.10901     10.6 1.010e+04 4.344e-10
  6.14949     11.3 1.010e+04 4.153e-10
  6.18998     11.8 1.008e+04 3.830e-10
  6.21742     12.2 1.003e+04 3.645e-10
  6.23766     11.6 1.000e+04 3.639e-10
  6.26363     12.3 9.798e+03 3.247e-10
  6.28387     12.3 9.583e+03 2.962e-10
  6.31143     13.5 9.442e+03 2.688e-10
  6.35191     14.7 9.288e+03 2.151e-10
  6.39201     15.8 9.115e+03 1.637e-10
  6.41225     15.2 8.966e+03 1.303e-10
  6.43288     16.1 8.880e+03 1.213e-10
  6.47336     17.1 8.906e+03 1.272e-10
  6.50746     18.1 9.069e+03 1.570e-10
  6.52770     19.1 8.842e+03 1.242e-10
  6.55433     20.2 9.091e+03 1.674e-10
  6.58684     21.2 9.509e+03 2.463e-10
  6.60708     20.8 9.316e+03 2.116e-10
  6.63530     21.6 9.692e+03 2.966e-10
  6.67578     22.3 1.000e+04 3.834e-10
  6.71627     22.8 1.018e+04 4.445e-10
  6.75129     23.2 1.027e+04 4.759e-10
  6.77153     24.8 1.017e+04 4.434e-10
  6.78168     25.3 1.021e+04 4.622e-10
  6.80192     25.6 9.967e+03 4.063e-10
  6.83772     26.1 1.013e+04 4.540e-10
  6.87820     26.5 1.039e+04 5.282e-10
  6.91869     27.0 1.060e+04 5.914e-10
  6.95627     27.5 1.065e+04 5.985e-10
  6.97651     27.9 1.047e+04 5.304e-10
  6.99512     28.6 1.042e+04 4.733e-10
  7.01536     29.9 1.057e+04 5.641e-10
  7.04014     30.6 1.048e+04 4.642e-10
  7.08062     31.2 1.033e+04 3.337e-10
  7.12111     31.6 1.021e+04 2.423e-10
  7.15110     32.1 1.010e+04 2.303e-10
  7.17134     32.3 1.004e+04 2.418e-10
  7.20208     33.1 1.002e+04 2.405e-10
  7.23895     34.1 1.001e+04 2.330e-10
  7.25919     34.5 1.015e+04 2.750e-10
  7.28304     35.7 9.977e+03 2.490e-10
  7.32353     37.1 9.882e+03 2.008e-10
  7.34594     38.5 9.813e+03 1.577e-10
  7.36618     38.6 9.708e+03 1.191e-10
  7.40450     39.8 9.677e+03 1.092e-10
  7.44498     41.2 9.680e+03 1.100e-10
  7.48278     42.7 9.717e+03 1.142e-10
  7.50302     42.7 9.836e+03 1.440e-10
  7.52053     44.1 9.931e+03 1.607e-10
  7.54077     44.2 9.812e+03 1.308e-10
  7.56643     45.4 9.918e+03 1.491e-10
  7.60692     46.5 1.010e+04 1.801e-10
  7.64740     47.5 1.041e+04 2.325e-10
  7.68788     48.2 1.076e+04 3.121e-10
  7.71536     48.5 1.103e+04 4.045e-10
  7.73385     49.0 1.095e+04 3.946e-10
  7.74685     48.9 1.103e+04 4.219e-10
  7.75863     49.0 1.109e+04 4.663e-10
  7.77878     49.3 1.117e+04 5.006e-10
  7.79902     49.6 1.136e+04 5.343e-10
  7.81258     49.7 1.153e+04 5.519e-10
  7.82270     50.0 1.142e+04 5.306e-10
  7.83950     49.9 1.162e+04 5.522e-10
  7.85845     49.7 1.180e+04 5.681e-10
  7.86857     49.5 1.188e+04 5.916e-10
  7.87999     49.3 1.201e+04 6.190e-10
  7.89988     49.3 1.204e+04 6.457e-10
  7.91000     49.9 1.200e+04 6.453e-10
  7.93069     50.3 1.200e+04 7.202e-10
  7.97044     50.3 1.206e+04 7.940e-10
  7.99068     50.0 1.201e+04 7.401e-10
  8.01175     50.0 1.194e+04 7.209e-10
  8.05224     50.2 1.167e+04 6.645e-10
  8.08479     50.7 1.143e+04 5.925e-10
  8.10503     51.4 1.122e+04 5.475e-10
  8.13321     51.9 1.103e+04 4.746e-10
  8.17369     52.6 1.088e+04 4.286e-10
  8.21417     53.4 1.077e+04 4.049e-10
  8.25466     54.9 1.055e+04 3.403e-10
  8.27962     56.0 1.049e+04 3.161e-10
  8.29986     56.8 1.028e+04 2.641e-10
  8.33563     58.1 1.030e+04 2.532e-10
  8.37611     59.4 1.030e+04 2.538e-10
  8.41659     60.9 1.032e+04 2.580e-10
  8.45421     62.4 1.036e+04 2.648e-10
  8.47446     63.4 1.024e+04 2.506e-10
  8.47834     65.0 1.030e+04 2.626e-10
  8.49859     65.1 1.009e+04 1.943e-10
  8.53805     66.7 1.019e+04 2.146e-10
  8.57853     68.3 1.030e+04 2.372e-10
  8.61901     69.8 1.043e+04 2.665e-10
  8.64905     71.1 1.060e+04 3.052e-10
  8.66929     71.9 1.059e+04 3.047e-10
  8.69998     72.9 1.077e+04 3.421e-10
  8.72217     73.8 1.095e+04 3.806e-10
  8.74242     74.0 1.072e+04 2.997e-10
  8.78095     74.5 1.096e+04 3.508e-10
  8.82143     74.8 1.119e+04 4.104e-10
  8.84388     74.9 1.142e+04 4.805e-10
  8.86412     75.5 1.123e+04 4.168e-10
  8.90240     75.6 1.151e+04 4.933e-10
  8.94289     75.6 1.180e+04 5.809e-10
  8.96600     75.5 1.203e+04 6.238e-10
  8.98625     75.5 1.218e+04 6.716e-10
  9.01847     75.1 1.218e+04 6.400e-10
  9.03872     76.0 1.214e+04 6.326e-10
  9.06434     75.9 1.218e+04 6.158e-10
  9.10482     75.9 1.216e+04 5.978e-10
  9.14531     76.0 1.211e+04 6.011e-10
  9.18579     76.2 1.204e+04 6.024e-10
  9.20983     76.8 1.192e+04 5.935e-10
  9.21711     76.7 1.195e+04 6.955e-10
  9.23355     77.4 1.189e+04 6.668e-10
  9.26676     78.4 1.174e+04 6.157e-10
  9.30724     79.7 1.166e+04 5.938e-10
  9.34773     81.0 1.166e+04 6.035e-10
  9.38790     82.5 1.172e+04 6.213e-10
  9.40814     83.2 1.148e+04 5.158e-10
  9.42869     84.5 1.149e+04 5.172e-10
  9.45366     85.9 1.148e+04 5.032e-10
  9.47391     85.9 1.144e+04 5.196e-10
  9.50966     87.4 1.139e+04 4.744e-10
  9.55015     89.0 1.131e+04 4.094e-10
  9.58273     90.6 1.125e+04 3.512e-10
  9.60297     91.3 1.111e+04 3.264e-10
  9.63111     92.9 1.114e+04 3.027e-10
  9.67160     94.3 1.119e+04 2.899e-10
  9.69749     95.7 1.121e+04 2.764e-10
  9.71773     95.8 1.106e+04 2.558e-10
  9.75257     97.2 1.108e+04 2.549e-10
  9.77757     98.6 1.107e+04 2.467e-10
  9.79781     98.8 1.106e+04 2.464e-10
  9.83353    100.1 1.096e+04 2.292e-10
  9.87402    101.5 1.082e+04 2.062e-10
  9.91450    102.8 1.065e+04 1.847e-10
  9.94132    104.3 1.058e+04 1.762e-10
  9.95874    104.9 1.075e+04 2.463e-10
  9.97240    104.8 1.072e+04 2.457e-10
  9.99547    106.3 1.072e+04 2.485e-10
 10.03595    107.7 1.072e+04 2.632e-10
 10.07644    109.1 1.080e+04 3.007e-10
 10.11692    110.5 1.096e+04 3.676e-10
 10.14699    111.8 1.117e+04 4.720e-10
 10.16723    111.9 1.098e+04 4.293e-10
 10.18515    113.2 1.127e+04 5.664e-10
 10.20539    113.7 1.166e+04 7.247e-10
 10.23837    114.9 1.219e+04 9.825e-10
 10.27886    115.1 1.311e+04 1.479e-09
 10.30697    115.0 1.323e+04 1.624e-09
 10.31699    114.8 1.377e+04 1.855e-09
 10.32927    114.4 1.426e+04 2.152e-09
 10.34163    113.6 1.466e+04 2.463e-09
 10.35175    113.6 1.453e+04 2.706e-09
 10.36975    112.4 1.493e+04 3.061e-09
 10.38999    111.0 1.496e+04 3.161e-09
 10.41024    110.2 1.484e+04 3.085e-09
 10.42879    110.3 1.447e+04 2.692e-09
 10.43736    109.6 1.539e+04 4.173e-09
 10.43905    109.9 1.534e+04 4.169e-09
 10.45072    109.9 1.469e+04 3.129e-09
 10.47096    109.8 1.438e+04 2.581e-09
 10.49120    109.9 1.374e+04 1.851e-09
 10.51632    109.8 1.330e+04 1.371e-09
 10.53666    110.3 1.341e+04 1.570e-09
 10.56225    111.2 1.284e+04 1.067e-09
 10.60273    112.4 1.238e+04 7.404e-10
 10.64321    113.9 1.204e+04 6.134e-10
 10.67281    115.7 1.200e+04 6.084e-10
 10.69305    115.8 1.205e+04 6.742e-10
 10.71125    117.7 1.208e+04 6.995e-10
 10.73149    117.9 1.188e+04 6.313e-10
 10.76467    119.5 1.208e+04 7.419e-10
 10.80515    121.0 1.230e+04 8.594e-10
 10.84563    122.1 1.240e+04 8.871e-10
 10.88584    123.1 1.238e+04 8.696e-10
 10.90609    123.1 1.218e+04 8.341e-10
 10.91664    124.1 1.210e+04 7.565e-10
 10.93688    124.2 1.176e+04 5.557e-10
 10.96709    125.2 1.164e+04 4.651e-10
 11.00757    126.2 1.152e+04 4.027e-10
 11.04805    127.4 1.147e+04 3.939e-10
 11.08068    128.8 1.148e+04 4.017e-10
 11.10092    128.6 1.145e+04 3.924e-10
 11.12902    129.9 1.151e+04 4.528e-10
 11.16047    131.1 1.166e+04 5.650e-10
 11.18071    130.9 1.142e+04 4.542e-10
 11.20999    132.1 1.154e+04 5.478e-10
 11.25047    133.3 1.157e+04 5.943e-10
 11.27551    134.3 1.166e+04 6.020e-10
 11.28554    133.6 1.162e+04 6.176e-10
 11.29231    134.0 1.161e+04 6.111e-10
 11.30243    133.8 1.149e+04 5.094e-10
 11.32112    134.1 1.145e+04 4.939e-10
 11.34137    134.6 1.141e+04 4.826e-10
 11.36161    135.0 1.138e+04 4.768e-10
 11.37273    135.5 1.138e+04 4.794e-10
 11.38285    135.3 1.129e+04 4.508e-10
 11.40209    135.9 1.131e+04 4.632e-10
 11.41423    136.4 1.137e+04 4.851e-10
 11.42435    136.1 1.133e+04 4.790e-10
 11.44258    136.4 1.144e+04 5.226e-10
 11.46003    136.8 1.156e+04 5.780e-10
 11.47015    136.6 1.148e+04 5.668e-10
 11.48306    137.0 1.164e+04 6.351e-10
 11.50330    137.2 1.180e+04 7.065e-10
 11.52354    137.2 1.191e+04 7.599e-10
 11.53614    137.1 1.190e+04 7.625e-10
 11.54626    136.3 1.172e+04 7.092e-10
 11.57425    137.0 1.171e+04 7.137e-10
 11.61483    137.9 1.142e+04 6.309e-10
 11.64494    139.0 1.102e+04 4.801e-10
 11.65800    139.4 1.097e+04 4.490e-10
 11.66837    138.9 1.049e+04 2.308e-10
 11.69580    139.9 1.018e+04 1.276e-10
 11.73628    140.9 9.787e+03 7.580e-11
 11.77676    142.1 9.426e+03 6.466e-11
 11.81725    143.7 9.399e+03 6.423e-11
 11.83977    145.7 9.388e+03 6.465e-11
 11.86001    145.9 9.402e+03 6.443e-11
 11.89196    147.8 9.400e+03 6.907e-11
 11.91220    148.0 9.328e+03 6.411e-11
 11.93870    149.9 9.345e+03 7.235e-11
 11.97918    151.6 9.371e+03 8.318e-11
 12.01436    153.2 9.402e+03 9.665e-11
 12.03461    153.3 9.456e+03 1.021e-10
 12.06015    154.9 9.507e+03 1.185e-10
 12.10064    156.4 9.591e+03 1.408e-10
 12.13579    157.8 9.713e+03 1.703e-10
 12.15603    158.3 9.689e+03 1.685e-10
 12.18160    159.6 9.829e+03 2.034e-10
 12.20920    160.9 9.958e+03 2.403e-10
 12.22944    160.7 1.001e+04 2.307e-10
 12.26257    161.7 1.014e+04 2.439e-10
 12.30306    162.7 1.026e+04 2.476e-10
