# Columns:
#   distance along LOS (in CHIMPs)
#   peculiar velocity  (in km/s)
#   temperature (K)
#   HI number density
# pos=(179.331,244.025,247.468), angles=(0.39936,0.181919)
  0.00293   -142.1 1.172e+04 9.498e-10
  0.02706   -142.2 1.119e+04 6.604e-10
  0.05878   -142.1 1.106e+04 5.475e-10
  0.07998   -143.4 1.076e+04 4.193e-10
  0.11186   -143.2 1.082e+04 4.117e-10
  0.15226   -143.2 1.090e+04 4.012e-10
  0.17345   -145.2 1.068e+04 3.660e-10
  0.19665   -145.7 1.079e+04 3.791e-10
  0.23905   -146.7 1.100e+04 4.098e-10
  0.26693   -148.6 1.133e+04 4.967e-10
  0.28813   -150.2 1.123e+04 5.189e-10
  0.32385   -152.5 1.162e+04 6.856e-10
  0.35555   -155.7 1.178e+04 8.555e-10
  0.37080   -157.2 1.191e+04 9.506e-10
  0.38140   -158.0 1.193e+04 9.615e-10
  0.39785   -159.7 1.200e+04 9.991e-10
  0.41754   -161.5 1.200e+04 1.004e-09
  0.42814   -162.3 1.197e+04 9.999e-10
  0.44025   -164.0 1.188e+04 9.258e-10
  0.46145   -165.5 1.184e+04 8.373e-10
  0.47497   -166.9 1.193e+04 7.645e-10
  0.48557   -168.2 1.158e+04 6.821e-10
  0.49680   -169.5 1.156e+04 6.220e-10
  0.50740   -171.5 1.137e+04 5.711e-10
  0.52161   -172.6 1.141e+04 5.475e-10
  0.53221   -173.4 1.121e+04 5.210e-10
  0.54625   -174.3 1.121e+04 5.136e-10
  0.56845   -175.6 1.129e+04 5.131e-10
  0.58974   -176.2 1.093e+04 4.757e-10
  0.62064   -177.8 1.090e+04 4.602e-10
  0.66202   -178.8 1.075e+04 4.322e-10
  0.68322   -179.1 1.046e+04 3.581e-10
  0.70544   -179.8 1.022e+04 3.195e-10
  0.74784   -180.1 9.969e+03 2.828e-10
  0.77669   -180.2 9.743e+03 2.515e-10
  0.79789   -179.5 9.534e+03 2.215e-10
  0.83264   -179.2 9.436e+03 2.087e-10
  0.87016   -178.7 9.412e+03 2.038e-10
  0.89136   -178.0 9.316e+03 1.870e-10
  0.91743   -177.6 9.372e+03 1.934e-10
  0.95983   -177.5 9.482e+03 2.081e-10
  0.98483   -177.5 9.611e+03 2.300e-10
  1.00603   -176.9 9.519e+03 2.059e-10
  1.03963   -177.1 9.628e+03 2.263e-10
  1.06083   -177.6 9.679e+03 2.273e-10
  1.07831   -177.8 9.695e+03 2.382e-10
  1.09951   -177.3 9.666e+03 2.276e-10
  1.12943   -177.4 9.697e+03 2.356e-10
  1.17178   -177.3 9.668e+03 2.334e-10
  1.21418   -176.7 9.645e+03 2.237e-10
  1.25663   -176.4 9.534e+03 2.057e-10
  1.28645   -176.0 9.450e+03 1.931e-10
  1.30765   -175.6 9.480e+03 1.919e-10
  1.34142   -175.0 9.455e+03 1.891e-10
  1.37992   -174.4 9.474e+03 1.933e-10
  1.40112   -173.9 9.505e+03 1.867e-10
  1.42622   -173.4 9.671e+03 2.138e-10
  1.46862   -173.0 9.876e+03 2.638e-10
  1.49460   -172.6 1.006e+04 3.171e-10
  1.51580   -172.1 1.005e+04 2.919e-10
  1.55342   -171.7 1.022e+04 3.516e-10
  1.58807   -171.3 1.031e+04 3.776e-10
  1.60632   -170.7 1.036e+04 3.918e-10
  1.61407   -169.7 1.023e+04 3.316e-10
  1.63822   -169.2 1.037e+04 3.732e-10
  1.68061   -168.9 1.039e+04 3.805e-10
  1.70274   -168.7 1.033e+04 3.244e-10
  1.72394   -168.2 1.044e+04 3.637e-10
  1.76541   -168.2 1.031e+04 2.700e-10
  1.79621   -168.3 1.024e+04 2.017e-10
  1.81741   -167.9 1.032e+04 2.178e-10
  1.85021   -168.1 1.030e+04 1.785e-10
  1.88969   -168.1 1.031e+04 1.735e-10
  1.91089   -167.9 1.033e+04 1.735e-10
  1.93501   -167.9 1.025e+04 1.848e-10
  1.97741   -168.0 1.052e+04 2.569e-10
  2.00436   -167.9 1.085e+04 3.981e-10
  2.02556   -167.5 1.080e+04 3.554e-10
  2.06220   -167.3 1.115e+04 5.158e-10
  2.09783   -167.0 1.152e+04 6.582e-10
  2.11903   -166.8 1.142e+04 6.044e-10
  2.14611   -166.5 1.163e+04 6.494e-10
  2.16731   -166.4 1.166e+04 6.423e-10
  2.17870   -165.6 1.167e+04 6.285e-10
  2.19980   -165.5 1.165e+04 6.276e-10
  2.21231   -164.8 1.160e+04 6.079e-10
  2.23360   -164.2 1.158e+04 5.544e-10
  2.27420   -163.4 1.156e+04 5.207e-10
  2.30598   -161.9 1.152e+04 4.854e-10
  2.32717   -161.2 1.143e+04 4.269e-10
  2.35900   -159.3 1.144e+04 4.236e-10
  2.39945   -157.5 1.146e+04 4.267e-10
  2.42065   -157.0 1.134e+04 3.466e-10
  2.44379   -155.6 1.164e+04 3.765e-10
  2.48619   -154.6 1.205e+04 5.416e-10
  2.51412   -153.9 1.264e+04 9.543e-10
  2.53532   -154.0 1.261e+04 9.811e-10
  2.57099   -153.7 1.326e+04 1.634e-09
  2.60269   -153.5 1.354e+04 2.007e-09
  2.61800   -153.7 1.367e+04 2.127e-09
  2.62869   -153.6 1.327e+04 1.723e-09
  2.64509   -153.9 1.341e+04 1.849e-09
  2.66473   -154.2 1.342e+04 1.844e-09
  2.67533   -154.1 1.317e+04 1.612e-09
  2.68739   -154.7 1.314e+04 1.538e-09
  2.70859   -155.0 1.312e+04 1.483e-09
  2.72035   -155.8 1.312e+04 1.437e-09
  2.72323   -155.9 1.318e+04 1.590e-09
  2.73267   -156.1 1.304e+04 1.456e-09
  2.75099   -157.0 1.312e+04 1.468e-09
  2.76881   -158.2 1.342e+04 1.552e-09
  2.77941   -158.5 1.327e+04 1.429e-09
  2.79339   -160.1 1.359e+04 1.520e-09
  2.81459   -162.1 1.394e+04 1.654e-09
  2.82614   -164.5 1.417e+04 1.847e-09
  2.83674   -164.0 1.378e+04 1.522e-09
  2.85699   -166.2 1.384e+04 1.596e-09
  2.87288   -168.0 1.386e+04 1.627e-09
  2.88348   -166.8 1.356e+04 1.406e-09
  2.89939   -168.6 1.327e+04 1.406e-09
  2.91961   -169.4 1.281e+04 1.276e-09
  2.93021   -168.1 1.277e+04 1.170e-09
  2.94179   -168.6 1.227e+04 9.325e-10
  2.96298   -168.6 1.197e+04 6.885e-10
  2.97695   -168.6 1.178e+04 5.077e-10
  2.98755   -167.5 1.178e+04 4.909e-10
  2.99697   -167.8 1.172e+04 4.219e-10
  3.00757   -167.9 1.169e+04 4.267e-10
  3.02378   -168.4 1.154e+04 3.502e-10
  3.04508   -166.7 1.149e+04 3.404e-10
  3.07978   -166.4 1.111e+04 2.378e-10
  3.11735   -165.7 1.080e+04 1.864e-10
  3.13855   -164.2 1.079e+04 1.707e-10
  3.16457   -163.2 1.064e+04 1.521e-10
  3.20697   -162.1 1.061e+04 1.486e-10
  3.23203   -161.0 1.057e+04 1.526e-10
  3.25323   -159.8 1.055e+04 1.326e-10
  3.27379   -158.6 1.051e+04 1.573e-10
  3.29499   -158.7 1.046e+04 1.361e-10
  3.32550   -157.3 1.046e+04 1.757e-10
  3.34670   -156.3 1.045e+04 1.561e-10
  3.37657   -154.7 1.047e+04 2.007e-10
  3.41897   -153.1 1.050e+04 2.416e-10
  3.46137   -150.5 1.046e+04 2.440e-10
  3.50377   -148.8 1.046e+04 2.572e-10
  3.53364   -147.0 1.045e+04 2.595e-10
  3.55484   -146.2 1.037e+04 2.460e-10
  3.58856   -144.5 1.036e+04 2.477e-10
  3.62712   -142.7 1.026e+04 2.308e-10
  3.64832   -142.0 1.025e+04 2.303e-10
  3.67336   -140.2 1.017e+04 2.126e-10
  3.71576   -138.3 1.011e+04 1.932e-10
  3.74179   -136.4 1.003e+04 1.779e-10
  3.76299   -135.8 9.973e+03 1.751e-10
  3.80056   -134.0 9.952e+03 1.652e-10
  3.82703   -132.1 9.957e+03 1.619e-10
  3.84053   -132.6 9.924e+03 1.721e-10
  3.85646   -132.2 9.908e+03 1.719e-10
  3.88536   -130.7 9.927e+03 1.698e-10
  3.92775   -129.6 1.004e+04 2.047e-10
  3.94993   -128.6 1.018e+04 3.087e-10
  3.97113   -128.2 1.006e+04 2.795e-10
  4.01255   -127.0 1.018e+04 3.906e-10
  4.04341   -125.8 1.030e+04 5.098e-10
  4.06461   -125.4 1.005e+04 3.883e-10
  4.09735   -124.3 1.006e+04 4.202e-10
  4.13688   -123.1 1.003e+04 4.202e-10
  4.15808   -122.6 9.775e+03 3.136e-10
  4.18215   -121.5 9.690e+03 2.959e-10
  4.22455   -120.3 9.605e+03 2.797e-10
  4.25155   -119.0 9.542e+03 2.686e-10
  4.27275   -118.5 9.410e+03 2.331e-10
  4.30934   -117.2 9.387e+03 2.329e-10
  4.34502   -115.9 9.358e+03 2.369e-10
  4.36622   -115.3 9.264e+03 2.205e-10
  4.38026   -113.9 9.216e+03 2.207e-10
  4.40146   -113.9 8.960e+03 1.415e-10
  4.43654   -112.4 8.902e+03 1.398e-10
  4.45970   -110.6 8.853e+03 1.353e-10
  4.48089   -109.9 8.736e+03 1.179e-10
  4.52134   -107.9 8.679e+03 1.070e-10
  4.55317   -105.9 8.634e+03 9.843e-11
  4.57437   -105.1 8.552e+03 8.490e-11
  4.60614   -102.9 8.517e+03 7.843e-11
  4.64664   -100.7 8.509e+03 7.545e-11
  4.66784   -100.0 8.448e+03 6.901e-11
  4.69093    -97.5 8.434e+03 6.788e-11
  4.73333    -94.8 8.435e+03 6.734e-11
  4.76131    -91.9 8.460e+03 6.718e-11
  4.78251    -91.3 8.424e+03 6.501e-11
  4.81813    -88.4 8.500e+03 6.628e-11
  4.85479    -86.2 8.783e+03 7.467e-11
  4.87598    -85.6 8.725e+03 7.270e-11
  4.90293    -85.3 9.437e+03 1.260e-10
  4.93350    -86.3 1.190e+04 6.051e-10
  4.94401    -89.8 1.199e+04 8.678e-10
  4.95573    -89.8 1.344e+04 2.209e-09
  4.96926    -89.7 1.480e+04 4.817e-09
  4.97986    -90.4 1.486e+04 4.946e-09
  4.99813    -89.1 1.602e+04 8.399e-09
  5.01600    -88.2 1.664e+04 1.041e-08
  5.02660    -88.8 1.606e+04 9.057e-09
  5.04053    -87.9 1.604e+04 8.459e-09
  5.06173    -87.8 1.563e+04 5.397e-09
  5.07333    -90.9 1.525e+04 3.041e-09
  5.08393    -92.2 1.423e+04 2.206e-09
  5.10413    -98.2 1.352e+04 1.596e-09
  5.12007   -103.5 1.325e+04 1.538e-09
  5.13067   -105.1 1.190e+04 1.195e-09
  5.14653   -107.9 1.227e+04 1.520e-09
  5.16681   -109.6 1.316e+04 2.152e-09
  5.17741   -110.4 1.199e+04 1.489e-09
  5.18893   -111.8 1.253e+04 1.689e-09
  5.20993   -112.5 1.316e+04 1.950e-09
  5.22053   -112.0 1.215e+04 1.402e-09
  5.22414   -113.4 1.289e+04 1.642e-09
  5.23474   -115.3 1.144e+04 1.056e-09
  5.25252   -118.2 1.289e+04 1.439e-09
  5.27088   -121.8 1.488e+04 2.691e-09
  5.28148   -123.0 1.343e+04 1.735e-09
  5.29492   -125.6 1.479e+04 3.246e-09
  5.31612   -126.6 1.550e+04 5.031e-09
  5.32822   -127.2 1.580e+04 6.124e-09
  5.33881   -128.8 1.453e+04 4.003e-09
  5.35852   -129.2 1.470e+04 4.255e-09
  5.37495   -129.9 1.465e+04 3.858e-09
  5.38555   -132.1 1.363e+04 2.846e-09
  5.40092   -133.7 1.325e+04 2.096e-09
  5.42169   -136.0 1.272e+04 1.473e-09
  5.43229   -136.8 1.251e+04 1.439e-09
  5.44332   -138.8 1.235e+04 1.266e-09
  5.46452   -140.4 1.232e+04 1.237e-09
  5.47902   -141.9 1.239e+04 1.247e-09
  5.48962   -142.2 1.240e+04 1.267e-09
  5.49715   -143.5 1.263e+04 1.377e-09
  5.50775   -142.7 1.241e+04 1.218e-09
  5.52576   -143.7 1.262e+04 1.362e-09
  5.53636   -143.7 1.245e+04 1.315e-09
  5.54932   -144.5 1.261e+04 1.472e-09
  5.57051   -144.9 1.278e+04 1.620e-09
  5.58310   -145.3 1.292e+04 1.701e-09
  5.59370   -144.9 1.255e+04 1.503e-09
  5.61291   -145.1 1.262e+04 1.534e-09
  5.62983   -145.4 1.271e+04 1.523e-09
  5.64043   -144.7 1.245e+04 1.334e-09
  5.65531   -144.9 1.252e+04 1.335e-09
  5.67651   -145.1 1.251e+04 1.293e-09
  5.69771   -144.2 1.235e+04 1.211e-09
  5.71891   -144.0 1.228e+04 1.177e-09
  5.73390   -143.6 1.212e+04 1.091e-09
  5.74450   -142.6 1.214e+04 1.128e-09
  5.76131   -142.0 1.197e+04 1.004e-09
  5.77377   -141.5 1.177e+04 8.438e-10
  5.78250   -141.0 1.164e+04 7.367e-10
  5.79124   -140.0 1.178e+04 7.850e-10
  5.80371   -139.7 1.155e+04 5.971e-10
  5.82491   -139.5 1.129e+04 4.635e-10
  5.83798   -139.4 1.104e+04 3.891e-10
  5.84858   -138.8 1.137e+04 4.086e-10
  5.86731   -138.8 1.121e+04 3.751e-10
  5.88471   -138.6 1.116e+04 3.691e-10
  5.89531   -138.4 1.144e+04 4.355e-10
  5.90971   -138.2 1.141e+04 4.421e-10
  5.93091   -138.1 1.139e+04 4.986e-10
  5.94205   -138.0 1.143e+04 5.883e-10
  5.95265   -137.7 1.158e+04 7.220e-10
  5.97330   -137.4 1.165e+04 8.216e-10
  5.98879   -137.1 1.175e+04 9.337e-10
  5.99939   -136.7 1.185e+04 9.999e-10
  6.01570   -136.5 1.190e+04 1.064e-09
  6.03552   -136.3 1.199e+04 1.133e-09
  6.04612   -135.9 1.195e+04 1.056e-09
  6.05039   -135.8 1.201e+04 1.058e-09
  6.06099   -135.4 1.180e+04 9.836e-10
  6.07930   -135.2 1.186e+04 9.968e-10
  6.09286   -135.1 1.196e+04 1.007e-09
  6.10346   -134.6 1.182e+04 8.616e-10
  6.12170   -134.6 1.196e+04 8.701e-10
  6.13959   -134.6 1.209e+04 8.936e-10
  6.15019   -134.0 1.200e+04 7.866e-10
  6.16410   -134.0 1.208e+04 8.274e-10
  6.18530   -133.8 1.206e+04 8.541e-10
  6.19693   -133.6 1.204e+04 8.624e-10
  6.20753   -132.8 1.203e+04 8.301e-10
  6.22770   -132.4 1.186e+04 8.305e-10
  6.24367   -131.7 1.157e+04 7.267e-10
  6.25427   -130.9 1.162e+04 7.548e-10
  6.27010   -130.3 1.147e+04 5.885e-10
  6.29040   -129.9 1.138e+04 4.562e-10
  6.30100   -129.1 1.142e+04 4.751e-10
  6.31250   -128.7 1.133e+04 3.944e-10
  6.34439   -128.2 1.126e+04 3.601e-10
  6.38407   -127.8 1.110e+04 3.168e-10
  6.40527   -126.2 1.106e+04 3.064e-10
  6.42929   -125.5 1.092e+04 2.841e-10
  6.47169   -124.5 1.089e+04 2.843e-10
  6.49874   -123.4 1.092e+04 2.974e-10
  6.51994   -122.2 1.081e+04 2.633e-10
  6.55648   -121.1 1.084e+04 2.728e-10
  6.59222   -119.8 1.086e+04 2.872e-10
  6.60775   -118.7 1.080e+04 2.535e-10
  6.61442   -117.5 1.080e+04 2.509e-10
  6.64128   -116.3 1.080e+04 2.565e-10
  6.68368   -114.9 1.076e+04 2.628e-10
  6.70689   -113.4 1.070e+04 2.648e-10
  6.72809   -112.4 1.063e+04 2.163e-10
  6.76848   -110.7 1.053e+04 2.025e-10
  6.80036   -109.0 1.045e+04 1.817e-10
  6.82156   -108.0 1.043e+04 1.483e-10
  6.85328   -106.3 1.043e+04 1.396e-10
  6.89383   -104.6 1.045e+04 1.383e-10
  6.91503   -103.9 1.049e+04 1.317e-10
  6.93807   -102.8 1.068e+04 1.412e-10
  6.98047   -102.2 1.104e+04 2.144e-10
  7.00851   -101.5 1.140e+04 4.116e-10
  7.02970   -101.0 1.137e+04 4.141e-10
  7.06527   -100.2 1.181e+04 7.202e-10
  7.09697    -99.1 1.201e+04 8.617e-10
  7.11238    -99.0 1.229e+04 1.022e-09
  7.12308    -99.0 1.200e+04 8.022e-10
  7.14646    -98.3 1.213e+04 8.815e-10
  7.16766    -96.8 1.194e+04 7.825e-10
  7.19247    -96.2 1.210e+04 8.478e-10
  7.21665    -95.6 1.212e+04 8.082e-10
  7.22715    -95.4 1.177e+04 6.431e-10
  7.24527    -94.9 1.177e+04 6.254e-10
  7.26319    -94.5 1.167e+04 5.993e-10
  7.27379    -93.8 1.150e+04 5.149e-10
  7.28767    -93.5 1.146e+04 5.067e-10
  7.30887    -93.0 1.141e+04 5.015e-10
  7.32053    -92.8 1.142e+04 5.180e-10
  7.33122    -92.3 1.126e+04 4.341e-10
  7.36206    -91.5 1.115e+04 4.346e-10
  7.40360    -90.5 1.108e+04 4.594e-10
  7.42479    -89.8 1.071e+04 3.572e-10
  7.44686    -88.6 1.067e+04 3.847e-10
  7.48926    -87.2 1.066e+04 3.965e-10
  7.51827    -85.8 1.066e+04 3.694e-10
  7.53947    -85.4 1.042e+04 3.462e-10
  7.57406    -84.1 1.050e+04 3.323e-10
  7.61174    -82.9 1.045e+04 3.114e-10
  7.63294    -82.4 1.020e+04 2.962e-10
  7.65885    -81.1 1.018e+04 2.741e-10
  7.69970    -79.9 1.017e+04 2.654e-10
  7.72090    -79.2 9.994e+03 2.096e-10
  7.72641    -78.1 9.967e+03 2.093e-10
  7.74761    -77.4 9.855e+03 1.807e-10
  7.78605    -76.2 9.815e+03 1.823e-10
  7.81988    -75.1 9.748e+03 1.860e-10
  7.84108    -74.3 9.678e+03 1.675e-10
  7.87085    -73.1 9.586e+03 1.611e-10
  7.91325    -71.9 9.512e+03 1.500e-10
  7.95565    -69.9 9.369e+03 1.168e-10
  7.99805    -68.7 9.237e+03 1.103e-10
  8.02803    -67.4 9.151e+03 1.102e-10
  8.04923    -66.8 9.091e+03 8.759e-11
  8.08284    -65.4 8.994e+03 9.083e-11
  8.12150    -64.1 8.950e+03 9.727e-11
  8.14270    -63.6 8.921e+03 8.550e-11
  8.16764    -62.6 8.942e+03 9.439e-11
  8.21004    -61.9 8.958e+03 1.093e-10
  8.23617    -61.3 8.958e+03 1.347e-10
  8.25737    -60.7 8.964e+03 1.273e-10
  8.27414    -60.1 8.978e+03 1.547e-10
  8.29534    -59.4 8.917e+03 1.448e-10
  8.32965    -58.8 8.896e+03 1.559e-10
  8.35085    -58.2 8.923e+03 1.480e-10
  8.37964    -58.0 8.915e+03 1.611e-10
  8.42203    -58.0 8.969e+03 1.748e-10
  8.44432    -58.4 9.039e+03 1.972e-10
  8.46552    -58.2 9.234e+03 2.448e-10
  8.50683    -58.9 9.291e+03 2.624e-10
  8.53779    -59.6 9.158e+03 2.586e-10
  8.55899    -59.6 9.301e+03 3.081e-10
  8.59163    -60.1 8.946e+03 2.373e-10
  8.63126    -60.4 8.648e+03 1.695e-10
  8.65246    -60.7 8.753e+03 1.794e-10
  8.67643    -61.2 8.534e+03 1.255e-10
  8.71883    -61.8 8.444e+03 1.142e-10
  8.74594    -61.8 8.385e+03 1.215e-10
  8.76714    -61.6 8.407e+03 1.353e-10
  8.80362    -61.0 8.376e+03 1.555e-10
  8.82738    -60.0 8.376e+03 1.651e-10
  8.84196    -60.2 8.419e+03 1.884e-10
  8.86061    -59.7 8.254e+03 1.537e-10
  8.88842    -58.8 8.193e+03 1.418e-10
  8.93082    -57.9 8.151e+03 1.322e-10
  8.95408    -57.0 8.151e+03 1.273e-10
  8.97528    -56.4 8.023e+03 1.056e-10
  9.01562    -55.8 8.203e+03 1.137e-10
  9.04755    -55.8 8.472e+03 1.447e-10
  9.06875    -55.2 8.438e+03 1.460e-10
  9.10042    -55.4 8.802e+03 2.235e-10
  9.14103    -55.5 9.298e+03 3.680e-10
  9.16223    -54.5 9.175e+03 3.300e-10
  9.18521    -54.9 9.664e+03 4.641e-10
  9.22761    -55.7 1.002e+04 5.819e-10
  9.25570    -56.4 1.013e+04 6.323e-10
  9.27690    -55.9 9.959e+03 5.520e-10
  9.31241    -56.0 1.007e+04 6.200e-10
  9.34917    -55.9 1.011e+04 5.777e-10
  9.37037    -55.3 1.009e+04 5.906e-10
  9.38061    -55.0 1.008e+04 5.222e-10
  9.40181    -55.4 1.020e+04 5.570e-10
  9.43961    -55.5 1.016e+04 4.736e-10
  9.46384    -55.4 1.002e+04 4.201e-10
  9.48504    -54.6 1.014e+04 4.877e-10
  9.52440    -53.9 9.929e+03 4.301e-10
  9.55732    -52.7 9.544e+03 3.019e-10
  9.57851    -51.7 9.703e+03 3.754e-10
  9.60920    -50.4 9.279e+03 2.074e-10
  9.65079    -49.4 8.965e+03 1.015e-10
  9.67199    -48.3 9.134e+03 1.322e-10
  9.69400    -47.7 8.910e+03 7.136e-11
  9.73640    -47.0 8.635e+03 5.777e-11
  9.76546    -45.9 8.533e+03 5.608e-11
  9.78666    -44.9 8.773e+03 6.639e-11
  9.82120    -43.9 8.751e+03 6.400e-11
  9.85893    -43.4 8.718e+03 7.688e-11
  9.88013    -43.1 9.320e+03 9.369e-11
  9.90599    -43.7 9.396e+03 1.447e-10
  9.93385    -44.4 9.605e+03 2.256e-10
  9.95505    -44.3 1.019e+04 4.763e-10
  9.97360    -45.1 1.031e+04 4.903e-10
  9.99480    -45.1 1.077e+04 6.875e-10
 10.03319    -47.0 1.031e+04 4.642e-10
 10.06708    -48.1 1.020e+04 4.463e-10
 10.08828    -48.7 1.021e+04 3.916e-10
 10.11799    -49.0 1.013e+04 3.586e-10
 10.16039    -48.8 1.017e+04 3.558e-10
 10.20279    -50.4 1.052e+04 3.528e-10
 10.24519    -50.9 1.101e+04 6.495e-10
 10.27522    -50.4 1.187e+04 1.179e-09
 10.29642    -50.5 1.127e+04 7.658e-10
 10.31929    -50.1 1.161e+04 8.179e-10
 10.33236    -50.0 1.175e+04 7.900e-10
 10.34296    -50.0 1.139e+04 6.562e-10
 10.36159    -51.2 1.117e+04 4.583e-10
 10.37910    -51.4 1.134e+04 4.336e-10
 10.38970    -51.2 1.100e+04 3.443e-10
 10.40399    -51.8 1.105e+04 3.323e-10
 10.42519    -51.8 1.128e+04 3.452e-10
 10.43643    -51.9 1.160e+04 3.757e-10
 10.44703    -51.2 1.147e+04 3.125e-10
 10.46758    -51.4 1.183e+04 3.492e-10
 10.48317    -51.9 1.218e+04 4.326e-10
 10.49188    -51.4 1.206e+04 3.702e-10
 10.49750    -50.5 1.175e+04 2.794e-10
 10.50998    -50.7 1.193e+04 3.452e-10
 10.52991    -51.0 1.197e+04 4.914e-10
 10.54051    -50.6 1.198e+04 4.665e-10
 10.55238    -50.4 1.221e+04 7.339e-10
 10.57358    -49.6 1.257e+04 1.066e-09
 10.58724    -48.9 1.307e+04 1.448e-09
 10.59784    -48.4 1.289e+04 1.412e-09
 10.61598    -47.9 1.329e+04 1.774e-09
 10.63398    -48.2 1.411e+04 2.291e-09
 10.64458    -47.1 1.361e+04 2.125e-09
 10.65838    -47.8 1.489e+04 2.959e-09
 10.67958    -49.0 1.586e+04 4.635e-09
 10.69132    -49.5 1.601e+04 6.803e-09
 10.70192    -49.1 1.670e+04 7.164e-09
 10.72198    -49.2 1.690e+04 1.045e-08
 10.73805    -49.0 1.730e+04 1.150e-08
 10.74865    -49.6 1.841e+04 1.872e-08
 10.76352    -49.6 1.921e+04 1.897e-08
 10.77407    -49.2 1.964e+04 3.709e-08
 10.78018    -48.9 2.037e+04 3.392e-08
 10.78999    -49.1 2.152e+04 2.374e-08
 10.79529    -49.2 2.092e+04 4.301e-08
 10.80138    -50.0 2.219e+04 2.770e-08
 10.81198    -52.0 2.384e+04 1.578e-08
 10.81866    -54.4 2.364e+04 1.091e-08
 10.82396    -54.6 2.299e+04 1.840e-08
 10.83318    -56.7 2.267e+04 1.151e-08
 10.84208    -59.7 2.081e+04 7.612e-09
 10.84738    -58.9 2.135e+04 1.397e-08
 10.85438    -61.0 1.998e+04 1.103e-08
 10.87032    -62.1 1.877e+04 1.197e-08
 10.88886    -62.6 1.666e+04 6.974e-09
 10.89946    -62.3 1.760e+04 1.402e-08
 10.91277    -62.1 1.593e+04 7.974e-09
 10.93397    -61.3 1.490e+04 4.492e-09
 10.94620    -60.7 1.412e+04 2.756e-09
 10.95680    -60.3 1.455e+04 4.030e-09
 10.97637    -59.9 1.397e+04 2.657e-09
 10.99303    -59.6 1.332e+04 1.888e-09
 11.00363    -59.6 1.375e+04 2.672e-09
 11.01877    -58.8 1.350e+04 2.277e-09
 11.03967    -57.9 1.334e+04 2.134e-09
 11.05027    -57.6 1.354e+04 2.430e-09
 11.05073    -56.8 1.346e+04 2.294e-09
 11.06133    -57.0 1.348e+04 2.085e-09
 11.08650    -56.8 1.340e+04 2.030e-09
 11.10770    -55.6 1.378e+04 2.593e-09
 11.13546    -55.4 1.387e+04 2.767e-09
 11.16726    -54.4 1.389e+04 2.994e-09
 11.18837    -53.9 1.388e+04 2.972e-09
 11.20108    -53.6 1.382e+04 2.877e-09
 11.21168    -52.8 1.381e+04 3.207e-09
 11.23076    -52.5 1.383e+04 3.116e-09
 11.24781    -52.5 1.394e+04 3.118e-09
 11.25841    -52.1 1.439e+04 3.745e-09
 11.27316    -52.5 1.460e+04 4.309e-09
 11.29436    -52.3 1.477e+04 5.006e-09
 11.30515    -51.9 1.489e+04 5.331e-09
 11.31575    -51.4 1.561e+04 7.727e-09
 11.32735    -50.9 1.572e+04 7.810e-09
