# Columns:
#   distance along LOS (in CHIMPs)
#   peculiar velocity  (in km/s)
#   temperature (K)
#   HI number density
# pos=(102.268,176.498,158.648), angles=(1.8632,3.0426)
  0.00156    -49.9 1.265e+04 2.044e-09
  0.00338    -50.7 1.275e+04 1.818e-09
  0.00802    -48.2 1.255e+04 1.919e-09
  0.01801    -49.4 1.270e+04 1.808e-09
  0.03387    -50.9 1.303e+04 1.486e-09
  0.05436    -53.4 1.287e+04 1.142e-09
  0.07238    -55.6 1.187e+04 8.741e-10
  0.08263    -56.8 1.142e+04 8.024e-10
  0.09536    -57.7 1.084e+04 6.864e-10
  0.11586    -57.7 1.062e+04 6.312e-10
  0.13635    -57.7 1.050e+04 5.681e-10
  0.14726    -57.7 1.023e+04 5.079e-10
  0.15751    -58.4 1.008e+04 4.673e-10
  0.17735    -57.6 9.770e+03 4.015e-10
  0.19785    -57.7 9.729e+03 3.971e-10
  0.21198    -56.3 9.581e+03 3.587e-10
  0.23257    -56.1 9.308e+03 3.106e-10
  0.26978    -54.9 8.973e+03 2.469e-10
  0.31078    -53.5 8.643e+03 1.991e-10
  0.34133    -52.4 8.432e+03 1.719e-10
  0.36182    -51.8 8.195e+03 1.343e-10
  0.39277    -50.4 8.059e+03 1.292e-10
  0.41493    -48.8 8.088e+03 1.356e-10
  0.43542    -47.1 8.162e+03 1.439e-10
  0.47058    -45.7 8.292e+03 1.620e-10
  0.49107    -45.4 8.117e+03 1.323e-10
  0.51575    -44.2 8.371e+03 1.690e-10
  0.55674    -43.0 8.728e+03 2.356e-10
  0.59774    -41.6 9.060e+03 3.072e-10
  0.62032    -40.2 9.104e+03 3.166e-10
  0.64082    -39.5 8.731e+03 2.339e-10
  0.67973    -38.3 8.763e+03 2.407e-10
  0.72072    -37.4 8.771e+03 2.431e-10
  0.74957    -36.6 8.788e+03 2.410e-10
  0.77007    -35.5 8.644e+03 2.255e-10
  0.80271    -34.5 8.701e+03 2.385e-10
  0.82627    -33.4 8.723e+03 2.497e-10
  0.84677    -32.3 8.803e+03 2.604e-10
  0.87882    -31.3 8.882e+03 2.748e-10
  0.89932    -30.3 9.027e+03 3.095e-10
  0.92570    -29.5 9.162e+03 3.243e-10
  0.96669    -28.9 9.101e+03 3.014e-10
  1.00769    -28.1 8.888e+03 2.469e-10
  1.02857    -27.3 8.597e+03 1.878e-10
  1.04907    -26.8 8.878e+03 2.473e-10
  1.08968    -25.8 8.555e+03 1.846e-10
  1.13067    -24.6 8.265e+03 1.367e-10
  1.15782    -23.3 8.052e+03 1.043e-10
  1.17832    -22.7 8.158e+03 1.123e-10
  1.21266    -21.4 7.987e+03 8.883e-11
  1.23762    -20.0 7.881e+03 7.922e-11
  1.25812    -19.0 7.939e+03 8.949e-11
  1.28707    -17.3 7.908e+03 9.053e-11
  1.30757    -16.8 7.941e+03 9.412e-11
  1.33564    -14.9 7.918e+03 9.828e-11
  1.37664    -12.9 7.922e+03 9.832e-11
  1.41632    -10.9 7.921e+03 9.382e-11
  1.43682    -10.3 7.923e+03 9.760e-11
  1.45863     -8.4 7.928e+03 8.590e-11
  1.49962     -6.6 7.916e+03 7.307e-11
  1.54062     -4.9 7.878e+03 6.822e-11
  1.56607     -3.1 7.873e+03 6.947e-11
  1.58657     -2.6 7.865e+03 7.061e-11
  1.62261     -0.8 7.870e+03 7.712e-11
  1.64897      1.2 7.949e+03 8.732e-11
  1.66947      2.4 7.913e+03 7.461e-11
  1.69532      4.4 7.988e+03 7.844e-11
  1.71582      4.9 7.919e+03 7.212e-11
  1.74559      6.9 7.987e+03 7.199e-11
  1.78659      8.8 8.032e+03 7.011e-11
  1.82457     10.7 8.113e+03 6.595e-11
  1.84507     11.3 8.096e+03 6.448e-11
  1.86857     13.1 8.153e+03 6.314e-11
  1.90957     14.8 8.170e+03 6.324e-11
  1.95056     16.6 8.211e+03 6.410e-11
  1.97432     18.2 8.254e+03 6.677e-11
  1.99481     18.9 8.254e+03 6.598e-11
  2.03255     20.5 8.299e+03 6.984e-11
  2.06032     22.1 8.381e+03 7.155e-11
  2.08081     23.2 8.374e+03 7.326e-11
  2.10357     24.7 8.389e+03 7.388e-11
  2.12407     25.3 8.472e+03 7.471e-11
  2.15554     26.8 8.535e+03 7.505e-11
  2.19653     28.2 8.571e+03 7.426e-11
  2.23282     29.7 8.633e+03 7.185e-11
  2.25332     30.0 8.803e+03 8.905e-11
  2.27852     31.4 8.880e+03 8.941e-11
  2.31952     32.9 8.895e+03 8.946e-11
  2.36051     34.5 8.894e+03 8.814e-11
  2.38257     36.2 8.882e+03 8.361e-11
  2.40306     36.6 8.996e+03 9.911e-11
  2.44250     38.4 8.959e+03 8.599e-11
  2.47167     40.2 8.933e+03 7.549e-11
  2.49216     41.1 8.913e+03 8.132e-11
  2.51182     42.9 8.929e+03 7.548e-11
  2.53231     43.3 8.950e+03 7.566e-11
  2.56548     45.2 8.974e+03 7.441e-11
  2.60648     47.1 9.002e+03 7.474e-11
  2.64107     49.0 9.055e+03 7.552e-11
  2.66156     49.1 9.174e+03 7.815e-11
  2.68847     50.8 9.388e+03 9.192e-11
  2.72946     52.4 9.588e+03 1.184e-10
  2.77032     53.9 9.796e+03 1.575e-10
  2.81131     55.6 1.019e+04 2.755e-10
  2.85245     57.1 1.038e+04 3.044e-10
  2.88301     58.3 1.040e+04 3.008e-10
  2.90351     59.5 1.059e+04 3.648e-10
  2.92006     60.8 1.058e+04 3.545e-10
  2.94056     60.6 1.064e+04 3.733e-10
  2.97543     61.9 1.057e+04 3.268e-10
  3.01643     63.2 1.047e+04 2.717e-10
  3.04931     64.5 1.041e+04 2.243e-10
  3.06981     64.3 1.046e+04 2.063e-10
  3.09842     65.5 1.042e+04 1.800e-10
  3.13941     66.6 1.055e+04 1.694e-10
  3.17856     67.7 1.056e+04 1.705e-10
  3.19906     67.2 1.058e+04 1.694e-10
  3.22140     68.1 1.064e+04 1.718e-10
  3.26240     69.0 1.066e+04 1.734e-10
  3.29436     69.8 1.065e+04 1.729e-10
  3.31486     71.0 1.071e+04 1.834e-10
  3.32831     71.8 1.068e+04 1.848e-10
  3.34881     70.9 1.086e+04 2.003e-10
  3.38538     71.7 1.080e+04 2.027e-10
  3.42637     72.6 1.078e+04 2.069e-10
  3.45756     73.5 1.079e+04 2.146e-10
  3.47806     72.4 1.086e+04 2.256e-10
  3.50836     73.3 1.085e+04 2.409e-10
  3.54936     74.0 1.089e+04 2.793e-10
  3.58681     74.4 1.092e+04 3.447e-10
  3.60731     73.5 1.092e+04 3.676e-10
  3.63135     74.2 1.095e+04 4.342e-10
  3.66159     74.7 1.101e+04 4.695e-10
  3.67174     74.0 1.101e+04 4.795e-10
  3.68240     73.7 1.101e+04 4.848e-10
  3.70289     73.3 1.089e+04 4.598e-10
  3.71576     73.2 1.082e+04 4.471e-10
  3.72601     73.2 1.097e+04 5.159e-10
  3.73646     73.9 1.075e+04 4.551e-10
  3.75706     73.7 1.062e+04 4.215e-10
  3.79533     74.4 1.024e+04 2.896e-10
  3.83632     74.9 9.966e+03 1.823e-10
  3.86581     75.2 9.766e+03 1.201e-10
  3.88631     74.7 9.790e+03 1.194e-10
  3.91831     75.0 9.782e+03 1.217e-10
  3.95931     75.4 9.799e+03 1.373e-10
  3.99506     75.8 9.944e+03 1.833e-10
  4.01556     75.2 1.024e+04 2.673e-10
  4.04129     75.2 1.049e+04 3.572e-10
  4.08229     74.9 1.066e+04 4.277e-10
  4.11706     74.4 1.072e+04 4.560e-10
  4.13755     74.6 1.075e+04 4.709e-10
  4.14481     74.0 1.077e+04 4.614e-10
  4.16530     72.9 1.080e+04 4.391e-10
  4.19493     72.7 1.083e+04 4.484e-10
  4.20924     71.6 1.096e+04 4.569e-10
  4.21948     70.5 1.096e+04 4.503e-10
  4.24617     70.0 1.084e+04 4.338e-10
  4.27406     69.2 1.047e+04 3.782e-10
  4.29455     68.4 1.039e+04 3.736e-10
  4.32826     68.2 9.999e+03 2.949e-10
  4.36925     68.1 9.626e+03 2.150e-10
  4.40331     68.4 9.311e+03 1.519e-10
  4.42380     68.1 9.324e+03 1.486e-10
  4.45124     68.8 9.092e+03 1.052e-10
  4.49224     69.6 8.937e+03 7.945e-11
  4.52840     70.6 8.799e+03 6.620e-11
  4.54823     71.1 8.794e+03 6.926e-11
  4.55305     71.0 8.783e+03 6.835e-11
  4.57423     72.1 8.683e+03 6.805e-11
  4.61522     73.3 8.682e+03 6.814e-11
  4.65622     74.5 8.695e+03 6.904e-11
  4.68230     75.5 8.830e+03 7.273e-11
  4.70280     75.1 8.959e+03 8.090e-11
  4.73820     76.0 9.025e+03 9.460e-11
  4.77920     76.7 9.097e+03 1.107e-10
  4.81155     77.4 9.157e+03 1.286e-10
  4.83205     76.7 9.280e+03 1.472e-10
  4.86119     77.4 9.325e+03 1.590e-10
  4.90218     78.0 9.388e+03 1.637e-10
  4.93975     78.6 9.420e+03 1.604e-10
  4.95787     78.6 9.518e+03 1.830e-10
  4.96130     77.6 9.554e+03 1.783e-10
  4.98417     77.8 9.601e+03 1.721e-10
  5.02517     77.9 9.595e+03 1.706e-10
  5.06616     77.6 9.727e+03 1.748e-10
  5.09055     77.0 1.004e+04 2.045e-10
  5.11105     75.1 1.041e+04 2.593e-10
  5.14815     74.4 1.080e+04 3.404e-10
  5.18915     73.6 1.114e+04 4.089e-10
  5.21980     72.8 1.132e+04 4.420e-10
  5.24030     71.3 1.119e+04 3.880e-10
  5.27114     70.2 1.105e+04 3.238e-10
  5.31213     69.5 1.089e+04 2.732e-10
  5.34278     69.0 1.091e+04 2.703e-10
  5.35910     67.8 1.103e+04 2.772e-10
  5.36733     65.3 1.135e+04 2.973e-10
  5.37140     65.5 1.130e+04 2.951e-10
  5.38368     59.8 1.294e+04 6.186e-10
  5.40417     55.2 1.453e+04 1.637e-09
  5.42373     52.7 1.516e+04 3.069e-09
  5.43398     51.8 1.617e+04 5.222e-09
  5.44517     50.8 1.591e+04 4.895e-09
  5.46567     50.1 1.523e+04 3.423e-09
  5.48616     48.7 1.469e+04 1.598e-09
  5.49860     45.1 1.405e+04 5.367e-10
  5.50885     42.0 1.363e+04 2.822e-10
  5.52716     37.8 1.161e+04 1.940e-10
  5.55800     37.3 1.056e+04 1.373e-10
  5.59909     37.6 1.012e+04 1.070e-10
  5.62805     38.5 1.017e+04 9.655e-11
  5.64855     37.9 1.019e+04 9.661e-11
  5.68108     38.7 1.025e+04 9.613e-11
  5.72208     39.1 1.042e+04 9.770e-11
  5.75730     39.3 1.074e+04 1.101e-10
  5.77717     38.0 1.090e+04 1.653e-10
  5.78294     37.9 1.090e+04 1.603e-10
  5.80407     37.8 1.090e+04 2.098e-10
  5.84506     36.4 1.148e+04 2.614e-10
  5.87571     29.7 1.377e+04 3.974e-10
  5.89611     26.4 1.526e+04 8.244e-10
  5.90685     24.5 1.767e+04 2.525e-09
  5.91710     21.4 1.812e+04 5.572e-09
  5.93710     19.1 1.838e+04 1.063e-08
  5.95760     17.7 1.833e+04 1.301e-08
  5.97148     17.0 1.782e+04 1.071e-08
  5.98172     16.0 1.707e+04 6.976e-09
  5.99860     11.8 1.591e+04 2.577e-09
  6.01909      5.3 1.377e+04 9.470e-10
  6.03610     -1.3 1.143e+04 6.754e-10
  6.04635     -4.2 1.112e+04 6.639e-10
  6.06009     -6.0 1.119e+04 7.266e-10
  6.08059     -6.8 1.162e+04 9.563e-10
  6.10073     -7.6 1.204e+04 1.160e-09
  6.11098     -9.0 1.237e+04 1.272e-09
  6.12158    -10.5 1.231e+04 1.225e-09
  6.14208    -12.0 1.209e+04 1.134e-09
  6.16258    -13.7 1.214e+04 1.141e-09
  6.17560    -16.3 1.265e+04 1.278e-09
  6.18585    -18.7 1.290e+04 1.355e-09
  6.19410    -22.0 1.367e+04 1.867e-09
  6.20435    -20.7 1.359e+04 1.761e-09
  6.22407    -23.5 1.434e+04 2.595e-09
  6.24023    -25.1 1.431e+04 3.459e-09
  6.25047    -25.6 1.375e+04 2.756e-09
  6.26506    -26.5 1.363e+04 2.623e-09
  6.28556    -27.5 1.342e+04 2.304e-09
  6.30485    -29.1 1.312e+04 1.935e-09
  6.31510    -30.0 1.258e+04 1.471e-09
  6.32655    -31.8 1.234e+04 1.390e-09
  6.34705    -33.5 1.234e+04 1.454e-09
  6.36755    -34.8 1.250e+04 1.665e-09
  6.37972    -35.9 1.288e+04 2.026e-09
  6.38997    -35.8 1.265e+04 1.881e-09
  6.39977    -36.4 1.298e+04 2.241e-09
  6.41002    -37.1 1.390e+04 3.200e-09
  6.42904    -37.8 1.437e+04 3.847e-09
  6.44435    -38.3 1.470e+04 4.241e-09
  6.45460    -37.9 1.444e+04 3.716e-09
  6.47004    -38.9 1.474e+04 3.952e-09
  6.49053    -40.1 1.484e+04 4.031e-09
  6.50897    -41.9 1.504e+04 4.205e-09
  6.51922    -41.7 1.495e+04 4.069e-09
  6.53153    -43.8 1.554e+04 4.616e-09
  6.55203    -45.8 1.635e+04 5.636e-09
  6.57252    -47.0 1.684e+04 6.865e-09
  6.58385    -47.7 1.720e+04 7.960e-09
  6.59410    -47.2 1.677e+04 7.002e-09
  6.60545    -48.6 1.749e+04 8.135e-09
  6.61569    -50.9 1.807e+04 9.243e-09
  6.63401    -57.0 2.044e+04 1.379e-08
  6.64847    -60.4 2.006e+04 1.992e-08
  6.65872    -59.7 1.971e+04 1.669e-08
  6.67501    -60.2 1.894e+04 1.755e-08
  6.69551    -59.3 1.813e+04 1.405e-08
  6.71310    -58.7 1.730e+04 6.518e-09
  6.72335    -58.3 1.690e+04 6.959e-09
  6.73650    -61.9 1.707e+04 2.910e-09
  6.75700    -69.6 1.401e+04 1.108e-09
  6.77750    -74.2 1.132e+04 8.481e-10
  6.78797    -74.9 1.148e+04 9.000e-10
  6.79822    -74.9 1.130e+04 8.423e-10
  6.81112    -75.1 1.146e+04 9.265e-10
  6.82137    -75.2 1.132e+04 8.576e-10
  6.83899    -75.4 1.139e+04 8.573e-10
  6.85260    -75.2 1.097e+04 8.729e-10
  6.86285    -74.9 1.080e+04 7.916e-10
  6.87998    -74.7 1.077e+04 6.831e-10
  6.90048    -74.8 1.068e+04 6.012e-10
  6.91722    -75.0 1.052e+04 5.202e-10
  6.92747    -74.7 1.050e+04 5.177e-10
  6.94147    -74.7 1.026e+04 4.778e-10
  6.96197    -75.0 1.044e+04 3.681e-10
  6.98185    -74.8 1.012e+04 3.924e-10
  6.99210    -74.6 1.022e+04 4.074e-10
  7.00297    -74.6 1.030e+04 4.186e-10
  7.01679    -74.4 1.047e+04 5.118e-10
  7.03739    -74.3 1.068e+04 6.102e-10
  7.07490    -73.9 1.148e+04 9.269e-10
  7.11129    -74.3 1.223e+04 1.368e-09
  7.13179    -74.5 1.228e+04 1.463e-09
  7.15689    -73.9 1.258e+04 1.941e-09
  7.19789    -73.3 1.242e+04 1.749e-09
  7.22256    -72.2 1.187e+04 1.160e-09
  7.23272    -72.2 1.199e+04 1.291e-09
  7.24894    -72.6 1.184e+04 1.232e-09
  7.26094    -72.2 1.152e+04 8.690e-10
  7.28154    -72.1 1.121e+04 7.088e-10
  7.32087    -72.1 1.099e+04 6.169e-10
  7.36187    -71.1 1.088e+04 6.198e-10
  7.39029    -69.5 1.088e+04 6.844e-10
  7.41079    -70.3 1.089e+04 5.694e-10
  7.42824    -70.3 1.202e+04 7.405e-10
  7.43839    -72.2 1.277e+04 1.077e-09
  7.45391    -75.3 1.356e+04 2.167e-09
  7.46497    -77.5 1.465e+04 3.685e-09
  7.47522    -78.3 1.470e+04 3.885e-09
  7.49490    -81.3 1.678e+04 7.050e-09
  7.51540    -83.2 1.830e+04 1.023e-08
  7.52959    -85.5 1.823e+04 1.064e-08
  7.53984    -86.1 1.762e+04 9.564e-09
  7.55122    -87.3 1.634e+04 6.167e-09
  7.56142    -87.7 1.585e+04 5.371e-09
  7.57684    -89.4 1.516e+04 2.784e-09
  7.59422    -93.9 1.259e+04 1.074e-09
  7.60447    -94.4 1.224e+04 8.245e-10
  7.61789    -96.2 1.094e+04 5.206e-10
  7.63381    -96.4 1.075e+04 4.246e-10
  7.64406    -96.7 1.063e+04 3.683e-10
  7.65884    -97.3 1.022e+04 3.080e-10
  7.68969    -97.2 9.937e+03 2.654e-10
  7.73082    -96.8 1.019e+04 3.102e-10
  7.76147    -97.8 1.045e+04 3.539e-10
  7.78187    -98.1 1.049e+04 3.614e-10
  7.79844    -99.4 1.087e+04 5.308e-10
  7.81903    -99.2 1.046e+04 4.089e-10
  7.83959    -98.5 1.078e+04 5.119e-10
  7.84974    -99.1 1.102e+04 6.181e-10
  7.86297   -100.7 1.097e+04 6.053e-10
  7.87322   -100.3 1.071e+04 4.715e-10
  7.88435   -101.3 1.068e+04 4.151e-10
  7.90485   -102.3 1.058e+04 3.808e-10
  7.92535   -103.5 1.032e+04 3.481e-10
  7.93784   -103.6 1.030e+04 3.424e-10
  7.94819   -103.2 1.030e+04 3.232e-10
  7.97679   -104.2 1.029e+04 3.011e-10
  8.01778   -105.6 1.047e+04 2.894e-10
  8.05704   -107.6 1.074e+04 3.407e-10
  8.07753   -105.9 1.062e+04 3.200e-10
  8.08942   -107.9 1.064e+04 4.832e-10
  8.10982   -109.4 1.044e+04 5.736e-10
  8.13032   -109.8 1.049e+04 6.590e-10
  8.14196   -110.2 1.053e+04 7.035e-10
  8.15221   -109.8 1.073e+04 8.069e-10
  8.17132   -110.1 1.074e+04 8.322e-10
  8.19181   -110.6 1.075e+04 8.168e-10
  8.20659   -111.5 1.081e+04 7.963e-10
  8.21684   -110.9 1.109e+04 9.460e-10
  8.23281   -112.5 1.118e+04 9.112e-10
  8.25084   -115.3 1.170e+04 9.891e-10
  8.26108   -116.5 1.104e+04 6.242e-10
  8.27121   -119.3 1.176e+04 9.322e-10
  8.28146   -118.4 1.145e+04 7.858e-10
  8.29430   -121.3 1.217e+04 1.170e-09
  8.31480   -123.5 1.281e+04 1.771e-09
  8.33530   -125.0 1.330e+04 2.441e-09
  8.34609   -126.2 1.360e+04 2.876e-09
  8.35634   -126.0 1.314e+04 2.470e-09
  8.37629   -127.0 1.321e+04 2.626e-09
  8.39679   -128.4 1.314e+04 2.554e-09
  8.41071   -130.0 1.274e+04 2.177e-09
  8.42096   -128.9 1.269e+04 2.193e-09
  8.43778   -130.3 1.221e+04 1.860e-09
  8.45651   -131.2 1.171e+04 1.592e-09
  8.46676   -130.6 1.194e+04 1.683e-09
  8.47534   -130.8 1.151e+04 1.420e-09
  8.48559   -130.1 1.164e+04 1.505e-09
  8.49927   -130.1 1.126e+04 1.225e-09
  8.51977   -129.9 1.092e+04 9.756e-10
  8.53996   -129.8 1.058e+04 7.661e-10
  8.55021   -129.2 1.064e+04 7.975e-10
  8.56077   -129.2 1.028e+04 6.244e-10
  8.58126   -129.1 9.963e+03 4.938e-10
  8.60176   -129.0 9.709e+03 4.146e-10
  8.61493   -128.7 9.534e+03 3.676e-10
  8.63553   -127.4 9.530e+03 3.700e-10
  8.66238   -126.2 9.292e+03 3.059e-10
  8.68288   -126.2 9.069e+03 2.415e-10
  8.71469   -124.8 8.949e+03 2.169e-10
  8.74428   -123.3 8.870e+03 2.030e-10
  8.76478   -122.2 8.852e+03 2.018e-10
  8.79668   -120.6 8.765e+03 1.878e-10
  8.83768   -119.0 8.713e+03 1.762e-10
  8.87353   -117.4 8.704e+03 1.692e-10
  8.89403   -116.1 8.630e+03 1.594e-10
  8.91967   -114.5 8.648e+03 1.561e-10
  8.96066   -112.8 8.673e+03 1.514e-10
  9.00165   -111.0 8.682e+03 1.402e-10
  9.02328   -109.2 8.636e+03 1.207e-10
  9.04378   -107.9 8.598e+03 1.181e-10
  9.07373   -106.2 8.558e+03 9.479e-11
  9.09422   -105.7 8.617e+03 1.056e-10
  9.12464   -104.1 8.601e+03 8.650e-11
  9.15253   -102.6 8.606e+03 7.406e-11
  9.17303   -101.3 8.602e+03 6.782e-11
  9.20663    -99.9 8.618e+03 6.396e-11
  9.24762    -98.4 8.643e+03 6.381e-11
  9.28178    -97.0 8.752e+03 6.829e-11
  9.30228    -95.8 8.764e+03 6.625e-11
  9.32961    -94.4 8.837e+03 7.509e-11
  9.37061    -92.8 8.933e+03 8.127e-11
  9.41103    -91.4 9.024e+03 8.354e-11
  9.43153    -90.1 9.034e+03 8.534e-11
  9.45260    -88.7 9.094e+03 8.532e-11
  9.48507    -87.3 9.175e+03 8.506e-11
  9.50557    -86.5 9.215e+03 8.647e-11
  9.53459    -85.2 9.283e+03 9.264e-11
  9.56078    -83.8 9.300e+03 1.099e-10
  9.58128    -82.6 9.289e+03 1.019e-10
  9.61658    -81.0 9.360e+03 1.216e-10
  9.65757    -79.4 9.508e+03 1.394e-10
  9.69003    -78.1 9.624e+03 1.522e-10
  9.71053    -76.9 9.581e+03 1.388e-10
  9.73956    -75.7 9.612e+03 1.457e-10
  9.78055    -74.2 9.644e+03 1.527e-10
  9.81928    -72.8 9.697e+03 1.518e-10
  9.83978    -71.5 9.577e+03 1.307e-10
  9.86254    -70.1 9.745e+03 1.185e-10
  9.89642    -69.1 9.849e+03 1.188e-10
  9.91692    -68.4 1.012e+04 1.805e-10
  9.94453    -68.0 1.026e+04 2.370e-10
  9.96903    -67.0 1.050e+04 3.713e-10
  9.98952    -65.5 1.029e+04 2.890e-10
 10.01618    -64.2 1.069e+04 4.195e-10
 10.03346    -64.1 1.071e+04 4.221e-10
 10.04370    -63.2 1.063e+04 4.027e-10
 10.05707    -62.5 1.082e+04 4.465e-10
 10.07757    -62.7 1.115e+04 5.093e-10
 10.09807    -62.6 1.137e+04 6.054e-10
 10.11215    -61.6 1.168e+04 6.756e-10
 10.12240    -61.4 1.181e+04 7.740e-10
 10.13906    -62.1 1.234e+04 9.362e-10
 10.15956    -64.4 1.377e+04 1.261e-09
 10.17295    -67.6 1.488e+04 2.155e-09
 10.18320    -66.1 1.493e+04 2.147e-09
 10.20055    -68.5 1.545e+04 3.790e-09
 10.22105    -68.9 1.586e+04 5.954e-09
 10.23758    -68.4 1.626e+04 7.125e-09
 10.24783    -67.6 1.638e+04 7.232e-09
 10.26205    -68.2 1.604e+04 6.863e-09
 10.28254    -68.5 1.511e+04 4.650e-09
 10.30220    -69.0 1.429e+04 2.967e-09
 10.31245    -68.3 1.427e+04 2.975e-09
 10.31782    -68.9 1.369e+04 1.876e-09
 10.32807    -68.8 1.348e+04 1.793e-09
 10.34404    -69.5 1.269e+04 1.219e-09
 10.36453    -69.2 1.248e+04 1.085e-09
 10.37718    -68.5 1.211e+04 9.034e-10
 10.39777    -67.3 1.203e+04 8.705e-10
 10.43647    -65.9 1.183e+04 8.029e-10
 10.46712    -64.1 1.185e+04 8.432e-10
 10.48752    -64.0 1.184e+04 8.283e-10
 10.50633    -63.0 1.187e+04 6.634e-10
 10.51658    -62.4 1.172e+04 6.499e-10
 10.52350    -61.8 1.187e+04 5.503e-10
 10.53375    -61.0 1.200e+04 8.337e-10
 10.54901    -60.3 1.214e+04 6.888e-10
 10.56951    -60.2 1.220e+04 6.006e-10
 10.58120    -60.1 1.208e+04 5.467e-10
 10.59145    -59.6 1.199e+04 4.647e-10
 10.61050    -59.7 1.171e+04 4.414e-10
 10.63100    -59.3 1.154e+04 4.516e-10
 10.64583    -58.8 1.150e+04 4.543e-10
 10.65608    -58.6 1.138e+04 4.236e-10
 10.67199    -57.9 1.157e+04 4.286e-10
 10.69249    -57.5 1.179e+04 4.094e-10
 10.71045    -57.3 1.210e+04 3.782e-10
 10.72070    -56.8 1.196e+04 3.907e-10
 10.72917    -56.7 1.201e+04 3.691e-10
 10.73942    -56.5 1.249e+04 6.027e-10
 10.75398    -56.4 1.243e+04 5.495e-10
 10.77448    -56.2 1.233e+04 4.972e-10
 10.78533    -55.9 1.223e+04 4.608e-10
 10.79557    -55.0 1.220e+04 4.620e-10
 10.81548    -54.7 1.213e+04 4.346e-10
 10.83597    -54.1 1.211e+04 4.210e-10
 10.84995    -53.7 1.222e+04 4.178e-10
 10.86020    -53.0 1.214e+04 3.934e-10
 10.87697    -52.3 1.223e+04 3.919e-10
 10.89746    -52.0 1.224e+04 3.913e-10
 10.91458    -51.2 1.204e+04 4.234e-10
 10.92482    -50.3 1.193e+04 3.692e-10
 10.93485    -49.9 1.198e+04 3.605e-10
 10.94509    -49.8 1.219e+04 4.572e-10
 10.95896    -48.9 1.200e+04 4.631e-10
 10.97920    -48.2 1.203e+04 4.599e-10
 10.98945    -47.3 1.187e+04 3.627e-10
 10.99995    -46.0 1.202e+04 3.283e-10
 11.02045    -45.7 1.193e+04 3.295e-10
 11.04095    -44.5 1.196e+04 3.221e-10
 11.05407    -44.0 1.187e+04 3.210e-10
 11.06432    -43.2 1.183e+04 2.798e-10
 11.08194    -42.2 1.185e+04 2.789e-10
 11.10244    -41.6 1.194e+04 2.864e-10
 11.11870    -41.1 1.208e+04 3.067e-10
 11.12895    -40.3 1.192e+04 2.916e-10
 11.14052    -39.8 1.215e+04 3.326e-10
 11.15077    -40.8 1.367e+04 4.616e-10
