# Columns:
#   distance along LOS (in CHIMPs)
#   peculiar velocity  (in km/s)
#   temperature (K)
#   HI number density
# pos=(59.2722,56.1881,62.729), angles=(1.51101,1.19849)
  0.00530     29.4 1.242e+04 1.809e-09
  0.02109     29.0 1.170e+04 1.271e-09
  0.03801     28.7 1.156e+04 1.211e-09
  0.04851     29.1 1.148e+04 1.178e-09
  0.05395     28.8 1.137e+04 1.079e-09
  0.07506     29.3 1.121e+04 1.031e-09
  0.09661     29.8 1.127e+04 1.077e-09
  0.11761     31.2 1.112e+04 1.017e-09
  0.15782     31.9 1.135e+04 1.131e-09
  0.19240     33.0 1.137e+04 1.171e-09
  0.21341     34.4 1.130e+04 1.145e-09
  0.24184     35.7 1.142e+04 1.200e-09
  0.28386     36.9 1.153e+04 1.156e-09
  0.30921     37.8 1.170e+04 1.147e-09
  0.31961     38.2 1.214e+04 1.442e-09
  0.33617     38.3 1.217e+04 1.477e-09
  0.35691     38.3 1.233e+04 1.623e-09
  0.36741     38.6 1.286e+04 2.087e-09
  0.37483     39.0 1.303e+04 2.325e-09
  0.38533     39.1 1.300e+04 2.244e-09
  0.39919     39.6 1.301e+04 2.197e-09
  0.41531     39.9 1.294e+04 2.070e-09
  0.42582     40.6 1.378e+04 2.876e-09
  0.44120     40.8 1.365e+04 2.529e-09
  0.46220     40.7 1.319e+04 2.068e-09
  0.47371     40.6 1.227e+04 1.544e-09
  0.48422     41.7 1.407e+04 2.403e-09
  0.50422     41.8 1.267e+04 1.522e-09
  0.52161     41.9 1.117e+04 9.041e-10
  0.53212     43.2 1.346e+04 1.388e-09
  0.54623     42.4 1.138e+04 7.152e-10
  0.56723     42.0 9.957e+03 4.069e-10
  0.58002     41.6 9.510e+03 2.888e-10
  0.59052     41.7 1.016e+04 3.263e-10
  0.60924     42.1 9.212e+03 2.149e-10
  0.62791     42.5 9.142e+03 1.968e-10
  0.63842     42.4 9.904e+03 2.332e-10
  0.65125     43.8 9.209e+03 1.852e-10
  0.67226     44.7 9.031e+03 1.742e-10
  0.68632     46.7 8.910e+03 1.674e-10
  0.69682     46.4 1.017e+04 2.275e-10
  0.70630     47.6 9.651e+03 2.027e-10
  0.71680     47.6 9.322e+03 1.801e-10
  0.73421     49.4 9.105e+03 1.742e-10
  0.74472     49.0 1.176e+04 3.421e-10
  0.75628     50.7 1.099e+04 2.875e-10
  0.77728     52.3 1.032e+04 2.567e-10
  0.79262     53.7 9.834e+03 2.421e-10
  0.80312     53.8 1.349e+04 6.960e-10
  0.81929     55.5 1.243e+04 5.137e-10
  0.84030     57.1 1.139e+04 4.181e-10
  0.85102     58.5 1.059e+04 3.706e-10
  0.86152     58.9 1.443e+04 1.260e-09
  0.88231     60.5 1.337e+04 9.079e-10
  0.89892     62.0 1.230e+04 6.988e-10
  0.90942     62.5 1.623e+04 2.940e-09
  0.92432     64.1 1.572e+04 2.159e-09
  0.94533     65.5 1.468e+04 1.518e-09
  0.95732     66.8 1.407e+04 1.319e-09
  0.96252     67.9 1.726e+04 3.837e-09
  0.97149     68.1 1.675e+04 2.846e-09
  0.98729     69.7 1.699e+04 3.131e-09
  1.00522     71.2 1.606e+04 2.282e-09
  1.01567     72.3 1.868e+04 4.224e-09
  1.02400     73.2 1.807e+04 3.297e-09
  1.03243     73.6 1.691e+04 2.731e-09
  1.03750     73.4 1.643e+04 2.555e-09
  1.03957     74.3 1.941e+04 4.871e-09
  1.04500     74.7 1.876e+04 3.850e-09
  1.05551     75.0 1.725e+04 3.096e-09
  1.06352     75.5 1.614e+04 2.431e-09
  1.06877     72.9 3.215e+04 5.147e-09
  1.07651     52.7 5.740e+04 9.113e-09
  1.08701     54.0 5.483e+04 8.493e-09
  1.09272     43.1 6.539e+04 7.151e-09
  1.09532     20.3 6.080e+04 6.357e-08
  1.10009     17.2 5.811e+04 7.234e-08
  1.10800      7.6 3.889e+04 3.255e-07
  1.11667     18.8 5.308e+04 5.816e-08
  1.12190     -4.2 2.590e+04 1.482e-06
  1.12900     -4.2 2.928e+04 9.439e-07
  1.13953      0.2 3.202e+04 5.863e-07
  1.14587      3.7 3.464e+04 3.942e-07
  1.15112    -10.4 3.214e+04 1.473e-07
  1.16053     -7.2 3.111e+04 1.324e-07
  1.16982     -5.0 2.974e+04 1.204e-07
  1.17507     -9.5 2.738e+04 4.286e-08
  1.18154     -7.9 2.771e+04 4.758e-08
  1.19204     -6.5 2.745e+04 4.828e-08
  1.19816     -5.2 2.704e+04 4.749e-08
  1.19989     -5.4 2.690e+04 4.512e-08
  1.20428     -8.7 2.263e+04 1.293e-08
  1.21305     -6.9 2.324e+04 1.303e-08
  1.22297     -5.8 2.392e+04 1.388e-08
  1.22827     -9.2 1.758e+04 6.176e-09
  1.23940     -7.0 1.760e+04 5.429e-09
  1.26041     -5.3 1.764e+04 4.713e-09
  1.27622     -3.6 1.785e+04 4.616e-09
  1.28672     -6.5 1.295e+04 1.899e-09
  1.30242     -5.2 1.262e+04 1.609e-09
  1.32342     -4.0 1.241e+04 1.395e-09
  1.33462     -2.7 1.217e+04 1.237e-09
  1.34513     -3.5 1.095e+04 7.858e-10
  1.35875     -2.1 1.074e+04 7.126e-10
  1.36925     -2.2 1.042e+04 5.887e-10
  1.38252     -1.0 1.033e+04 5.640e-10
  1.39302     -1.6 9.941e+03 4.618e-10
  1.40744     -0.2 9.905e+03 4.611e-10
  1.42845      0.9 9.926e+03 4.677e-10
  1.44092      2.4 1.001e+04 4.916e-10
  1.45143      2.6 9.808e+03 4.255e-10
  1.47046      3.4 9.939e+03 4.492e-10
  1.48882      4.7 1.003e+04 4.878e-10
  1.49933      4.7 9.795e+03 4.143e-10
  1.51247      5.7 9.898e+03 4.421e-10
  1.53348      7.0 9.951e+03 4.642e-10
  1.54722      8.1 1.007e+04 4.944e-10
  1.55773      7.7 9.886e+03 4.266e-10
  1.57549      9.4 1.007e+04 4.693e-10
  1.59512      9.9 1.017e+04 4.892e-10
  1.60572      9.4 9.938e+03 4.399e-10
  1.62819     11.7 1.012e+04 5.051e-10
  1.67020     14.1 1.031e+04 5.732e-10
  1.70152     15.8 1.053e+04 6.348e-10
  1.72253     15.4 1.037e+04 6.152e-10
  1.75423     17.9 1.060e+04 6.895e-10
  1.79624     20.4 1.089e+04 7.389e-10
  1.81833     21.4 1.100e+04 8.143e-10
  1.82873     21.1 1.075e+04 7.773e-10
  1.84855     22.1 1.078e+04 7.909e-10
  1.86613     23.3 1.081e+04 7.974e-10
  1.87663     22.9 1.053e+04 6.159e-10
  1.89057     23.9 1.060e+04 6.299e-10
  1.91157     25.0 1.067e+04 6.383e-10
  1.92453     25.9 1.076e+04 6.416e-10
  1.93503     25.3 1.056e+04 5.399e-10
  1.95358     26.5 1.064e+04 5.443e-10
  1.97243     27.3 1.071e+04 5.511e-10
  1.98293     26.9 1.059e+04 5.157e-10
  2.00079     29.1 1.064e+04 5.339e-10
  2.02189     28.5 1.073e+04 5.418e-10
  2.03102     30.8 1.077e+04 5.176e-10
  2.05203     29.7 1.082e+04 5.544e-10
  2.09031     32.0 1.109e+04 5.639e-10
  2.12682     34.6 1.139e+04 5.772e-10
  2.14783     33.0 1.165e+04 7.988e-10
  2.16373     34.9 1.154e+04 6.925e-10
  2.18464     36.1 1.158e+04 6.989e-10
  2.19553     37.3 1.167e+04 7.454e-10
  2.20603     36.6 1.186e+04 9.401e-10
  2.22665     37.9 1.206e+04 1.031e-09
  2.24343     39.0 1.239e+04 1.168e-09
  2.25393     37.8 1.293e+04 1.513e-09
  2.26866     37.3 1.381e+04 1.986e-09
  2.28967     35.9 1.549e+04 3.303e-09
  2.30183     34.2 1.758e+04 6.990e-09
  2.31233     32.4 1.824e+04 1.042e-08
  2.33168     31.3 1.963e+04 1.798e-08
  2.34262     29.8 2.043e+04 2.946e-08
  2.34782     29.8 2.001e+04 2.727e-08
  2.35488     29.9 2.030e+04 3.853e-08
  2.36014     29.9 2.005e+04 3.325e-08
  2.36834     30.0 2.028e+04 3.377e-08
  2.37883     29.9 2.031e+04 3.261e-08
  2.38934     28.9 1.957e+04 1.842e-08
  2.39985     28.2 1.920e+04 1.582e-08
  2.40808     28.6 1.899e+04 1.371e-08
  2.41864     26.9 1.746e+04 7.638e-09
  2.43670     25.3 1.621e+04 4.464e-09
  2.45603     23.0 1.478e+04 2.772e-09
  2.46653     21.2 1.355e+04 1.976e-09
  2.47871     21.1 1.318e+04 1.835e-09
  2.49972     21.6 1.308e+04 1.808e-09
  2.51443     22.4 1.311e+04 1.797e-09
  2.52494     22.1 1.278e+04 1.648e-09
  2.54173     23.4 1.286e+04 1.664e-09
  2.56233     23.8 1.292e+04 1.670e-09
  2.57293     23.1 1.261e+04 1.516e-09
  2.59444     25.4 1.281e+04 1.656e-09
  2.63645     27.4 1.284e+04 1.641e-09
  2.66383     29.3 1.267e+04 1.505e-09
  2.67521     29.8 1.288e+04 1.806e-09
  2.68983     29.8 1.224e+04 1.425e-09
  2.72047     31.9 1.210e+04 1.299e-09
  2.76248     34.1 1.178e+04 1.054e-09
  2.78563     36.3 1.137e+04 7.577e-10
  2.80664     36.4 1.141e+04 8.520e-10
  2.84650     38.4 1.128e+04 6.966e-10
  2.88143     40.2 1.110e+04 5.438e-10
  2.90244     40.4 1.166e+04 9.207e-10
  2.93052     42.1 1.151e+04 7.941e-10
  2.97253     43.8 1.120e+04 6.429e-10
  2.99823     45.5 1.083e+04 5.181e-10
  3.01924     45.6 1.153e+04 8.373e-10
  3.05655     47.3 1.095e+04 6.101e-10
  3.09403     48.9 1.057e+04 4.717e-10
  3.11504     49.0 1.109e+04 6.041e-10
  3.14058     50.6 1.054e+04 4.335e-10
  3.18259     52.4 1.029e+04 3.468e-10
  3.21084     54.3 1.013e+04 2.895e-10
  3.23184     52.4 1.120e+04 3.253e-10
  3.26661     54.3 1.105e+04 2.953e-10
  3.30578     57.0 1.094e+04 2.888e-10
  3.32480     57.0 1.158e+04 3.129e-10
  3.32754     54.1 1.397e+04 7.903e-10
  3.33993     55.5 1.397e+04 7.944e-10
  3.36094     56.8 1.408e+04 8.321e-10
  3.37534     57.6 1.439e+04 9.919e-10
  3.38584     55.8 1.546e+04 2.863e-09
  3.40295     56.5 1.557e+04 3.160e-09
  3.42324     57.1 1.577e+04 3.456e-09
  3.43374     55.9 1.615e+04 5.223e-09
  3.44496     56.2 1.618e+04 5.124e-09
  3.46596     56.2 1.617e+04 4.962e-09
  3.48164     56.1 1.607e+04 4.719e-09
  3.49215     55.2 1.588e+04 4.671e-09
  3.50797     55.4 1.558e+04 4.175e-09
  3.52898     55.7 1.521e+04 3.513e-09
  3.54004     56.1 1.479e+04 2.779e-09
  3.55055     55.1 1.374e+04 1.361e-09
  3.57099     54.9 1.313e+04 9.855e-10
  3.58794     54.4 1.256e+04 7.127e-10
  3.59845     52.3 1.159e+04 4.322e-10
  3.61300     52.0 1.129e+04 3.778e-10
  3.63401     52.0 1.109e+04 3.540e-10
  3.64635     52.2 1.103e+04 3.504e-10
  3.64939     51.9 1.099e+04 3.414e-10
  3.65806     51.4 1.104e+04 3.623e-10
  3.67602     51.8 1.104e+04 3.653e-10
  3.69424     52.2 1.106e+04 3.734e-10
  3.70475     52.0 1.102e+04 3.761e-10
  3.71803     52.4 1.109e+04 3.915e-10
  3.73903     52.7 1.120e+04 4.202e-10
  3.75265     52.8 1.134e+04 4.680e-10
  3.76315     52.9 1.125e+04 4.484e-10
  3.78104     53.1 1.139e+04 5.038e-10
  3.80055     53.3 1.155e+04 5.879e-10
  3.81105     53.4 1.144e+04 5.324e-10
  3.82305     53.7 1.157e+04 6.186e-10
  3.84406     53.9 1.172e+04 7.282e-10
  3.85895     54.1 1.188e+04 8.444e-10
  3.86945     54.2 1.175e+04 7.498e-10
  3.88607     54.3 1.190e+04 8.455e-10
  3.90685     54.4 1.201e+04 9.224e-10
  3.91735     54.4 1.195e+04 8.838e-10
  3.92808     54.4 1.207e+04 9.696e-10
  3.94908     54.4 1.216e+04 1.039e-09
  3.96525     54.5 1.218e+04 1.065e-09
  3.97419     54.5 1.221e+04 1.141e-09
  3.97903     54.8 1.189e+04 9.382e-10
  3.99110     55.1 1.191e+04 9.810e-10
  4.01210     55.4 1.192e+04 9.825e-10
  4.02365     55.7 1.194e+04 9.802e-10
  4.03415     55.9 1.197e+04 1.034e-09
  4.05411     56.3 1.199e+04 1.035e-09
  4.07155     56.5 1.206e+04 1.048e-09
  4.08205     56.8 1.206e+04 1.056e-09
  4.09612     57.1 1.214e+04 1.105e-09
  4.11713     57.5 1.229e+04 1.199e-09
  4.12995     58.0 1.248e+04 1.366e-09
  4.14045     58.5 1.220e+04 1.148e-09
  4.15914     59.1 1.234e+04 1.262e-09
  4.17785     59.9 1.241e+04 1.326e-09
  4.18835     60.3 1.206e+04 1.040e-09
  4.20115     61.0 1.206e+04 1.042e-09
  4.22215     61.7 1.200e+04 1.018e-09
  4.23625     62.5 1.188e+04 9.495e-10
  4.24675     62.9 1.157e+04 7.749e-10
  4.26416     63.8 1.146e+04 7.210e-10
  4.28415     64.6 1.137e+04 6.580e-10
  4.29465     64.9 1.117e+04 5.654e-10
  4.31678     66.9 1.094e+04 4.831e-10
  4.35888     68.9 1.065e+04 3.971e-10
  4.39065     71.1 1.033e+04 3.321e-10
  4.41165     72.1 9.991e+03 2.573e-10
  4.44290     74.4 9.823e+03 2.354e-10
  4.48492     76.9 9.810e+03 2.352e-10
  4.50745     79.6 9.812e+03 2.395e-10
  4.52845     80.5 9.606e+03 1.916e-10
  4.56894     83.0 9.627e+03 2.010e-10
  4.60325     85.5 9.661e+03 2.167e-10
  4.62397     86.4 9.503e+03 1.823e-10
  4.63167     87.0 9.728e+03 2.092e-10
  4.65296     89.5 9.725e+03 2.183e-10
  4.69497     92.1 9.759e+03 2.315e-10
  4.72005     94.7 9.845e+03 2.525e-10
  4.74106     95.0 9.795e+03 2.296e-10
  4.77899     97.5 9.951e+03 2.575e-10
  4.81585     99.9 1.018e+04 2.943e-10
  4.83685     99.9 1.015e+04 2.712e-10
  4.86301    102.0 1.037e+04 3.023e-10
  4.90502    103.9 1.053e+04 3.265e-10
  4.93265    105.6 1.062e+04 3.334e-10
  4.95366    105.5 1.053e+04 2.894e-10
  4.98904    107.3 1.056e+04 2.874e-10
  5.02845    109.0 1.056e+04 2.807e-10
  5.04946    109.1 1.042e+04 2.356e-10
  5.07306    110.9 1.038e+04 2.252e-10
  5.11507    112.7 1.032e+04 2.138e-10
  5.14525    114.6 1.033e+04 2.150e-10
  5.16626    114.7 1.027e+04 1.964e-10
  5.19910    116.5 1.037e+04 2.210e-10
  5.24105    118.4 1.053e+04 2.649e-10
  5.27356    119.4 1.069e+04 3.498e-10
  5.29462    120.0 1.072e+04 3.482e-10
  5.30986    120.3 1.081e+04 4.045e-10
  5.32026    120.2 1.083e+04 4.269e-10
  5.33543    120.5 1.101e+04 5.551e-10
  5.35644    120.9 1.127e+04 7.422e-10
  5.36816    121.3 1.157e+04 9.476e-10
  5.37867    121.3 1.158e+04 9.905e-10
  5.39845    121.6 1.184e+04 1.161e-09
  5.41606    121.6 1.192e+04 1.203e-09
  5.42656    121.5 1.185e+04 1.172e-09
  5.44046    121.4 1.184e+04 1.166e-09
  5.46147    121.2 1.176e+04 1.117e-09
  5.47446    121.1 1.157e+04 1.002e-09
  5.48497    121.1 1.146e+04 9.361e-10
  5.50348    121.0 1.121e+04 7.965e-10
  5.52236    120.7 1.095e+04 6.653e-10
  5.53287    120.8 1.092e+04 6.334e-10
  5.54549    120.5 1.072e+04 5.486e-10
  5.56649    120.4 1.053e+04 4.888e-10
  5.58076    120.5 1.039e+04 4.460e-10
  5.59127    120.6 1.050e+04 4.647e-10
  5.60489    120.7 1.042e+04 4.467e-10
  5.61540    121.5 1.053e+04 4.739e-10
  5.62866    121.8 1.047e+04 4.572e-10
  5.63917    122.0 1.074e+04 5.428e-10
  5.65051    121.8 1.095e+04 6.052e-10
  5.67152    121.8 1.109e+04 6.611e-10
  5.68716    122.3 1.134e+04 7.559e-10
  5.70827    123.1 1.207e+04 1.210e-09
  5.73463    123.5 1.234e+04 1.452e-09
  5.74547    123.8 1.272e+04 1.830e-09
  5.75597    123.9 1.299e+04 2.163e-09
  5.77655    124.5 1.349e+04 2.807e-09
  5.79337    125.2 1.392e+04 3.376e-09
  5.80387    125.3 1.398e+04 3.437e-09
  5.81856    125.9 1.417e+04 3.451e-09
  5.83956    126.3 1.422e+04 3.287e-09
  5.85177    126.4 1.421e+04 2.897e-09
  5.86227    126.1 1.380e+04 2.280e-09
  5.88157    125.6 1.363e+04 1.982e-09
  5.89967    124.7 1.330e+04 1.801e-09
  5.91017    124.1 1.277e+04 1.561e-09
  5.92358    123.5 1.268e+04 1.584e-09
  5.93637    123.2 1.262e+04 1.672e-09
  5.94687    124.7 1.314e+04 1.874e-09
  5.95807    124.7 1.309e+04 1.993e-09
  5.96857    124.4 1.285e+04 1.830e-09
  5.98660    124.6 1.314e+04 2.115e-09
  6.00597    124.9 1.349e+04 2.406e-09
  6.01647    124.5 1.339e+04 2.300e-09
  6.02861    124.6 1.380e+04 2.594e-09
  6.04961    124.3 1.421e+04 2.692e-09
  6.06437    123.5 1.436e+04 2.667e-09
  6.07487    121.9 1.451e+04 2.702e-09
  6.09163    120.1 1.457e+04 2.678e-09
  6.11227    117.9 1.463e+04 2.665e-09
  6.12277    115.6 1.463e+04 2.606e-09
  6.13364    113.0 1.467e+04 2.522e-09
  6.15464    109.8 1.486e+04 2.570e-09
  6.17067    106.3 1.570e+04 2.932e-09
  6.18117    104.4 1.471e+04 2.173e-09
  6.19665    101.5 1.575e+04 2.638e-09
  6.21766     99.1 1.675e+04 3.602e-09
  6.22907     96.6 1.757e+04 4.893e-09
  6.23957     93.8 1.585e+04 3.228e-09
  6.25734     91.9 1.680e+04 4.501e-09
  6.26784     91.0 2.088e+04 3.999e-09
  6.27537     87.9 2.073e+04 2.575e-09
  6.28212     87.0 2.227e+04 3.046e-09
  6.28738     85.9 2.548e+04 2.303e-09
  6.29633     87.5 2.300e+04 6.177e-09
  6.30607     87.0 2.132e+04 7.376e-09
  6.31132     85.7 2.233e+04 7.029e-09
  6.31733     83.5 2.289e+04 8.763e-09
  6.32784     81.1 2.474e+04 1.011e-08
  6.33527     79.3 2.678e+04 1.123e-08
  6.34053     77.1 2.992e+04 1.126e-08
  6.34884     75.3 3.255e+04 1.304e-08
  6.35922     72.7 3.567e+04 1.547e-08
  6.36448     70.8 3.742e+04 1.774e-08
  6.36985     66.9 4.038e+04 2.453e-08
  6.38035     61.6 4.272e+04 4.209e-08
  6.38842     54.8 3.946e+04 1.323e-07
  6.39368     55.3 3.659e+04 1.593e-07
  6.40136     48.6 3.144e+04 4.936e-07
  6.41186     41.7 2.757e+04 1.036e-06
  6.41763     36.1 2.595e+04 1.197e-06
  6.42288     37.8 2.646e+04 9.465e-07
  6.42823     35.2 2.696e+04 7.796e-07
  6.43348     28.8 2.399e+04 8.376e-07
  6.44072     29.3 2.519e+04 5.337e-07
  6.44415     29.5 2.590e+04 4.489e-07
  6.44680     30.5 2.595e+04 3.874e-07
  6.45387     30.0 2.844e+04 2.103e-07
  6.46437     29.1 3.111e+04 1.127e-07
  6.47078     27.5 3.321e+04 6.696e-08
  6.47603     29.6 3.227e+04 4.354e-08
  6.48538     27.6 3.183e+04 2.579e-08
  6.49473     25.5 3.000e+04 1.658e-08
  6.49998     26.9 2.697e+04 1.158e-08
  6.50638     24.7 2.366e+04 8.359e-09
  6.51689     23.0 2.130e+04 6.613e-09
  6.52393     21.8 1.978e+04 5.597e-09
  6.52918     23.5 1.845e+04 4.786e-09
  6.53789     23.0 1.758e+04 4.411e-09
  6.54788     22.7 1.706e+04 4.303e-09
  6.55313     24.5 1.661e+04 3.897e-09
  6.55890     24.6 1.648e+04 3.928e-09
  6.56940     24.8 1.644e+04 4.017e-09
  6.57708     25.1 1.638e+04 4.243e-09
  6.58233     26.7 1.615e+04 3.846e-09
  6.58872     26.8 1.624e+04 4.076e-09
  6.59397     26.2 1.588e+04 3.642e-09
  6.60091     26.2 1.588e+04 3.788e-09
  6.60628     26.1 1.602e+04 4.123e-09
  6.61153     27.0 1.583e+04 3.748e-09
  6.62191     26.6 1.601e+04 4.124e-09
  6.63023     25.9 1.656e+04 4.818e-09
  6.63548     26.7 1.614e+04 4.209e-09
  6.64292     25.6 1.674e+04 5.036e-09
  6.65342     24.1 1.755e+04 6.392e-09
  6.65943     22.6 1.835e+04 8.377e-09
  6.66468     23.4 1.738e+04 6.493e-09
  6.67442     22.0 1.806e+04 8.181e-09
  6.68338     20.5 1.873e+04 9.970e-09
  6.68863     21.0 1.754e+04 7.267e-09
  6.69543     19.2 1.817e+04 8.044e-09
  6.70593     17.6 1.856e+04 8.189e-09
  6.71258     16.0 1.883e+04 8.147e-09
  6.72313     17.5 1.741e+04 5.551e-09
  6.74279     15.8 1.735e+04 4.919e-09
  6.76057     13.3 1.681e+04 3.943e-09
  6.77108     13.9 1.582e+04 2.795e-09
  6.78480     11.7 1.502e+04 2.580e-09
  6.80581     11.4 1.430e+04 2.410e-09
  6.81898     11.7 1.388e+04 2.151e-09
  6.82948     12.2 1.380e+04 2.111e-09
  6.84782     12.3 1.357e+04 1.798e-09
  6.86688     12.0 1.346e+04 1.488e-09
  6.87738     12.5 1.344e+04 1.493e-09
  6.88983     11.3 1.352e+04 1.425e-09
  6.90979      9.4 1.370e+04 1.492e-09
  6.92029      9.8 1.402e+04 1.781e-09
  6.92528      7.9 1.431e+04 2.273e-09
  6.93578      8.8 1.403e+04 2.036e-09
  6.95284      7.9 1.407e+04 2.568e-09
  6.97318      7.5 1.397e+04 2.777e-09
  6.98368      8.4 1.373e+04 2.459e-09
  6.99485      8.4 1.359e+04 2.393e-09
  7.01586      8.6 1.322e+04 2.077e-09
  7.03158      8.5 1.277e+04 1.574e-09
  7.04208      9.4 1.269e+04 1.490e-09
  7.05787      9.0 1.225e+04 1.104e-09
  7.07887      8.3 1.181e+04 8.469e-10
  7.08998      7.8 1.137e+04 7.248e-10
  7.10048      8.9 1.139e+04 7.413e-10
  7.12089      9.1 1.129e+04 7.335e-10
  7.13788      9.5 1.129e+04 7.356e-10
  7.14838     10.4 1.139e+04 7.681e-10
  7.16290     10.7 1.143e+04 7.976e-10
  7.18390     11.0 1.153e+04 8.567e-10
  7.19628     11.2 1.165e+04 9.459e-10
  7.20678     12.0 1.170e+04 9.804e-10
  7.22591     12.3 1.179e+04 1.063e-09
  7.24126     12.7 1.189e+04 1.153e-09
  7.24902     12.8 1.157e+04 9.717e-10
  7.25468     13.6 1.142e+04 8.865e-10
  7.26792     14.1 1.142e+04 8.835e-10
  7.28893     14.6 1.145e+04 8.852e-10
  7.30258     15.0 1.150e+04 9.041e-10
  7.31308     15.7 1.118e+04 7.020e-10
  7.33094     16.0 1.120e+04 7.096e-10
  7.35048     16.4 1.128e+04 7.408e-10
  7.36098     17.0 1.091e+04 5.565e-10
  7.37295     17.3 1.100e+04 5.925e-10
  7.39395     17.7 1.117e+04 6.622e-10
  7.40888     18.1 1.141e+04 7.698e-10
  7.41938     18.7 1.098e+04 5.581e-10
  7.43596     19.1 1.125e+04 6.599e-10
  7.45678     19.4 1.158e+04 7.966e-10
  7.46728     19.9 1.115e+04 5.866e-10
  7.47798     20.0 1.148e+04 7.159e-10
  7.49898     20.0 1.188e+04 8.928e-10
  7.51518     19.8 1.233e+04 1.129e-09
  7.52569     20.5 1.188e+04 8.856e-10
  7.54099     20.3 1.237e+04 1.156e-09
  7.56200     19.7 1.302e+04 1.566e-09
  7.57273     18.1 1.434e+04 2.382e-09
  7.57382     17.5 1.434e+04 2.343e-09
  7.58409     19.4 1.318e+04 1.702e-09
  7.60401     17.3 1.498e+04 3.053e-09
  7.62148     15.2 1.660e+04 5.733e-09
  7.63199     17.9 1.537e+04 3.885e-09
  7.64602     16.7 1.662e+04 6.566e-09
  7.66702     16.2 1.736e+04 9.460e-09
  7.67989     16.1 1.745e+04 1.020e-08
  7.69039     17.8 1.690e+04 8.355e-09
  7.70903     17.7 1.683e+04 8.257e-09
  7.72778     18.1 1.638e+04 7.070e-09
  7.73829     19.4 1.618e+04 6.702e-09
  7.75104     19.8 1.554e+04 5.351e-09
  7.77205     20.0 1.460e+04 3.600e-09
  7.78619     20.2 1.357e+04 2.217e-09
  7.79669     21.6 1.380e+04 2.632e-09
