# Columns:
#   distance along LOS (in CHIMPs)
#   peculiar velocity  (in km/s)
#   temperature (K)
#   HI number density
# pos=(131.26,36.5545,81.317), angles=(0.0713627,2.42799)
  0.01439     -0.4 9.614e+03 4.491e-11
  0.04850      2.3 9.730e+03 3.857e-11
  0.08780      4.4 9.776e+03 5.125e-11
  0.12696      6.7 9.793e+03 7.522e-11
  0.16612      9.7 9.757e+03 1.077e-10
  0.20528     12.5 9.898e+03 1.222e-10
  0.24445     14.9 9.996e+03 1.282e-10
  0.28361     17.0 1.006e+04 1.364e-10
  0.32277     18.8 1.015e+04 1.642e-10
  0.36193     20.9 1.017e+04 2.209e-10
  0.40110     23.2 1.023e+04 2.686e-10
  0.44026     25.4 1.024e+04 2.628e-10
  0.47942     27.8 1.026e+04 2.178e-10
  0.51858     29.8 1.031e+04 1.585e-10
  0.55774     31.7 1.031e+04 1.180e-10
  0.59691     33.7 1.016e+04 9.673e-11
  0.63566     36.1 9.928e+03 8.293e-11
  0.65525     36.4 9.915e+03 7.248e-11
  0.67523     39.1 9.767e+03 5.948e-11
  0.71439     41.9 9.685e+03 4.822e-11
  0.74371     44.6 9.690e+03 3.895e-11
  0.76329     44.9 9.767e+03 3.874e-11
  0.79272     47.5 9.756e+03 3.242e-11
  0.83188     50.1 9.698e+03 3.049e-11
  0.87104     52.9 9.691e+03 3.059e-11
  0.91020     55.8 9.702e+03 3.125e-11
  0.94937     58.6 9.742e+03 3.352e-11
  0.98853     61.3 9.785e+03 3.752e-11
  1.02769     64.1 9.849e+03 4.324e-11
  1.06685     66.8 9.929e+03 5.137e-11
  1.10601     69.5 1.001e+04 6.396e-11
  1.14518     72.1 1.009e+04 8.068e-11
  1.18434     74.7 1.017e+04 1.008e-10
  1.22350     77.2 1.024e+04 1.217e-10
  1.26266     79.6 1.027e+04 1.405e-10
  1.30183     82.0 1.027e+04 1.557e-10
  1.34099     84.3 1.025e+04 1.676e-10
  1.38015     86.7 1.028e+04 1.765e-10
  1.41931     88.9 1.024e+04 1.872e-10
  1.45847     91.2 1.025e+04 1.962e-10
  1.48493     93.8 1.023e+04 1.980e-10
  1.50451     93.7 1.023e+04 1.250e-10
  1.53680     95.9 1.025e+04 1.304e-10
  1.57596     98.1 1.024e+04 1.352e-10
  1.61512    100.4 1.019e+04 1.401e-10
  1.65429    102.8 1.013e+04 1.442e-10
  1.69345    105.2 1.010e+04 1.441e-10
  1.73261    107.6 1.004e+04 1.418e-10
  1.77177    110.0 9.974e+03 1.369e-10
  1.81093    112.4 9.904e+03 1.288e-10
  1.85010    114.8 9.841e+03 1.186e-10
  1.88926    117.2 9.787e+03 1.111e-10
  1.92842    119.7 9.767e+03 1.103e-10
  1.96758    122.3 9.776e+03 1.121e-10
  2.00674    124.9 9.795e+03 1.207e-10
  2.04591    127.6 9.823e+03 1.371e-10
  2.08507    130.3 9.863e+03 1.560e-10
  2.12423    132.9 9.889e+03 1.656e-10
  2.16339    135.4 9.888e+03 1.651e-10
  2.19286    137.9 9.869e+03 1.594e-10
  2.21244    138.2 9.899e+03 1.500e-10
  2.24172    140.7 9.850e+03 1.423e-10
  2.28088    143.1 9.771e+03 1.283e-10
  2.31461    145.6 9.707e+03 1.133e-10
  2.33419    145.8 9.689e+03 1.146e-10
  2.35920    148.3 9.632e+03 1.033e-10
  2.39837    150.9 9.547e+03 9.716e-11
  2.43753    153.5 9.476e+03 9.629e-11
  2.47669    156.3 9.462e+03 9.632e-11
  2.51585    159.1 9.452e+03 9.676e-11
  2.55502    161.9 9.430e+03 9.879e-11
  2.59418    164.8 9.419e+03 1.029e-10
  2.63334    167.6 9.416e+03 1.089e-10
  2.67250    170.4 9.424e+03 1.171e-10
  2.71166    173.2 9.440e+03 1.276e-10
  2.75083    176.0 9.465e+03 1.407e-10
  2.78999    178.7 9.495e+03 1.567e-10
  2.82915    181.5 9.540e+03 1.762e-10
  2.86831    184.2 9.611e+03 2.002e-10
  2.90747    186.9 9.703e+03 2.304e-10
  2.94664    189.4 9.757e+03 2.423e-10
  2.98580    191.9 9.866e+03 2.847e-10
  3.02496    194.3 1.002e+04 3.405e-10
  3.06412    196.7 1.021e+04 4.094e-10
  3.10329    198.9 1.039e+04 4.821e-10
  3.14245    201.1 1.056e+04 5.433e-10
  3.16388    203.0 1.069e+04 5.791e-10
  3.18346    202.2 1.062e+04 4.757e-10
  3.22077    203.9 1.069e+04 4.856e-10
  3.25993    205.5 1.079e+04 4.943e-10
  3.28453    206.1 1.083e+04 5.040e-10
  3.29422    206.0 1.078e+04 4.805e-10
  3.30869    206.5 1.081e+04 4.801e-10
  3.32827    207.0 1.086e+04 4.871e-10
  3.34785    207.5 1.091e+04 5.080e-10
  3.36744    207.9 1.098e+04 5.422e-10
  3.38702    208.3 1.107e+04 5.891e-10
  3.40660    208.6 1.118e+04 6.512e-10
  3.42618    208.8 1.130e+04 7.296e-10
  3.44576    209.1 1.143e+04 8.247e-10
  3.46534    209.3 1.159e+04 9.389e-10
  3.48492    209.4 1.176e+04 1.077e-09
  3.50450    209.3 1.196e+04 1.248e-09
  3.52408    209.2 1.222e+04 1.470e-09
  3.54366    209.1 1.258e+04 1.776e-09
  3.56325    208.8 1.306e+04 2.196e-09
  3.57852    208.1 1.360e+04 2.721e-09
  3.58831    207.7 1.338e+04 2.417e-09
  3.60241    206.6 1.384e+04 2.761e-09
  3.62199    204.6 1.452e+04 3.249e-09
  3.64157    201.2 1.566e+04 4.205e-09
  3.65161    196.5 1.698e+04 6.007e-09
  3.66141    197.3 1.568e+04 3.634e-09
  3.68073    192.4 1.690e+04 5.549e-09
  3.70031    188.0 1.750e+04 7.735e-09
  3.71989    184.3 1.746e+04 8.199e-09
  3.73948    181.4 1.720e+04 7.801e-09
  3.75906    179.3 1.640e+04 6.152e-09
  3.77864    177.8 1.521e+04 3.898e-09
  3.79822    177.2 1.393e+04 2.145e-09
  3.81780    176.7 1.282e+04 1.314e-09
  3.84727    176.9 1.134e+04 6.717e-10
  3.88653    177.0 9.919e+03 3.109e-10
  3.92569    177.7 9.848e+03 2.531e-10
  3.96485    179.7 9.776e+03 2.492e-10
  3.99356    182.2 9.771e+03 2.497e-10
  4.01314    182.0 1.046e+04 4.350e-10
  4.03329    183.2 1.040e+04 4.403e-10
  4.05277    184.4 1.037e+04 4.460e-10
  4.07235    185.6 1.042e+04 4.751e-10
  4.09194    186.7 1.059e+04 5.267e-10
  4.11152    187.6 1.080e+04 5.932e-10
  4.13110    188.3 1.098e+04 6.596e-10
  4.15068    188.9 1.114e+04 7.174e-10
  4.17026    189.5 1.125e+04 7.582e-10
  4.18984    189.9 1.128e+04 7.729e-10
  4.20942    190.2 1.128e+04 7.726e-10
  4.22900    190.5 1.127e+04 7.671e-10
  4.24858    190.8 1.121e+04 7.450e-10
  4.26817    191.1 1.112e+04 7.095e-10
  4.28775    191.4 1.103e+04 6.791e-10
  4.30733    191.7 1.102e+04 6.735e-10
  4.32691    192.0 1.103e+04 6.765e-10
  4.34649    192.3 1.107e+04 6.949e-10
  4.36607    192.5 1.118e+04 7.354e-10
  4.37619    192.8 1.132e+04 7.901e-10
  4.38598    192.3 1.153e+04 9.301e-10
  4.40523    192.6 1.168e+04 9.761e-10
  4.41800    192.7 1.183e+04 9.943e-10
  4.42779    191.7 1.214e+04 1.180e-09
  4.44439    191.7 1.209e+04 1.133e-09
  4.46398    191.6 1.199e+04 1.068e-09
  4.48356    191.3 1.190e+04 9.958e-10
  4.50314    190.8 1.182e+04 9.355e-10
  4.52272    190.3 1.172e+04 8.956e-10
  4.54230    189.7 1.164e+04 8.728e-10
  4.56188    189.2 1.162e+04 8.583e-10
  4.58146    188.7 1.165e+04 8.503e-10
  4.60104    188.2 1.168e+04 8.459e-10
  4.62062    187.7 1.175e+04 8.464e-10
  4.64021    187.3 1.180e+04 8.515e-10
  4.65979    186.9 1.192e+04 8.899e-10
  4.67937    186.6 1.201e+04 9.406e-10
  4.70884    186.4 1.239e+04 1.210e-09
  4.74810    186.2 1.286e+04 1.610e-09
  4.78726    185.6 1.296e+04 1.694e-09
  4.82325    184.7 1.287e+04 1.592e-09
  4.84283    184.0 1.230e+04 1.198e-09
  4.86558    183.1 1.181e+04 7.601e-10
  4.90475    182.5 1.099e+04 3.704e-10
  4.94391    181.8 9.993e+03 1.993e-10
  4.98307    181.7 9.773e+03 1.848e-10
  5.02223    182.2 9.759e+03 1.874e-10
  5.06139    183.0 9.793e+03 2.117e-10
  5.09117    183.8 1.001e+04 2.751e-10
  5.11076    183.7 9.933e+03 2.529e-10
  5.13972    184.3 1.017e+04 3.302e-10
  5.17888    184.7 1.039e+04 4.135e-10
  5.21804    184.8 1.057e+04 4.955e-10
  5.25721    184.8 1.072e+04 5.853e-10
  5.29637    184.8 1.089e+04 6.983e-10
  5.33553    184.6 1.114e+04 8.332e-10
  5.37469    184.2 1.129e+04 9.007e-10
  5.41385    183.8 1.128e+04 8.910e-10
  5.45302    183.8 1.119e+04 8.313e-10
  5.49218    183.9 1.101e+04 7.322e-10
  5.53134    184.1 1.089e+04 6.663e-10
  5.57050    184.3 1.089e+04 6.645e-10
  5.60966    184.5 1.093e+04 6.780e-10
  5.64883    184.6 1.098e+04 6.964e-10
  5.67251    184.5 1.098e+04 6.969e-10
  5.69209    185.6 1.075e+04 5.581e-10
  5.72715    185.5 1.075e+04 5.578e-10
  5.76631    185.5 1.069e+04 5.364e-10
  5.80548    185.6 1.056e+04 4.613e-10
  5.82554    185.7 1.041e+04 3.664e-10
  5.84512    187.4 1.047e+04 4.088e-10
  5.88380    187.5 1.034e+04 3.221e-10
  5.92296    187.6 1.029e+04 2.826e-10
  5.96212    187.8 1.032e+04 2.939e-10
  6.00129    188.2 1.043e+04 3.486e-10
  6.04045    188.9 1.054e+04 4.377e-10
  6.07961    189.9 1.059e+04 5.092e-10
  6.11877    190.9 1.055e+04 5.048e-10
  6.15794    192.0 1.043e+04 4.612e-10
  6.19710    193.2 1.025e+04 3.725e-10
  6.23626    194.2 1.005e+04 2.820e-10
  6.27542    195.0 9.861e+03 2.191e-10
  6.31458    195.8 9.697e+03 1.875e-10
  6.35375    196.7 9.608e+03 1.820e-10
  6.39291    197.5 9.612e+03 1.831e-10
  6.43207    198.2 9.657e+03 1.914e-10
  6.47123    198.7 9.823e+03 2.226e-10
  6.50219    198.9 1.013e+04 2.942e-10
  6.52177    199.0 1.024e+04 3.983e-10
  6.54033    199.1 1.076e+04 6.107e-10
  6.55991    199.1 1.113e+04 7.716e-10
  6.58872    198.8 1.175e+04 1.108e-09
  6.62788    198.1 1.218e+04 1.235e-09
  6.66704    197.0 1.219e+04 1.203e-09
  6.70621    196.3 1.203e+04 1.023e-09
  6.74537    196.3 1.160e+04 7.182e-10
  6.78453    196.3 1.102e+04 4.653e-10
  6.82369    196.6 1.045e+04 3.355e-10
  6.86285    197.5 1.026e+04 3.151e-10
  6.90202    199.1 1.024e+04 3.223e-10
  6.94118    200.9 1.026e+04 3.476e-10
  6.98034    202.6 1.029e+04 3.808e-10
  7.01950    204.1 1.030e+04 3.932e-10
  7.05867    205.6 1.029e+04 3.904e-10
  7.09783    207.0 1.022e+04 3.710e-10
  7.13699    208.6 1.011e+04 3.268e-10
  7.17615    210.2 1.003e+04 2.785e-10
  7.21531    211.9 1.006e+04 2.561e-10
  7.25448    213.8 1.009e+04 2.570e-10
  7.27470    215.6 1.020e+04 2.699e-10
  7.29428    216.1 9.909e+03 2.510e-10
  7.33188    217.9 1.014e+04 2.746e-10
  7.35146    217.5 1.004e+04 2.555e-10
  7.37196    218.5 1.024e+04 2.993e-10
  7.40124    219.1 1.050e+04 3.568e-10
  7.42072    219.9 1.088e+04 4.603e-10
  7.44030    220.7 1.141e+04 6.401e-10
  7.45988    220.9 1.202e+04 9.114e-10
  7.47946    220.9 1.269e+04 1.304e-09
  7.49904    221.0 1.342e+04 1.855e-09
  7.51863    221.0 1.416e+04 2.529e-09
  7.53821    221.0 1.485e+04 3.048e-09
  7.55779    220.5 1.511e+04 3.087e-09
  7.57737    219.5 1.508e+04 2.936e-09
  7.59695    218.6 1.478e+04 2.298e-09
  7.61653    217.6 1.407e+04 1.417e-09
  7.63190    216.0 1.295e+04 7.413e-10
  7.64169    216.6 1.271e+04 7.560e-10
  7.65569    214.4 1.155e+04 4.231e-10
  7.67527    212.0 1.084e+04 3.646e-10
  7.69486    210.4 1.072e+04 3.635e-10
  7.71444    209.5 1.069e+04 3.683e-10
  7.73402    208.9 1.065e+04 3.957e-10
  7.75360    208.5 1.071e+04 4.445e-10
  7.76611    208.3 1.084e+04 5.014e-10
  7.77590    208.0 1.092e+04 5.571e-10
  7.79276    207.6 1.122e+04 6.303e-10
  7.81234    206.9 1.160e+04 7.350e-10
  7.83192    205.9 1.206e+04 9.034e-10
  7.85150    204.6 1.254e+04 1.153e-09
  7.87109    202.9 1.307e+04 1.472e-09
  7.89067    201.4 1.349e+04 1.687e-09
  7.91025    199.6 1.372e+04 1.695e-09
  7.92983    197.7 1.370e+04 1.633e-09
  7.94941    195.4 1.359e+04 1.414e-09
  7.96899    193.1 1.319e+04 1.141e-09
  7.98939    190.5 1.299e+04 9.608e-10
  8.00897    189.3 1.274e+04 8.196e-10
  8.03762    186.3 1.234e+04 6.278e-10
  8.07688    180.8 1.133e+04 4.075e-10
  8.11604    176.4 1.076e+04 3.001e-10
  8.15521    173.2 1.051e+04 2.219e-10
  8.18114    170.7 1.027e+04 1.593e-10
  8.20072    170.1 1.050e+04 2.738e-10
  8.23353    168.3 1.007e+04 2.146e-10
  8.27269    167.0 9.959e+03 2.077e-10
  8.31186    166.1 9.984e+03 2.176e-10
  8.35102    165.4 1.013e+04 2.574e-10
  8.39018    164.5 1.033e+04 3.119e-10
  8.42934    163.5 1.044e+04 3.523e-10
  8.46850    162.2 1.048e+04 3.700e-10
  8.50767    161.0 1.049e+04 3.849e-10
  8.54683    159.7 1.054e+04 4.378e-10
  8.58599    158.5 1.085e+04 5.767e-10
  8.62515    157.5 1.124e+04 7.584e-10
  8.66431    156.1 1.137e+04 8.031e-10
  8.70348    154.7 1.130e+04 7.667e-10
  8.72385    153.8 1.094e+04 6.017e-10
  8.74344    153.0 1.092e+04 6.001e-10
  8.78180    152.7 1.035e+04 3.889e-10
  8.82096    152.6 9.776e+03 2.255e-10
  8.86013    152.5 9.344e+03 1.253e-10
  8.89929    152.4 9.058e+03 7.099e-11
  8.93845    152.4 8.920e+03 5.478e-11
  8.97761    153.0 8.911e+03 5.436e-11
  9.01083    154.0 8.914e+03 5.494e-11
  9.03041    153.3 9.212e+03 7.828e-11
  9.05594    154.4 9.191e+03 9.325e-11
  9.09510    155.6 9.304e+03 1.260e-10
  9.13426    156.9 9.546e+03 1.759e-10
  9.17342    158.1 9.942e+03 2.503e-10
  9.21259    158.2 1.025e+04 3.218e-10
  9.24186    158.6 1.041e+04 3.842e-10
  9.26134    158.8 1.060e+04 4.813e-10
  9.28092    158.8 1.087e+04 6.107e-10
  9.30050    158.7 1.117e+04 7.408e-10
  9.32009    158.5 1.149e+04 8.565e-10
  9.33967    158.2 1.164e+04 9.192e-10
  9.36914    157.7 1.154e+04 8.972e-10
  9.40840    157.4 1.138e+04 8.783e-10
  9.43864    156.9 1.103e+04 7.906e-10
  9.45822    157.7 1.167e+04 1.045e-09
  9.48672    157.2 1.090e+04 7.370e-10
  9.52588    157.0 1.021e+04 5.077e-10
  9.56504    157.0 9.700e+03 3.591e-10
  9.60421    157.4 9.344e+03 2.653e-10
  9.64337    158.3 9.047e+03 2.113e-10
  9.68253    159.5 8.839e+03 2.018e-10
  9.72169    160.9 8.837e+03 2.019e-10
  9.76086    162.3 8.832e+03 2.046e-10
  9.80002    163.7 8.836e+03 2.152e-10
  9.83918    165.2 8.870e+03 2.343e-10
  9.86009    166.6 8.958e+03 2.626e-10
  9.87967    167.5 9.129e+03 3.037e-10
  9.91750    168.8 9.260e+03 3.434e-10
  9.95667    170.0 9.418e+03 3.883e-10
  9.99583    170.7 9.524e+03 4.263e-10
 10.02510    170.9 9.624e+03 4.640e-10
 10.04459    171.1 9.748e+03 5.085e-10
 10.06417    171.2 9.886e+03 5.569e-10
 10.08375    171.2 1.006e+04 6.083e-10
 10.10333    171.0 1.028e+04 6.727e-10
 10.12291    170.5 1.051e+04 7.583e-10
 10.14249    169.9 1.072e+04 8.670e-10
 10.16207    169.5 1.088e+04 9.914e-10
 10.17282    169.2 1.098e+04 1.117e-09
 10.18261    169.6 1.076e+04 9.958e-10
 10.20123    169.5 1.088e+04 1.151e-09
 10.22082    169.2 1.119e+04 1.383e-09
 10.24040    168.1 1.224e+04 1.896e-09
 10.25998    165.8 1.408e+04 3.122e-09
 10.27474    163.4 1.584e+04 5.604e-09
 10.28453    166.1 1.501e+04 3.991e-09
 10.29914    163.8 1.668e+04 7.309e-09
 10.31872    161.8 1.775e+04 1.045e-08
 10.33830    159.5 1.819e+04 1.072e-08
 10.35788    156.3 1.845e+04 9.880e-09
 10.37746    151.6 1.890e+04 7.266e-09
 10.39705    144.9 1.822e+04 4.981e-09
 10.41663    138.2 1.598e+04 3.916e-09
 10.43621    133.5 1.430e+04 3.571e-09
 10.45579    130.8 1.417e+04 3.364e-09
 10.47537    128.3 1.436e+04 3.069e-09
 10.49495    125.0 1.441e+04 2.538e-09
 10.51453    120.9 1.385e+04 1.917e-09
 10.53021    116.9 1.275e+04 1.424e-09
 10.54000    116.1 1.251e+04 1.290e-09
 10.55369    112.8 1.150e+04 1.048e-09
 10.58316    111.0 1.131e+04 9.305e-10
 10.62242    109.2 1.097e+04 8.157e-10
 10.66159    108.9 1.094e+04 8.072e-10
 10.68977    108.7 1.103e+04 8.442e-10
 10.70936    107.0 1.168e+04 1.192e-09
 10.73991    107.7 1.190e+04 1.367e-09
 10.77907    108.9 1.216e+04 1.505e-09
 10.81823    110.3 1.216e+04 1.433e-09
 10.85740    111.9 1.188e+04 1.144e-09
 10.88780    113.4 1.132e+04 7.581e-10
 10.90738    112.3 1.009e+04 4.082e-10
 10.93572    113.8 9.489e+03 2.804e-10
 10.97488    115.6 9.329e+03 2.444e-10
 11.01405    117.9 9.305e+03 2.432e-10
 11.05321    120.4 9.327e+03 2.509e-10
 11.09237    122.9 9.458e+03 2.824e-10
 11.13153    125.3 9.697e+03 3.430e-10
 11.17069    127.6 1.000e+04 4.314e-10
 11.20986    130.0 1.035e+04 5.443e-10
 11.24902    132.3 1.073e+04 6.805e-10
 11.28818    134.4 1.108e+04 8.337e-10
 11.32734    136.4 1.138e+04 9.785e-10
 11.36650    138.3 1.152e+04 1.052e-09
 11.40567    140.1 1.153e+04 1.051e-09
 11.44483    141.8 1.148e+04 1.026e-09
 11.48399    143.6 1.135e+04 9.426e-10
 11.51946    145.3 1.118e+04 8.284e-10
 11.53904    145.6 1.143e+04 9.563e-10
 11.56232    147.3 1.113e+04 7.545e-10
 11.60148    148.9 1.087e+04 5.895e-10
 11.62217    150.5 1.064e+04 4.560e-10
 11.64175    150.1 1.072e+04 4.598e-10
 11.67980    151.7 1.042e+04 3.268e-10
 11.71896    153.4 1.015e+04 2.261e-10
 11.75813    155.1 9.926e+03 1.553e-10
 11.79729    156.7 9.731e+03 1.093e-10
 11.83645    158.1 9.576e+03 9.277e-11
 11.87561    159.8 9.570e+03 9.289e-11
 11.91478    161.3 9.582e+03 9.577e-11
 11.95394    162.8 9.619e+03 1.071e-10
 11.99310    164.3 9.647e+03 1.292e-10
 12.03226    165.8 9.646e+03 1.611e-10
 12.07142    167.3 9.662e+03 1.963e-10
 12.11059    168.8 9.721e+03 2.289e-10
 12.14975    170.3 9.888e+03 2.520e-10
 12.18891    170.9 1.014e+04 2.595e-10
 12.22807    171.1 1.018e+04 2.582e-10
 12.26724    171.2 1.016e+04 2.486e-10
 12.30640    171.3 1.011e+04 2.290e-10
 12.33567    171.7 1.007e+04 2.231e-10
 12.34655    172.2 9.917e+03 2.076e-10
 12.35634    172.4 9.960e+03 2.161e-10
 12.36853    172.2 9.994e+03 2.129e-10
 12.37832    175.1 1.004e+04 2.132e-10
 12.39432    174.8 1.005e+04 2.064e-10
 12.41390    173.6 1.055e+04 2.222e-10
 12.43348    170.8 1.224e+04 3.243e-10
 12.45306    167.5 1.381e+04 6.855e-10
 12.47264    165.0 1.452e+04 1.453e-09
 12.49222    163.6 1.475e+04 2.347e-09
 12.51180    162.9 1.490e+04 2.954e-09
 12.53138    162.4 1.493e+04 2.796e-09
 12.55097    161.5 1.498e+04 2.115e-09
 12.57055    159.6 1.482e+04 1.218e-09
 12.59013    156.7 1.383e+04 5.962e-10
 12.60971    153.2 1.201e+04 3.639e-10
 12.62929    150.4 1.055e+04 3.552e-10
 12.64887    149.0 1.053e+04 3.804e-10
 12.66845    148.3 1.052e+04 4.853e-10
 12.68803    147.8 1.086e+04 6.489e-10
 12.70394    147.4 1.124e+04 8.461e-10
 12.71373    148.0 1.111e+04 7.776e-10
 12.72720    147.1 1.147e+04 9.516e-10
 12.74678    146.0 1.164e+04 9.893e-10
 12.76636    144.5 1.164e+04 9.767e-10
 12.78337    143.7 1.154e+04 9.491e-10
 12.79316    144.7 1.159e+04 9.535e-10
 12.81541    143.3 1.130e+04 8.523e-10
 12.85467    142.4 1.065e+04 6.191e-10
 12.89383    141.9 9.833e+03 4.012e-10
 12.93299    141.8 9.102e+03 2.571e-10
 12.97215    142.0 8.606e+03 1.738e-10
 13.01132    142.5 8.322e+03 1.283e-10
 13.05048    143.5 8.175e+03 1.053e-10
 13.07132    144.7 8.110e+03 9.380e-11
 13.09090    145.8 8.142e+03 9.561e-11
 13.12880    147.1 8.070e+03 8.655e-11
 13.16797    148.8 8.022e+03 8.376e-11
 13.19841    150.6 8.004e+03 8.411e-11
 13.21799    151.5 8.055e+03 9.003e-11
 13.24629    153.5 8.055e+03 9.049e-11
 13.28545    155.5 8.062e+03 9.192e-11
 13.32461    157.5 8.092e+03 9.484e-11
 13.36378    159.6 8.143e+03 9.987e-11
 13.40294    161.7 8.209e+03 1.071e-10
 13.44210    163.8 8.280e+03 1.159e-10
 13.48126    166.0 8.349e+03 1.258e-10
 13.52042    168.2 8.408e+03 1.367e-10
 13.55959    170.4 8.471e+03 1.496e-10
 13.59875    172.7 8.572e+03 1.672e-10
 13.63791    174.9 8.772e+03 1.942e-10
 13.67707    177.2 9.143e+03 2.393e-10
 13.71624    179.4 9.598e+03 3.038e-10
 13.74551    180.6 9.763e+03 3.413e-10
 13.76499    181.4 9.970e+03 3.936e-10
 13.78457    182.0 1.018e+04 4.933e-10
 13.79570    183.0 1.037e+04 6.392e-10
 13.80550    184.1 1.038e+04 5.565e-10
 13.82374    185.0 1.058e+04 7.555e-10
 13.84332    185.8 1.088e+04 1.020e-09
 13.86290    185.7 1.165e+04 1.425e-09
 13.88248    185.1 1.309e+04 2.144e-09
 13.90206    183.8 1.468e+04 3.386e-09
 13.92164    182.2 1.588e+04 4.968e-09
 13.94122    180.5 1.677e+04 6.485e-09
 13.96080    178.4 1.674e+04 6.390e-09
 13.98038    175.9 1.656e+04 5.716e-09
 13.99997    173.2 1.616e+04 4.770e-09
 14.01955    169.9 1.553e+04 3.868e-09
 14.03769    166.2 1.471e+04 3.147e-09
 14.04748    168.0 1.550e+04 4.141e-09
 14.05871    164.7 1.473e+04 3.388e-09
 14.07829    161.9 1.374e+04 2.616e-09
 14.09787    160.0 1.276e+04 1.939e-09
 14.11745    158.7 1.187e+04 1.378e-09
 14.13703    157.6 1.114e+04 9.450e-10
 14.15310    156.5 1.062e+04 6.472e-10
 14.16289    157.4 1.083e+04 7.579e-10
 14.17620    156.4 1.045e+04 5.593e-10
 14.19578    155.2 1.016e+04 4.293e-10
 14.22525    154.3 9.948e+03 3.611e-10
 14.26451    154.8 9.743e+03 3.243e-10
 14.30367    155.5 9.649e+03 3.122e-10
 14.34283    156.3 9.614e+03 3.027e-10
 14.38199    157.3 9.571e+03 2.875e-10
 14.42115    158.4 9.522e+03 2.668e-10
 14.46032    159.7 9.493e+03 2.476e-10
 14.49948    161.0 9.511e+03 2.427e-10
 14.52048    162.5 9.537e+03 2.449e-10
 14.54006    164.0 9.614e+03 2.559e-10
 14.57780    165.6 9.768e+03 2.691e-10
 14.61697    167.1 1.002e+04 3.011e-10
 14.65613    168.5 1.023e+04 3.360e-10
 14.69529    169.5 1.042e+04 3.687e-10
