# Columns:
#   distance along LOS (in CHIMPs)
#   peculiar velocity  (in km/s)
#   temperature (K)
#   HI number density
# pos=(170.433,225.254,75.0021), angles=(1.49038,4.63776)
  0.00051    145.5 1.160e+04 5.628e-10
  0.02067    146.0 1.160e+04 5.214e-10
  0.05996    146.5 1.157e+04 4.855e-10
  0.09926    147.2 1.151e+04 4.418e-10
  0.13856    148.1 1.143e+04 3.823e-10
  0.17786    149.2 1.135e+04 3.192e-10
  0.21716    150.4 1.129e+04 2.742e-10
  0.25646    151.8 1.128e+04 2.642e-10
  0.29576    153.2 1.130e+04 2.649e-10
  0.33505    154.4 1.135e+04 2.777e-10
  0.36967    155.6 1.141e+04 3.005e-10
  0.38932    154.8 1.127e+04 2.444e-10
  0.41365    155.8 1.130e+04 2.629e-10
  0.45295    156.7 1.137e+04 2.895e-10
  0.47762    157.2 1.148e+04 3.295e-10
  0.49727    157.5 1.160e+04 3.068e-10
  0.53155    157.5 1.165e+04 3.982e-10
  0.57085    157.5 1.170e+04 5.113e-10
  0.61014    157.3 1.173e+04 5.753e-10
  0.64944    156.7 1.172e+04 5.685e-10
  0.68874    156.3 1.159e+04 5.295e-10
  0.72804    156.2 1.136e+04 4.542e-10
  0.76734    156.4 1.110e+04 3.773e-10
  0.80664    157.0 1.086e+04 3.222e-10
  0.84593    157.9 1.070e+04 2.912e-10
  0.88523    159.1 1.059e+04 2.769e-10
  0.90757    160.3 1.052e+04 2.684e-10
  0.92721    159.9 1.042e+04 2.588e-10
  0.95656    160.9 1.034e+04 2.429e-10
  0.97621    160.4 1.029e+04 1.837e-10
  1.00313    161.2 1.023e+04 1.549e-10
  1.04243    162.0 1.012e+04 1.388e-10
  1.08173    162.9 1.009e+04 1.378e-10
  1.12102    163.8 1.009e+04 1.406e-10
  1.16032    164.8 1.012e+04 1.573e-10
  1.19962    165.7 1.023e+04 1.966e-10
  1.23892    166.5 1.038e+04 2.604e-10
  1.27822    167.3 1.054e+04 3.503e-10
  1.31752    168.1 1.068e+04 4.593e-10
  1.35682    168.8 1.080e+04 5.597e-10
  1.39611    169.4 1.089e+04 5.975e-10
  1.42581    169.8 1.089e+04 5.930e-10
  1.44546    169.1 1.086e+04 5.832e-10
  1.47471    169.3 1.070e+04 4.550e-10
  1.51401    170.1 1.058e+04 3.731e-10
  1.55331    170.9 1.046e+04 3.030e-10
  1.59261    171.9 1.029e+04 2.655e-10
  1.63191    173.0 1.014e+04 2.612e-10
  1.67120    174.3 1.013e+04 2.615e-10
  1.71050    175.7 1.010e+04 2.701e-10
  1.74980    177.1 1.009e+04 2.989e-10
  1.78910    178.6 1.015e+04 3.557e-10
  1.82840    180.0 1.031e+04 4.481e-10
  1.86770    181.3 1.056e+04 5.663e-10
  1.90700    182.3 1.085e+04 6.519e-10
  1.93408    182.8 1.094e+04 6.560e-10
  1.95148    183.2 1.084e+04 5.894e-10
  1.96370    183.2 1.102e+04 7.405e-10
  1.98559    183.5 1.111e+04 7.463e-10
  2.02489    183.9 1.111e+04 7.162e-10
  2.06419    184.4 1.102e+04 6.006e-10
  2.10349    185.1 1.088e+04 4.467e-10
  2.14279    186.0 1.070e+04 3.233e-10
  2.18208    187.1 1.055e+04 2.786e-10
  2.22138    188.6 1.054e+04 2.792e-10
  2.26068    190.2 1.056e+04 2.868e-10
  2.29998    191.9 1.063e+04 3.121e-10
  2.33928    193.5 1.073e+04 3.485e-10
  2.37858    195.1 1.083e+04 3.937e-10
  2.41301    196.5 1.092e+04 4.373e-10
  2.43257    196.2 1.124e+04 6.264e-10
  2.44715    196.8 1.129e+04 6.385e-10
  2.46680    197.4 1.135e+04 6.388e-10
  2.48174    197.8 1.138e+04 6.320e-10
  2.49157    197.5 1.140e+04 6.826e-10
  2.50610    198.0 1.142e+04 6.572e-10
  2.52575    198.4 1.142e+04 6.282e-10
  2.54540    198.5 1.142e+04 6.048e-10
  2.57497    199.0 1.145e+04 5.870e-10
  2.61437    200.1 1.123e+04 5.134e-10
  2.65367    201.4 1.101e+04 4.393e-10
  2.69297    202.7 1.082e+04 3.693e-10
  2.73226    203.9 1.070e+04 3.113e-10
  2.77156    205.1 1.064e+04 2.792e-10
  2.81086    206.3 1.063e+04 2.780e-10
  2.85016    207.1 1.067e+04 2.856e-10
  2.88946    207.4 1.090e+04 3.131e-10
  2.91160    207.3 1.115e+04 3.500e-10
  2.92133    206.9 1.178e+04 5.727e-10
  2.93839    206.8 1.192e+04 6.707e-10
  2.95804    206.6 1.204e+04 8.119e-10
  2.97768    206.2 1.216e+04 9.815e-10
  3.00008    205.7 1.239e+04 1.353e-09
  3.01973    205.0 1.261e+04 1.735e-09
  3.04655    204.2 1.315e+04 2.304e-09
  3.08595    202.6 1.339e+04 2.357e-09
  3.12525    200.1 1.339e+04 2.177e-09
  3.16455    197.1 1.309e+04 1.541e-09
  3.20385    194.3 1.228e+04 8.452e-10
  3.24315    191.9 1.120e+04 4.015e-10
  3.28244    190.2 1.017e+04 2.046e-10
  3.32174    189.6 1.001e+04 1.604e-10
  3.36104    189.5 9.998e+03 1.594e-10
  3.39054    189.7 9.991e+03 1.592e-10
  3.41019    188.8 9.922e+03 1.644e-10
  3.43964    189.0 9.905e+03 1.689e-10
  3.47894    189.2 9.914e+03 1.811e-10
  3.51823    189.1 9.963e+03 2.031e-10
  3.55753    189.0 1.016e+04 2.520e-10
  3.59683    188.5 1.037e+04 3.200e-10
  3.62621    188.1 1.050e+04 3.670e-10
  3.63963    188.0 1.060e+04 4.071e-10
  3.64946    187.5 1.060e+04 4.262e-10
  3.66541    187.0 1.080e+04 5.561e-10
  3.68506    186.7 1.101e+04 7.165e-10
  3.70471    186.3 1.125e+04 8.234e-10
  3.72436    185.8 1.155e+04 8.255e-10
  3.74401    185.0 1.163e+04 8.119e-10
  3.76366    183.9 1.171e+04 8.015e-10
  3.78330    182.5 1.176e+04 8.081e-10
  3.79699    180.9 1.180e+04 8.618e-10
  3.80682    180.9 1.180e+04 7.862e-10
  3.82260    179.4 1.184e+04 8.897e-10
  3.84225    178.3 1.197e+04 1.111e-09
  3.86190    177.6 1.218e+04 1.394e-09
  3.87910    177.1 1.239e+04 1.600e-09
  3.88893    176.5 1.229e+04 1.533e-09
  3.90120    175.8 1.253e+04 1.563e-09
  3.92085    174.8 1.267e+04 1.493e-09
  3.94050    173.4 1.281e+04 1.372e-09
  3.96015    171.5 1.294e+04 1.364e-09
  3.97980    168.6 1.364e+04 1.525e-09
  3.99945    164.8 1.522e+04 2.345e-09
  4.01910    161.7 1.654e+04 4.459e-09
  4.03875    160.0 1.729e+04 7.900e-09
  4.05611    159.2 1.776e+04 1.123e-08
  4.06594    157.8 1.816e+04 1.285e-08
  4.07804    157.0 1.792e+04 1.162e-08
  4.09769    156.0 1.744e+04 8.877e-09
  4.11734    154.9 1.666e+04 5.526e-09
  4.12839    153.1 1.565e+04 3.006e-09
  4.13822    152.7 1.549e+04 2.794e-09
  4.15664    150.2 1.433e+04 1.733e-09
  4.17629    148.0 1.349e+04 1.293e-09
  4.19594    146.4 1.299e+04 1.134e-09
  4.22551    143.0 1.230e+04 9.061e-10
  4.26491    140.1 1.182e+04 8.607e-10
  4.30421    137.1 1.154e+04 7.805e-10
  4.34350    133.9 1.147e+04 6.293e-10
  4.36806    130.4 1.128e+04 4.761e-10
  4.38771    127.7 1.105e+04 3.544e-10
  4.42210    124.7 1.070e+04 3.021e-10
  4.46140    122.6 1.053e+04 2.864e-10
  4.50070    121.1 1.044e+04 2.703e-10
  4.54000    119.9 1.031e+04 2.384e-10
  4.57455    119.2 1.014e+04 1.927e-10
  4.59420    118.4 9.958e+03 1.380e-10
  4.61859    118.1 9.850e+03 9.745e-11
  4.65789    117.9 9.746e+03 6.574e-11
  4.69719    117.6 9.584e+03 4.847e-11
  4.73649    117.5 9.406e+03 4.613e-11
  4.77579    117.7 9.379e+03 4.683e-11
  4.81509    118.4 9.318e+03 5.232e-11
  4.84699    119.2 9.327e+03 6.933e-11
  4.86664    119.2 9.347e+03 8.476e-11
  4.89368    120.2 9.507e+03 1.212e-10
  4.93298    121.3 9.761e+03 1.756e-10
  4.97228    122.4 1.007e+04 2.447e-10
  5.01158    123.4 1.034e+04 3.111e-10
  5.04096    123.8 1.045e+04 3.401e-10
  5.06051    123.8 1.054e+04 3.640e-10
  5.08016    123.6 1.071e+04 4.130e-10
  5.09609    122.7 1.112e+04 5.780e-10
  5.10592    122.4 1.113e+04 5.962e-10
  5.11224    120.4 1.246e+04 1.131e-09
  5.12207    118.4 1.420e+04 1.832e-09
  5.13910    116.4 1.617e+04 4.647e-09
  5.15875    115.6 1.719e+04 8.340e-09
  5.17840    114.8 1.734e+04 8.943e-09
  5.19805    114.2 1.710e+04 7.984e-09
  5.21770    114.0 1.625e+04 4.755e-09
  5.23735    113.2 1.514e+04 1.930e-09
  5.25700    111.5 1.365e+04 7.189e-10
  5.28657    107.0 1.178e+04 2.123e-10
  5.32593    104.5 1.042e+04 1.456e-10
  5.36523    105.0 1.011e+04 1.496e-10
  5.40456    106.3 9.958e+03 1.292e-10
  5.44386    107.9 9.801e+03 1.155e-10
  5.48316    109.4 9.646e+03 1.126e-10
  5.52246    110.9 9.621e+03 1.151e-10
  5.56176    112.3 9.599e+03 1.275e-10
  5.60106    113.8 9.670e+03 1.530e-10
  5.63068    115.2 9.817e+03 1.898e-10
  5.65033    114.5 1.007e+04 2.813e-10
  5.67965    115.8 1.031e+04 3.590e-10
  5.71895    117.1 1.052e+04 4.284e-10
  5.75825    118.4 1.064e+04 4.513e-10
  5.79755    119.6 1.066e+04 4.434e-10
  5.82451    120.9 1.064e+04 4.030e-10
  5.84416    120.8 1.054e+04 3.745e-10
  5.87615    122.1 1.044e+04 3.166e-10
  5.91545    123.3 1.039e+04 2.901e-10
  5.95474    124.6 1.039e+04 2.914e-10
  5.99404    125.8 1.042e+04 3.006e-10
  6.03334    127.1 1.052e+04 3.098e-10
  6.07264    128.3 1.056e+04 3.092e-10
  6.11194    129.4 1.056e+04 2.920e-10
  6.14892    130.5 1.043e+04 2.580e-10
  6.16857    128.7 1.011e+04 1.881e-10
  6.19053    129.5 1.010e+04 1.703e-10
  6.22983    130.2 1.017e+04 1.612e-10
  6.26913    130.9 1.019e+04 1.616e-10
  6.30345    131.7 1.022e+04 1.640e-10
  6.32310    132.9 1.011e+04 1.510e-10
  6.34773    133.8 1.018e+04 1.581e-10
  6.38703    134.6 1.038e+04 1.840e-10
  6.42633    134.6 1.065e+04 2.237e-10
  6.45570    134.3 1.084e+04 2.615e-10
  6.47525    133.9 1.123e+04 3.472e-10
  6.49490    133.2 1.198e+04 5.745e-10
  6.51455    132.5 1.289e+04 1.052e-09
  6.53420    132.0 1.382e+04 1.883e-09
  6.55255    131.7 1.472e+04 2.961e-09
  6.56237    133.5 1.414e+04 2.446e-09
  6.57350    133.5 1.510e+04 3.436e-09
  6.59315    133.3 1.624e+04 3.641e-09
  6.61280    132.8 1.653e+04 3.512e-09
  6.63245    131.8 1.712e+04 2.826e-09
  6.65210    129.7 1.716e+04 1.808e-09
  6.67175    125.6 1.588e+04 1.130e-09
  6.68662    120.4 1.402e+04 1.046e-09
  6.69644    124.3 2.126e+04 1.607e-09
  6.71104    115.6 2.120e+04 1.689e-09
  6.73069    107.1 1.936e+04 2.387e-09
  6.75034    100.7 1.856e+04 3.891e-09
  6.76999     96.2 1.888e+04 5.008e-09
  6.78964     92.6 1.876e+04 4.997e-09
  6.80184     89.5 1.788e+04 4.571e-09
  6.81167     88.7 2.024e+04 7.210e-09
  6.82894     85.5 1.820e+04 6.185e-09
  6.84859     83.3 1.608e+04 5.227e-09
  6.86824     82.9 1.554e+04 5.106e-09
  6.88789     83.3 1.549e+04 5.396e-09
  6.90754     84.0 1.593e+04 6.016e-09
  6.92153     84.4 1.660e+04 5.749e-09
  6.92639     83.8 1.740e+04 6.304e-09
  6.93200     83.7 1.836e+04 6.581e-09
  6.94183     83.6 1.923e+04 7.090e-09
  6.95055     83.4 1.995e+04 7.627e-09
  6.95551     82.7 1.787e+04 3.810e-09
  6.96649     81.4 1.761e+04 4.015e-09
  6.98613     78.7 1.742e+04 4.989e-09
  7.00578     75.7 1.776e+04 7.390e-09
  7.02543     73.9 1.824e+04 1.054e-08
  7.04131     72.8 1.837e+04 1.328e-08
  7.05113     71.8 1.781e+04 1.179e-08
  7.06473     71.4 1.773e+04 1.172e-08
  7.08438     71.7 1.720e+04 1.034e-08
  7.10403     72.4 1.628e+04 7.275e-09
  7.12368     72.6 1.531e+04 4.438e-09
  7.14333     72.3 1.448e+04 2.623e-09
  7.16298     71.7 1.378e+04 1.799e-09
  7.18263     71.6 1.340e+04 1.675e-09
  7.20228     72.0 1.331e+04 1.671e-09
  7.21468     73.0 1.329e+04 1.692e-09
  7.22451     72.3 1.290e+04 1.433e-09
  7.24157     73.5 1.290e+04 1.466e-09
  7.26122     74.5 1.303e+04 1.523e-09
  7.28078     75.5 1.317e+04 1.509e-09
  7.30043     76.5 1.340e+04 1.685e-09
  7.32017     77.2 1.343e+04 1.627e-09
  7.33982     77.8 1.344e+04 1.460e-09
  7.35947     78.1 1.332e+04 1.243e-09
  7.37912     78.0 1.311e+04 1.013e-09
  7.40869     77.7 1.302e+04 1.014e-09
  7.44809     77.8 1.310e+04 1.080e-09
  7.48739     78.1 1.321e+04 1.281e-09
  7.52668     78.4 1.323e+04 1.404e-09
  7.56598     78.8 1.308e+04 1.322e-09
  7.60528     79.3 1.260e+04 1.032e-09
  7.64458     80.1 1.205e+04 6.856e-10
  7.68388     80.7 1.152e+04 4.408e-10
  7.72318     81.1 1.110e+04 3.335e-10
  7.75991     81.9 1.074e+04 2.548e-10
  7.77956     81.4 1.059e+04 2.603e-10
  7.80177     83.0 1.050e+04 2.367e-10
  7.84107     84.6 1.047e+04 2.106e-10
  7.88037     86.1 1.049e+04 1.853e-10
  7.91967     87.4 1.050e+04 1.690e-10
  7.95897     88.8 1.050e+04 1.670e-10
  7.99827     90.2 1.051e+04 1.691e-10
  8.03757     91.6 1.055e+04 1.828e-10
  8.07686     92.9 1.064e+04 2.270e-10
  8.11616     94.1 1.080e+04 3.226e-10
  8.15546     95.1 1.115e+04 5.145e-10
  8.19476     96.2 1.157e+04 8.035e-10
  8.23406     96.8 1.194e+04 1.102e-09
  8.25849     96.9 1.204e+04 1.162e-09
  8.26597     96.5 1.220e+04 1.280e-09
  8.28083     96.5 1.211e+04 1.203e-09
  8.31266     96.5 1.207e+04 1.186e-09
  8.35195     96.6 1.186e+04 1.062e-09
  8.39125     97.0 1.163e+04 9.352e-10
  8.43055     97.5 1.141e+04 8.343e-10
  8.46985     98.3 1.118e+04 7.373e-10
  8.50915     99.4 1.094e+04 6.368e-10
  8.54845    100.9 1.069e+04 5.272e-10
  8.58774    102.5 1.042e+04 4.160e-10
  8.62704    104.2 1.015e+04 3.170e-10
  8.66634    105.9 9.908e+03 2.420e-10
  8.70564    107.7 9.721e+03 1.933e-10
  8.73743    109.5 9.576e+03 1.641e-10
  8.75708    109.1 9.374e+03 1.289e-10
  8.77943    111.0 9.248e+03 1.119e-10
  8.79907    110.7 9.166e+03 1.008e-10
  8.82354    112.8 9.049e+03 8.978e-11
  8.86283    115.0 8.935e+03 7.849e-11
  8.90213    117.1 8.832e+03 6.733e-11
  8.94143    119.1 8.755e+03 5.715e-11
  8.98073    121.1 8.692e+03 4.892e-11
  9.02003    123.1 8.611e+03 4.339e-11
  9.05933    125.0 8.487e+03 4.115e-11
  9.09863    127.0 8.433e+03 4.132e-11
  9.13792    129.1 8.415e+03 4.193e-11
  9.17722    131.1 8.373e+03 4.451e-11
  9.21637    133.1 8.335e+03 5.069e-11
  9.25566    134.7 8.302e+03 6.181e-11
  9.29512    136.8 8.342e+03 8.296e-11
  9.31732    138.8 8.483e+03 1.169e-10
  9.33696    138.5 8.532e+03 1.227e-10
  9.37372    140.4 8.734e+03 1.692e-10
  9.41301    142.0 8.984e+03 2.303e-10
  9.45231    143.5 9.209e+03 2.967e-10
  9.49161    144.7 9.342e+03 3.427e-10
  9.53091    145.7 9.354e+03 3.451e-10
  9.57021    146.7 9.309e+03 3.357e-10
  9.60951    147.8 9.169e+03 3.139e-10
  9.64881    149.0 9.076e+03 3.054e-10
  9.68810    150.4 9.090e+03 3.099e-10
  9.71495    151.8 9.198e+03 3.383e-10
  9.73460    150.8 9.118e+03 3.186e-10
  9.76670    152.0 9.284e+03 3.605e-10
  9.80600    152.6 9.397e+03 4.032e-10
  9.83538    153.3 9.472e+03 4.522e-10
  9.85493    153.2 9.500e+03 4.846e-10
  9.87458    153.8 9.658e+03 5.644e-10
  9.89423    154.3 9.819e+03 6.467e-10
  9.91387    154.6 9.940e+03 7.104e-10
  9.93352    154.8 1.003e+04 7.539e-10
  9.95317    155.1 1.012e+04 7.814e-10
  9.96405    155.2 1.022e+04 7.992e-10
  9.97387    154.7 1.025e+04 7.923e-10
  9.99247    154.5 1.036e+04 7.982e-10
 10.01212    154.1 1.050e+04 8.146e-10
 10.03177    153.3 1.074e+04 8.618e-10
 10.05142    152.2 1.101e+04 9.519e-10
 10.07107    150.8 1.137e+04 1.102e-09
 10.09072    149.1 1.189e+04 1.377e-09
 10.10431    147.2 1.251e+04 1.789e-09
 10.11413    145.1 1.257e+04 1.924e-09
 10.13002    143.3 1.299e+04 2.192e-09
 10.14967    141.2 1.303e+04 2.174e-09
 10.16932    138.8 1.299e+04 2.005e-09
 10.18896    136.0 1.271e+04 1.594e-09
 10.20352    132.4 1.230e+04 1.145e-09
 10.21334    131.6 1.265e+04 1.240e-09
 10.22826    127.0 1.207e+04 9.602e-10
 10.24791    122.2 1.181e+04 9.618e-10
 10.26756    118.2 1.177e+04 1.029e-09
 10.28721    115.1 1.191e+04 1.227e-09
 10.30686    112.6 1.223e+04 1.479e-09
 10.32651    110.1 1.261e+04 1.710e-09
 10.34616    107.4 1.297e+04 1.818e-09
 10.36343    104.3 1.303e+04 1.806e-09
 10.37325    104.9 1.335e+04 2.021e-09
 10.38546    101.6 1.333e+04 1.954e-09
 10.40511     98.5 1.310e+04 1.659e-09
 10.42476     95.3 1.270e+04 1.198e-09
 10.44298     91.6 1.224e+04 8.204e-10
 10.45281     92.8 1.198e+04 7.528e-10
 10.46405     89.0 1.174e+04 6.659e-10
 10.48370     85.2 1.176e+04 6.792e-10
 10.50335     81.2 1.197e+04 7.790e-10
 10.52300     77.3 1.260e+04 1.138e-09
 10.54265     74.1 1.336e+04 1.823e-09
 10.56230     71.8 1.395e+04 2.653e-09
 10.58195     70.1 1.427e+04 3.035e-09
 10.60160     68.3 1.425e+04 2.988e-09
 10.62125     66.5 1.400e+04 2.705e-09
 10.63237     64.6 1.348e+04 2.299e-09
 10.64220     64.3 1.361e+04 2.405e-09
 10.66055     62.6 1.311e+04 2.154e-09
 10.68020     61.3 1.279e+04 2.038e-09
 10.69228     60.6 1.269e+04 2.019e-09
 10.70210     62.1 1.250e+04 1.985e-09
 10.71949     61.6 1.244e+04 1.985e-09
 10.73914     61.3 1.243e+04 1.980e-09
 10.75879     61.1 1.242e+04 1.943e-09
 10.77844     60.9 1.241e+04 1.854e-09
 10.79809     60.6 1.240e+04 1.733e-09
 10.81774     60.2 1.229e+04 1.574e-09
 10.83739     59.8 1.217e+04 1.416e-09
 10.85704     59.8 1.191e+04 1.230e-09
 10.87669     59.7 1.179e+04 1.148e-09
 10.89159     60.5 1.153e+04 1.001e-09
 10.91134     60.1 1.143e+04 8.174e-10
 10.94566     60.4 1.085e+04 4.954e-10
 10.98496     60.9 1.029e+04 2.855e-10
 11.02425     61.5 9.855e+03 1.768e-10
 11.06355     62.5 9.596e+03 1.386e-10
 11.10285     63.9 9.540e+03 1.372e-10
 11.14215     65.7 9.561e+03 1.402e-10
 11.17141     67.5 9.678e+03 1.538e-10
 11.19106     67.5 9.588e+03 1.298e-10
 11.22075     69.2 9.734e+03 1.501e-10
 11.26004     70.9 9.944e+03 1.810e-10
 11.29934     72.6 1.020e+04 2.168e-10
 11.33864     74.1 1.043e+04 2.462e-10
 11.37794     75.4 1.059e+04 2.641e-10
 11.40993     76.4 1.066e+04 2.723e-10
 11.42958     76.8 1.054e+04 2.405e-10
 11.45654     77.2 1.068e+04 2.559e-10
 11.48591     76.9 1.072e+04 2.641e-10
 11.50547     76.2 1.085e+04 2.955e-10
 11.52511     75.0 1.107e+04 4.078e-10
 11.54476     72.9 1.171e+04 6.918e-10
 11.56441     69.3 1.333e+04 1.392e-09
 11.58406     64.9 1.520e+04 2.746e-09
 11.60371     60.7 1.604e+04 4.353e-09
 11.62336     57.2 1.585e+04 4.725e-09
 11.64301     54.6 1.537e+04 4.444e-09
 11.65997     52.8 1.450e+04 3.505e-09
 11.66980     53.8 1.403e+04 2.891e-09
 11.67868     52.4 1.339e+04 2.399e-09
 11.68850     52.1 1.313e+04 2.023e-09
 11.70196     51.0 1.266e+04 1.678e-09
 11.72161     50.3 1.238e+04 1.526e-09
 11.74126     50.0 1.220e+04 1.438e-09
 11.76091     49.8 1.223e+04 1.458e-09
 11.78055     49.1 1.265e+04 1.618e-09
 11.80020     47.4 1.378e+04 2.195e-09
 11.81985     45.1 1.496e+04 3.581e-09
 11.83950     43.8 1.566e+04 5.853e-09
 11.85915     44.0 1.606e+04 8.476e-09
 11.87880     44.3 1.627e+04 9.353e-09
 11.89845     44.9 1.620e+04 8.863e-09
 11.90927     45.7 1.603e+04 6.775e-09
 11.91909     45.1 1.547e+04 4.033e-09
 11.93775     43.2 1.501e+04 2.206e-09
 11.95740     34.4 1.125e+04 5.496e-10
 11.97705     31.7 9.684e+03 4.125e-10
 11.99670     31.3 9.425e+03 3.826e-10
 12.01635     31.3 9.363e+03 3.713e-10
 12.03600     31.2 9.352e+03 3.576e-10
 12.05564     31.0 9.332e+03 3.484e-10
 12.08522     30.9 9.241e+03 3.192e-10
 12.12461     31.1 8.924e+03 2.525e-10
 12.14893     30.7 8.609e+03 1.881e-10
 12.16858     30.9 8.712e+03 2.000e-10
 12.20321     29.9 8.713e+03 1.851e-10
 12.24251     28.4 8.816e+03 1.975e-10
 12.28181     26.8 9.139e+03 2.568e-10
 12.32110     25.5 9.536e+03 3.592e-10
 12.35048     24.6 9.738e+03 4.402e-10
 12.37003     23.9 9.966e+03 5.421e-10
 12.38820     23.4 1.018e+04 6.494e-10
 12.39803     23.7 1.009e+04 6.369e-10
 12.40933     23.7 1.019e+04 6.975e-10
 12.42898     23.8 1.024e+04 7.243e-10
 12.44863     23.8 1.032e+04 7.154e-10
 12.46586     23.8 1.041e+04 6.975e-10
 12.47569     23.6 1.043e+04 6.883e-10
 12.48793     23.3 1.057e+04 6.912e-10
 12.50758     22.7 1.072e+04 7.184e-10
 12.52723     22.3 1.086e+04 7.692e-10
 12.54688     22.2 1.096e+04 8.275e-10
 12.56653     22.2 1.102e+04 8.661e-10
 12.59610     21.8 1.124e+04 9.254e-10
 12.62787     21.7 1.133e+04 8.790e-10
 12.64751     24.3 1.109e+04 8.368e-10
 12.66487     24.3 1.134e+04 9.337e-10
 12.68442     24.4 1.155e+04 9.853e-10
 12.70407     24.4 1.172e+04 1.035e-09
 12.72372     24.2 1.186e+04 1.079e-09
 12.73481     23.9 1.186e+04 1.076e-09
 12.74463     23.3 1.177e+04 1.050e-09
 12.76302     23.2 1.144e+04 9.695e-10
 12.78267     23.1 1.104e+04 8.544e-10
 12.80232     22.8 1.074e+04 7.204e-10
 12.82197     21.9 1.062e+04 5.995e-10
 12.84162     20.1 1.056e+04 5.448e-10
 12.86126     18.0 1.031e+04 5.489e-10
 12.87696     16.7 1.005e+04 5.825e-10
 12.88679     19.1 1.050e+04 6.070e-10
 12.90056     17.6 1.006e+04 6.230e-10
 12.92021     16.7 9.946e+03 6.557e-10
 12.93986     16.0 9.993e+03 6.953e-10
 12.95951     15.1 1.017e+04 7.406e-10
 12.97916     13.8 1.049e+04 8.086e-10
 12.99393      8.7 1.256e+04 1.196e-09
 13.00375      9.6 1.214e+04 1.161e-09
 13.01846      1.2 1.468e+04 2.516e-09
 13.03811     -0.6 1.409e+04 4.035e-09
 13.05776     -1.4 1.376e+04 4.115e-09
 13.07741     -1.8 1.340e+04 3.495e-09
 13.09706     -5.5 1.476e+04 2.581e-09
 13.11643    -15.3 1.418e+04 1.001e-09
 13.12626    -11.5 1.543e+04 1.461e-09
