# Columns:
#   distance along LOS (in CHIMPs)
#   peculiar velocity  (in km/s)
#   temperature (K)
#   HI number density
# pos=(49.8122,104.158,59.0365), angles=(1.36135,3.10259)
  0.00502   -191.7 2.368e+04 2.192e-07
  0.01484   -190.7 2.557e+04 1.206e-07
  0.01984   -191.5 2.749e+04 8.572e-08
  0.02504   -191.2 2.943e+04 4.345e-08
  0.03503   -191.6 3.009e+04 2.124e-08
  0.04502   -194.1 2.794e+04 1.044e-08
  0.05501   -197.1 2.244e+04 5.534e-09
  0.06330   -199.1 1.712e+04 3.489e-09
  0.06830   -200.2 1.548e+04 3.188e-09
  0.07499   -200.2 1.484e+04 2.592e-09
  0.08498   -199.5 1.465e+04 2.275e-09
  0.10002   -198.9 1.424e+04 1.933e-09
  0.12005   -197.5 1.312e+04 1.209e-09
  0.14003   -195.9 1.169e+04 6.947e-10
  0.15533   -194.5 1.087e+04 4.632e-10
  0.16532   -194.4 1.102e+04 5.022e-10
  0.18000   -192.7 1.057e+04 3.505e-10
  0.19998   -191.2 1.030e+04 2.816e-10
  0.23006   -190.0 1.023e+04 2.535e-10
  0.27012   -188.1 9.922e+03 2.113e-10
  0.31008   -185.0 9.487e+03 1.714e-10
  0.33939   -181.6 9.249e+03 1.505e-10
  0.35937   -180.4 9.197e+03 1.490e-10
  0.37308   -177.1 9.145e+03 1.424e-10
  0.39306   -177.3 9.291e+03 1.480e-10
  0.42998   -174.2 9.277e+03 1.465e-10
  0.46995   -171.3 9.310e+03 1.489e-10
  0.50991   -168.8 9.482e+03 1.756e-10
  0.53324   -166.4 9.688e+03 2.268e-10
  0.55322   -164.9 9.621e+03 2.041e-10
  0.58984   -162.5 9.847e+03 2.700e-10
  0.62981   -160.0 1.006e+04 3.463e-10
  0.66977   -157.7 1.022e+04 4.123e-10
  0.70710   -155.6 1.034e+04 4.579e-10
  0.72709   -153.9 1.039e+04 4.848e-10
  0.74971   -151.9 1.050e+04 5.289e-10
  0.78967   -150.0 1.059e+04 5.470e-10
  0.82964   -148.5 1.066e+04 5.521e-10
  0.86960   -147.2 1.077e+04 5.626e-10
  0.89948   -145.8 1.063e+04 5.643e-10
  0.91075   -145.3 1.058e+04 6.007e-10
  0.92074   -144.0 1.057e+04 5.499e-10
  0.93935   -143.5 1.045e+04 5.503e-10
  0.95933   -142.7 1.039e+04 5.734e-10
  0.97931   -141.9 1.033e+04 5.971e-10
  0.99769   -141.0 1.029e+04 6.110e-10
  1.00768   -140.2 1.022e+04 5.325e-10
  1.01928   -139.4 1.016e+04 5.457e-10
  1.03926   -138.6 1.012e+04 5.564e-10
  1.05924   -137.8 1.009e+04 5.620e-10
  1.07923   -137.0 9.981e+03 5.595e-10
  1.09461   -136.2 9.970e+03 5.459e-10
  1.10460   -135.7 1.005e+04 5.361e-10
  1.11919   -135.1 1.004e+04 5.405e-10
  1.13918   -134.4 1.007e+04 5.412e-10
  1.15916   -133.7 1.010e+04 5.448e-10
  1.17914   -133.0 1.012e+04 5.492e-10
  1.19154   -132.2 1.012e+04 5.531e-10
  1.20153   -132.1 1.017e+04 5.538e-10
  1.21911   -131.3 1.016e+04 5.572e-10
  1.23909   -130.5 1.016e+04 5.608e-10
  1.25907   -129.6 1.016e+04 5.659e-10
  1.27847   -128.7 1.017e+04 5.716e-10
  1.28846   -128.7 1.019e+04 5.769e-10
  1.29904   -127.8 1.019e+04 5.829e-10
  1.31902   -126.8 1.019e+04 5.865e-10
  1.33900   -125.9 1.019e+04 5.880e-10
  1.35899   -124.9 1.017e+04 5.895e-10
  1.37540   -124.0 1.016e+04 5.919e-10
  1.38539   -124.0 1.015e+04 5.878e-10
  1.39455   -123.1 1.013e+04 5.821e-10
  1.40454   -122.9 1.023e+04 6.060e-10
  1.41894   -122.0 1.026e+04 6.190e-10
  1.43892   -121.0 1.031e+04 6.363e-10
  1.45890   -120.1 1.038e+04 6.619e-10
  1.47232   -119.1 1.048e+04 6.966e-10
  1.48231   -119.3 1.042e+04 6.703e-10
  1.49887   -118.3 1.053e+04 7.126e-10
  1.51885   -117.4 1.066e+04 7.679e-10
  1.53883   -116.5 1.079e+04 8.332e-10
  1.55881   -115.6 1.094e+04 9.029e-10
  1.56925   -114.7 1.108e+04 9.762e-10
  1.57924   -114.8 1.105e+04 9.601e-10
  1.59878   -113.9 1.116e+04 1.016e-09
  1.61876   -113.0 1.127e+04 1.072e-09
  1.63875   -112.3 1.132e+04 1.101e-09
  1.65628   -110.9 1.141e+04 1.148e-09
  1.67636   -111.0 1.139e+04 1.145e-09
  1.70888   -109.2 1.141e+04 1.155e-09
  1.74885   -107.2 1.137e+04 1.120e-09
  1.78881   -105.2 1.126e+04 1.025e-09
  1.82878   -103.4 1.113e+04 9.091e-10
  1.85023   -101.7 1.098e+04 7.900e-10
  1.87021   -101.9 1.139e+04 9.702e-10
  1.90871   -100.4 1.132e+04 8.994e-10
  1.94868    -99.3 1.118e+04 8.301e-10
  1.98864    -98.4 1.102e+04 7.698e-10
  2.02409    -97.7 1.089e+04 7.260e-10
  2.04398    -98.0 1.152e+04 1.067e-09
  2.05839    -97.6 1.135e+04 9.321e-10
  2.07837    -97.6 1.136e+04 9.209e-10
  2.10844    -98.1 1.198e+04 1.181e-09
  2.14850    -97.6 1.176e+04 1.138e-09
  2.18847    -96.7 1.140e+04 1.032e-09
  2.21794    -95.4 1.091e+04 8.857e-10
  2.23793    -96.2 1.170e+04 1.256e-09
  2.26840    -94.5 1.107e+04 9.753e-10
  2.30837    -92.6 1.060e+04 7.657e-10
  2.34833    -90.6 1.019e+04 6.063e-10
  2.38830    -88.8 9.936e+03 4.964e-10
  2.41180    -87.0 9.747e+03 4.108e-10
  2.41993    -87.0 1.010e+04 5.539e-10
  2.43640    -86.2 9.473e+03 3.420e-10
  2.46823    -84.4 9.224e+03 2.582e-10
  2.50819    -82.6 8.998e+03 1.969e-10
  2.54816    -80.9 8.739e+03 1.533e-10
  2.58566    -79.4 8.430e+03 1.249e-10
  2.60565    -79.1 1.025e+04 2.313e-10
  2.62809    -77.9 1.019e+04 2.143e-10
  2.66806    -76.9 9.864e+03 2.131e-10
  2.70802    -75.9 9.501e+03 2.304e-10
  2.74799    -74.9 9.605e+03 2.770e-10
  2.77951    -73.6 9.887e+03 3.592e-10
  2.79950    -74.1 1.146e+04 1.006e-09
  2.82792    -72.4 1.165e+04 1.202e-09
  2.86788    -71.0 1.191e+04 1.472e-09
  2.89776    -70.4 1.247e+04 2.094e-09
  2.91765    -70.9 1.322e+04 2.607e-09
  2.93205    -72.4 1.466e+04 3.967e-09
  2.94204    -70.5 1.309e+04 2.487e-09
  2.95761    -71.4 1.442e+04 3.495e-09
  2.97317    -72.3 1.566e+04 4.947e-09
  2.98316    -73.0 1.600e+04 5.398e-09
  2.99758    -73.9 1.674e+04 7.021e-09
  3.01756    -74.5 1.689e+04 7.537e-09
  3.03754    -75.0 1.669e+04 7.267e-09
  3.05753    -75.3 1.574e+04 5.363e-09
  3.07009    -76.4 1.464e+04 3.702e-09
  3.08009    -76.0 1.483e+04 3.422e-09
  3.09749    -78.0 1.375e+04 2.161e-09
  3.11747    -79.6 1.311e+04 1.605e-09
  3.13746    -80.7 1.294e+04 1.384e-09
  3.15703    -81.5 1.293e+04 1.269e-09
  3.16702    -82.1 1.198e+04 8.038e-10
  3.17742    -82.5 1.190e+04 7.507e-10
  3.19741    -82.9 1.183e+04 7.108e-10
  3.21739    -83.1 1.176e+04 7.045e-10
  3.23737    -83.0 1.169e+04 7.157e-10
  3.25395    -82.5 1.148e+04 7.213e-10
  3.26395    -81.8 1.121e+04 6.036e-10
  3.27734    -80.9 1.100e+04 5.721e-10
  3.29732    -79.9 1.082e+04 5.083e-10
  3.31730    -79.1 1.070e+04 4.389e-10
  3.33729    -78.4 1.064e+04 3.917e-10
  3.35088    -78.0 1.060e+04 3.637e-10
  3.36097    -77.9 1.060e+04 3.674e-10
  3.38744    -76.6 1.040e+04 2.961e-10
  3.42740    -75.2 1.010e+04 2.347e-10
  3.44808    -73.6 9.808e+03 1.962e-10
  3.46806    -72.7 9.661e+03 1.592e-10
  3.50734    -71.1 9.570e+03 1.683e-10
  3.53493    -69.4 9.550e+03 1.923e-10
  3.55492    -67.9 9.363e+03 1.059e-10
  3.58727    -66.5 9.459e+03 1.478e-10
  3.62723    -65.1 9.592e+03 2.108e-10
  3.66720    -63.9 9.811e+03 2.785e-10
  3.70716    -62.9 1.007e+04 3.294e-10
  3.72878    -62.5 1.059e+04 4.394e-10
  3.74877    -61.0 1.071e+04 5.072e-10
  3.78709    -60.4 1.125e+04 6.906e-10
  3.82706    -60.1 1.155e+04 8.088e-10
  3.86703    -60.2 1.169e+04 9.004e-10
  3.90265    -60.0 1.174e+04 9.847e-10
  3.92264    -58.3 1.152e+04 8.090e-10
  3.94696    -58.1 1.139e+04 7.822e-10
  3.97683    -57.6 1.157e+04 8.603e-10
  3.99672    -57.5 1.139e+04 8.306e-10
  4.00937    -57.1 1.107e+04 7.652e-10
  4.01937    -56.5 1.107e+04 7.075e-10
  4.03668    -55.9 1.082e+04 6.390e-10
  4.05667    -55.2 1.061e+04 5.477e-10
  4.07665    -54.7 1.045e+04 4.552e-10
  4.09631    -54.3 1.030e+04 3.866e-10
  4.10630    -53.7 1.040e+04 4.040e-10
  4.11662    -53.3 1.028e+04 3.677e-10
  4.13660    -52.7 1.020e+04 3.523e-10
  4.15658    -52.1 1.013e+04 3.495e-10
  4.17656    -51.2 1.012e+04 3.724e-10
  4.19323    -50.4 1.009e+04 3.966e-10
  4.20322    -50.2 1.023e+04 4.288e-10
  4.22662    -49.2 1.017e+04 4.432e-10
  4.26668    -47.0 1.019e+04 4.721e-10
  4.29035    -44.9 1.017e+04 4.750e-10
  4.31034    -44.1 1.035e+04 5.926e-10
  4.34661    -41.5 1.015e+04 5.179e-10
  4.38658    -39.0 1.007e+04 4.556e-10
  4.42654    -37.2 9.928e+03 4.129e-10
  4.45642    -34.6 9.893e+03 3.951e-10
  4.46955    -33.9 9.871e+03 3.949e-10
  4.47726    -33.3 9.959e+03 4.096e-10
  4.48411    -32.5 9.886e+03 3.681e-10
  4.50648    -30.0 9.841e+03 3.614e-10
  4.53635    -28.5 9.953e+03 4.139e-10
  4.55624    -27.6 9.897e+03 4.377e-10
  4.57094    -26.0 9.938e+03 4.893e-10
  4.58093    -25.1 9.783e+03 3.792e-10
  4.59620    -24.3 9.752e+03 4.063e-10
  4.61619    -22.6 9.879e+03 4.712e-10
  4.63617    -22.0 1.026e+04 5.304e-10
  4.65615    -23.9 1.297e+04 1.024e-09
  4.66787    -26.6 1.571e+04 2.533e-09
  4.67786    -23.0 1.378e+04 1.072e-09
  4.69612    -26.1 1.640e+04 2.937e-09
  4.71106    -26.7 1.655e+04 4.739e-09
  4.71623    -27.6 1.672e+04 6.714e-09
  4.72123    -26.7 1.704e+04 5.514e-09
  4.72737    -26.7 1.704e+04 9.236e-09
  4.73237    -27.2 1.703e+04 1.135e-08
  4.74098    -26.8 1.720e+04 1.425e-08
  4.75097    -25.7 1.798e+04 1.652e-08
  4.75970    -24.8 1.909e+04 1.695e-08
  4.76470    -24.2 1.794e+04 1.837e-08
  4.77096    -23.1 1.879e+04 1.922e-08
  4.78095    -22.8 1.909e+04 1.787e-08
  4.79598    -21.6 2.016e+04 1.713e-08
  4.81601    -22.7 2.239e+04 7.936e-09
  4.83600    -27.6 1.942e+04 2.145e-09
  4.85173    -32.6 1.174e+04 8.548e-10
  4.86172    -26.0 2.001e+04 1.862e-09
  4.87596    -30.9 1.145e+04 8.023e-10
  4.89595    -31.0 1.009e+04 6.442e-10
  4.91593    -30.1 9.928e+03 5.500e-10
  4.93591    -28.8 9.944e+03 5.210e-10
  4.94865    -28.4 9.826e+03 4.796e-10
  4.95864    -28.3 9.816e+03 4.785e-10
  4.98597    -27.4 9.498e+03 4.003e-10
  5.02579    -26.6 9.454e+03 4.008e-10
  5.04577    -25.6 9.460e+03 2.738e-10
  5.06600    -25.3 9.484e+03 2.986e-10
  5.10596    -25.2 9.922e+03 4.361e-10
  5.14593    -25.0 1.040e+04 5.854e-10
  5.18589    -26.0 1.098e+04 7.105e-10
  5.21964    -28.4 1.143e+04 8.439e-10
  5.23962    -27.5 9.996e+03 3.339e-10
  5.26582    -30.0 1.035e+04 4.610e-10
  5.30579    -32.1 1.058e+04 6.449e-10
  5.34575    -33.8 1.073e+04 7.361e-10
  5.37563    -34.6 1.071e+04 7.663e-10
  5.39552    -35.2 1.069e+04 7.722e-10
  5.41330    -36.3 1.057e+04 7.703e-10
  5.42329    -35.2 1.074e+04 8.319e-10
  5.43548    -36.1 1.074e+04 8.688e-10
  5.45546    -37.2 1.070e+04 8.707e-10
  5.47545    -38.3 1.063e+04 8.262e-10
  5.49122    -39.8 1.050e+04 7.465e-10
  5.50121    -38.8 1.052e+04 7.734e-10
  5.51022    -40.5 1.041e+04 6.944e-10
  5.52021    -39.7 1.142e+04 1.011e-09
  5.53540    -42.3 1.127e+04 8.938e-10
  5.55538    -45.2 1.109e+04 7.978e-10
  5.57536    -47.7 1.100e+04 7.960e-10
  5.59534    -49.2 1.093e+04 8.726e-10
  5.60715    -49.7 1.091e+04 9.765e-10
  5.61714    -50.0 1.185e+04 1.371e-09
  5.63531    -50.1 1.173e+04 1.390e-09
  5.65529    -49.9 1.159e+04 1.334e-09
  5.67528    -49.7 1.137e+04 1.185e-09
  5.69408    -49.6 1.103e+04 9.940e-10
  5.70407    -49.8 1.182e+04 1.287e-09
  5.71524    -49.6 1.137e+04 1.044e-09
  5.73522    -49.1 1.090e+04 8.412e-10
  5.75521    -48.7 1.045e+04 6.797e-10
  5.77519    -48.2 1.010e+04 5.603e-10
  5.79101    -47.6 9.837e+03 4.718e-10
  5.80100    -48.1 1.086e+04 7.062e-10
  5.81516    -47.6 1.047e+04 6.074e-10
  5.83514    -47.0 1.018e+04 5.468e-10
  5.85512    -46.2 1.001e+04 5.190e-10
  5.87510    -45.2 9.970e+03 5.136e-10
  5.88793    -44.0 9.979e+03 5.166e-10
  5.89792    -44.2 1.018e+04 6.565e-10
  5.91507    -43.0 1.013e+04 6.505e-10
  5.93505    -41.6 1.011e+04 6.547e-10
  5.95504    -40.4 1.017e+04 6.756e-10
  5.97487    -39.2 1.022e+04 6.939e-10
  5.98486    -39.2 1.044e+04 7.544e-10
  5.99500    -37.8 1.046e+04 7.540e-10
  6.00705    -36.6 1.058e+04 7.778e-10
  6.01704    -35.9 1.061e+04 7.851e-10
  6.03497    -34.9 1.077e+04 8.257e-10
  6.05495    -34.0 1.082e+04 8.481e-10
  6.07179    -32.9 1.088e+04 8.745e-10
  6.08178    -33.0 1.095e+04 8.779e-10
  6.09491    -32.1 1.113e+04 9.308e-10
  6.11490    -31.9 1.122e+04 9.632e-10
  6.13488    -32.4 1.174e+04 1.121e-09
  6.15486    -33.9 1.283e+04 1.467e-09
  6.16872    -35.7 1.452e+04 2.249e-09
  6.17871    -38.9 1.663e+04 4.057e-09
  6.19483    -39.4 1.683e+04 5.818e-09
  6.21481    -39.1 1.646e+04 6.862e-09
  6.23479    -38.6 1.612e+04 7.152e-09
  6.25478    -37.8 1.521e+04 6.640e-09
  6.26564    -36.7 1.423e+04 5.159e-09
  6.27563    -36.3 1.363e+04 4.285e-09
  6.29474    -35.4 1.295e+04 2.964e-09
  6.31473    -34.9 1.248e+04 2.018e-09
  6.33471    -34.7 1.184e+04 1.318e-09
  6.35258    -34.7 1.113e+04 8.915e-10
  6.36257    -36.5 1.020e+04 5.220e-10
  6.38476    -36.0 9.243e+03 3.444e-10
  6.42483    -33.1 8.736e+03 2.638e-10
  6.46479    -29.7 8.315e+03 1.975e-10
  6.50309    -27.1 8.166e+03 1.617e-10
  6.52308    -27.1 8.250e+03 1.712e-10
  6.53663    -24.6 8.053e+03 1.410e-10
  6.55661    -25.1 7.906e+03 1.286e-10
  6.58469    -22.5 7.879e+03 1.199e-10
  6.62465    -20.0 7.885e+03 1.181e-10
  6.66462    -17.7 7.978e+03 1.217e-10
  6.70459    -15.7 8.135e+03 1.362e-10
  6.73048    -13.8 8.339e+03 1.624e-10
  6.75046    -14.6 8.616e+03 2.195e-10
  6.78452    -12.7 8.806e+03 2.694e-10
  6.82448    -10.5 8.909e+03 3.047e-10
  6.86445     -8.3 8.919e+03 3.141e-10
  6.90435     -6.3 8.919e+03 3.047e-10
  6.94432     -5.0 8.783e+03 2.615e-10
  6.98435     -3.5 8.809e+03 2.430e-10
  7.02431     -2.1 8.965e+03 2.541e-10
  7.06428     -0.8 9.234e+03 2.946e-10
  7.09820      0.5 9.467e+03 3.565e-10
  7.11818      0.0 9.454e+03 3.999e-10
  7.14421      2.0 9.613e+03 4.309e-10
  7.18417      3.7 9.636e+03 3.865e-10
  7.22414      5.0 9.625e+03 3.334e-10
  7.26411      5.9 9.767e+03 3.220e-10
  7.29205      6.6 9.908e+03 3.547e-10
  7.31203      5.8 9.755e+03 2.781e-10
  7.34404      6.5 9.942e+03 3.410e-10
  7.37391      7.2 1.007e+04 3.941e-10
  7.38878      7.5 1.019e+04 4.208e-10
  7.39877      7.3 1.016e+04 4.492e-10
  7.41378      7.8 1.012e+04 4.964e-10
  7.43376      8.3 1.016e+04 5.195e-10
  7.45375      8.6 1.031e+04 5.247e-10
  7.47373      8.7 1.030e+04 5.134e-10
  7.48580      9.0 1.046e+04 4.984e-10
  7.50588      7.9 1.122e+04 6.868e-10
  7.53476      7.4 1.129e+04 8.767e-10
  7.55474      7.0 1.126e+04 8.517e-10
  7.58383      7.6 1.106e+04 9.084e-10
  7.62380      9.0 1.077e+04 7.819e-10
  7.65977     10.1 1.045e+04 5.320e-10
  7.67975      8.9 1.036e+04 4.386e-10
  7.70373      8.4 1.007e+04 3.146e-10
  7.74369      7.8 1.025e+04 2.990e-10
  7.78366      7.0 1.033e+04 3.979e-10
  7.82362      7.4 1.028e+04 4.569e-10
  7.85362      7.7 1.018e+04 4.280e-10
  7.87360      7.8 9.990e+03 3.482e-10
  7.90356      8.1 9.736e+03 2.998e-10
  7.94352      9.0 9.233e+03 2.430e-10
  7.98349     10.4 8.951e+03 1.714e-10
  8.02345     11.3 8.854e+03 1.236e-10
  8.04747     12.4 8.691e+03 1.020e-10
  8.06745     12.9 8.626e+03 9.261e-11
  8.10338     14.5 8.550e+03 8.338e-11
  8.14335     16.1 8.618e+03 7.725e-11
  8.18331     17.0 8.786e+03 7.931e-11
  8.22134     17.2 9.230e+03 1.161e-10
  8.24132     17.6 8.994e+03 8.147e-11
  8.26325     17.9 9.468e+03 1.517e-10
  8.30321     18.5 9.806e+03 2.597e-10
  8.34318     18.8 1.002e+04 3.705e-10
  8.37305     18.8 9.926e+03 4.176e-10
  8.39294     18.5 1.019e+04 4.818e-10
  8.41292     18.0 1.050e+04 5.575e-10
  8.42499     17.0 1.069e+04 6.335e-10
  8.43498     17.7 1.041e+04 5.272e-10
  8.46298     17.5 1.046e+04 5.769e-10
  8.50304     17.0 1.024e+04 5.650e-10
  8.54301     16.4 9.906e+03 5.382e-10
  8.56642     15.0 1.031e+04 6.042e-10
  8.58640     15.1 9.928e+03 4.357e-10
  8.60894     13.5 1.065e+04 6.435e-10
  8.61884     13.7 1.085e+04 7.998e-10
  8.63273     13.0 1.116e+04 9.630e-10
  8.65272     12.6 1.135e+04 1.114e-09
  8.67270     12.6 1.153e+04 1.283e-09
  8.69268      9.6 1.433e+04 2.138e-09
  8.70577      4.1 1.784e+04 4.958e-09
  8.71576      5.1 1.892e+04 3.661e-09
  8.73265     -0.4 2.060e+04 1.076e-08
  8.74759     -1.5 1.924e+04 2.182e-08
  8.75414     -1.9 1.944e+04 2.997e-08
  8.75913     -3.2 2.014e+04 3.758e-08
  8.76752     -2.5 2.037e+04 5.268e-08
  8.77751     -1.8 2.101e+04 6.471e-08
  8.78750     -1.7 2.149e+04 6.782e-08
  8.79749     -1.2 2.343e+04 4.485e-08
  8.80260     -4.6 2.668e+04 1.944e-08
  8.80759     -2.0 2.530e+04 3.802e-08
  8.81748     -7.2 2.563e+04 1.477e-08
  8.83251    -14.1 1.945e+04 7.269e-09
  8.85254    -17.1 1.485e+04 3.355e-09
  8.87253    -17.5 1.347e+04 2.177e-09
  8.88963    -17.9 1.246e+04 1.382e-09
  8.89962    -16.7 1.317e+04 1.698e-09
  8.91249    -17.7 1.231e+04 1.061e-09
  8.93248    -18.8 1.140e+04 7.022e-10
  8.95246    -19.7 1.082e+04 5.450e-10
  8.97244    -20.1 1.066e+04 4.959e-10
  8.98656    -20.4 1.065e+04 4.804e-10
  8.99655    -20.1 1.069e+04 5.390e-10
  9.01241    -20.3 1.072e+04 5.824e-10
  9.03239    -20.4 1.084e+04 6.454e-10
  9.05237    -20.5 1.096e+04 7.093e-10
  9.07206    -20.6 1.105e+04 7.698e-10
  9.08205    -21.3 1.120e+04 8.515e-10
  9.08348    -21.4 1.121e+04 9.157e-10
  9.09347    -20.7 1.138e+04 9.772e-10
  9.11232    -20.8 1.136e+04 9.867e-10
  9.13230    -20.6 1.115e+04 9.860e-10
  9.15229    -20.2 1.093e+04 9.197e-10
  9.17041    -19.8 1.075e+04 8.104e-10
  9.18041    -19.3 1.084e+04 7.592e-10
  9.19225    -19.2 1.065e+04 6.533e-10
  9.21223    -19.3 1.044e+04 5.761e-10
  9.23222    -19.7 1.027e+04 5.222e-10
  9.25220    -20.0 1.015e+04 4.927e-10
  9.26734    -20.0 1.015e+04 4.903e-10
  9.27733    -19.8 1.027e+04 5.357e-10
  9.29217    -19.2 1.036e+04 5.635e-10
  9.31215    -18.5 1.040e+04 5.711e-10
  9.33213    -17.7 1.037e+04 5.517e-10
  9.35211    -16.9 1.030e+04 4.991e-10
  9.36427    -16.2 1.024e+04 4.455e-10
  9.37426    -15.8 1.041e+04 4.779e-10
  9.39208    -15.4 1.029e+04 4.147e-10
  9.41206    -15.1 1.012e+04 3.729e-10
  9.43205    -14.8 1.004e+04 3.609e-10
  9.45120    -14.9 1.040e+04 3.765e-10
  9.46119    -14.1 1.026e+04 3.942e-10
  9.47201    -15.8 1.175e+04 5.259e-10
  9.49199    -20.1 1.465e+04 1.189e-09
  9.51198    -23.0 1.561e+04 2.958e-09
  9.53196    -23.3 1.585e+04 5.822e-09
  9.54812    -22.5 1.638e+04 8.720e-09
  9.55812    -21.2 1.660e+04 8.171e-09
  9.57193    -20.1 1.707e+04 1.012e-08
  9.58789    -19.6 1.732e+04 1.007e-08
  9.59788    -19.5 1.700e+04 7.904e-09
  9.61189    -21.6 1.709e+04 4.391e-09
  9.63187    -28.7 1.453e+04 1.891e-09
  9.64505    -34.1 1.148e+04 1.256e-09
  9.65504    -31.8 1.231e+04 1.452e-09
  9.67184    -34.2 1.132e+04 1.270e-09
  9.69182    -34.8 1.129e+04 1.271e-09
  9.71181    -35.2 1.126e+04 1.278e-09
  9.73179    -35.1 1.111e+04 1.232e-09
  9.74198    -35.0 1.095e+04 1.133e-09
  9.75197    -34.4 1.099e+04 1.142e-09
  9.77175    -34.2 1.080e+04 1.009e-09
  9.79174    -34.2 1.062e+04 8.741e-10
  9.81172    -34.5 1.053e+04 7.900e-10
  9.82891    -35.0 1.053e+04 7.746e-10
  9.83890    -34.1 1.054e+04 7.158e-10
  9.85168    -34.7 1.060e+04 7.135e-10
  9.87167    -35.3 1.100e+04 8.367e-10
  9.89165    -35.7 1.156e+04 1.135e-09
  9.91163    -35.8 1.232e+04 1.596e-09
  9.92583    -35.8 1.326e+04 2.272e-09
  9.93583    -34.5 1.252e+04 1.688e-09
  9.95160    -34.5 1.350e+04 2.444e-09
  9.97158    -34.3 1.445e+04 3.555e-09
  9.99156    -34.0 1.524e+04 4.749e-09
 10.01155    -33.4 1.580e+04 5.723e-09
 10.02276    -32.7 1.610e+04 6.231e-09
 10.03275    -31.5 1.626e+04 6.673e-09
 10.05151    -30.8 1.652e+04 7.147e-09
 10.07150    -30.1 1.645e+04 6.927e-09
 10.09148    -29.5 1.599e+04 5.899e-09
 10.10372    -29.0 1.528e+04 4.810e-09
 10.11194    -29.4 1.607e+04 5.889e-09
 10.11969    -27.9 1.634e+04 6.303e-09
 10.13144    -27.5 1.582e+04 5.222e-09
 10.15143    -27.2 1.522e+04 4.382e-09
 10.17141    -26.6 1.470e+04 3.825e-09
 10.19139    -25.6 1.441e+04 3.562e-09
 10.20662    -24.6 1.431e+04 3.478e-09
 10.21661    -23.6 1.433e+04 3.405e-09
 10.23136    -22.5 1.427e+04 3.358e-09
 10.25134    -21.3 1.424e+04 3.322e-09
 10.27132    -20.1 1.421e+04 3.284e-09
 10.29131    -18.7 1.416e+04 3.224e-09
 10.30354    -17.3 1.415e+04 3.185e-09
 10.31354    -16.4 1.425e+04 3.050e-09
 10.33127    -15.0 1.429e+04 3.037e-09
 10.35126    -13.8 1.430e+04 3.000e-09
 10.37124    -12.5 1.427e+04 2.973e-09
 10.39048    -11.3 1.446e+04 3.024e-09
 10.40047    -10.3 1.459e+04 2.841e-09
 10.41120     -9.2 1.497e+04 3.052e-09
 10.43119     -8.5 1.538e+04 3.407e-09
 10.45117     -8.0 1.578e+04 3.930e-09
 10.47115     -7.6 1.624e+04 4.759e-09
 10.48740     -6.8 1.669e+04 5.984e-09
