# Columns:
#   distance along LOS (in CHIMPs)
#   peculiar velocity  (in km/s)
#   temperature (K)
#   HI number density
# pos=(216.64,213.369,91.3408), angles=(0.304819,2.46963)
  0.00250     96.8 1.243e+04 7.628e-10
  0.00540     96.3 1.335e+04 1.307e-09
  0.00808     95.3 1.428e+04 1.877e-09
  0.01831     94.7 1.437e+04 2.227e-09
  0.03652     93.9 1.553e+04 3.655e-09
  0.05699     93.1 1.647e+04 5.561e-09
  0.07747     92.0 1.723e+04 6.895e-09
  0.09060     90.4 1.751e+04 7.006e-09
  0.10084     90.1 1.750e+04 6.745e-09
  0.10886     88.1 1.746e+04 6.335e-09
  0.11909     87.1 1.890e+04 1.078e-08
  0.13889     85.1 1.806e+04 7.446e-09
  0.15937     82.2 1.668e+04 4.734e-09
  0.17313     79.0 1.510e+04 3.226e-09
  0.18337     77.9 1.488e+04 3.477e-09
  0.20032     76.1 1.400e+04 3.066e-09
  0.21231     75.6 1.379e+04 2.981e-09
  0.22255     74.7 1.364e+04 2.891e-09
  0.24127     74.7 1.345e+04 2.834e-09
  0.25566     74.9 1.331e+04 2.684e-09
  0.26590     74.7 1.301e+04 2.309e-09
  0.28222     74.8 1.280e+04 2.085e-09
  0.30269     74.8 1.263e+04 1.898e-09
  0.31577     74.6 1.247e+04 1.736e-09
  0.32601     74.1 1.206e+04 1.488e-09
  0.33819     74.0 1.195e+04 1.400e-09
  0.34843     73.9 1.161e+04 1.137e-09
  0.36412     73.9 1.153e+04 1.093e-09
  0.38459     73.9 1.143e+04 1.045e-09
  0.40507     73.9 1.130e+04 9.738e-10
  0.41923     74.1 1.111e+04 8.849e-10
  0.42464     74.3 1.109e+04 8.891e-10
  0.43095     74.4 1.093e+04 8.053e-10
  0.44602     74.9 1.075e+04 7.333e-10
  0.46649     75.3 1.054e+04 6.494e-10
  0.48697     75.8 1.034e+04 5.603e-10
  0.50325     76.3 1.014e+04 4.854e-10
  0.51348     76.5 9.982e+03 4.334e-10
  0.52269     77.0 9.815e+03 3.884e-10
  0.54326     77.4 9.841e+03 3.879e-10
  0.57573     78.5 9.743e+03 3.759e-10
  0.59621     79.0 9.706e+03 3.458e-10
  0.62025     80.1 9.686e+03 3.561e-10
  0.65087     80.9 9.797e+03 3.975e-10
  0.66830     81.2 1.010e+04 4.985e-10
  0.67854     81.5 1.009e+04 4.865e-10
  0.69172     81.7 1.044e+04 6.263e-10
  0.71220     81.7 1.082e+04 8.013e-10
  0.72960     81.8 1.119e+04 1.003e-09
  0.73984     82.3 1.116e+04 9.956e-10
  0.75083     82.4 1.152e+04 1.208e-09
  0.76107     82.5 1.176e+04 1.381e-09
  0.77362     82.5 1.204e+04 1.529e-09
  0.79410     82.3 1.205e+04 1.524e-09
  0.81457     82.0 1.196e+04 1.455e-09
  0.83306     81.8 1.168e+04 1.277e-09
  0.84161     82.3 1.168e+04 1.275e-09
  0.84360     82.6 1.192e+04 1.450e-09
  0.85552     82.6 1.149e+04 1.167e-09
  0.87600     82.5 1.105e+04 9.191e-10
  0.89647     82.1 1.068e+04 7.567e-10
  0.91589     81.8 1.053e+04 7.163e-10
  0.92612     82.1 1.052e+04 7.171e-10
  0.93651     81.9 1.051e+04 7.167e-10
  0.94675     82.2 1.061e+04 7.453e-10
  0.95790     82.2 1.061e+04 7.520e-10
  0.97837     82.1 1.065e+04 7.801e-10
  0.99842     81.9 1.072e+04 8.162e-10
  1.00865     82.2 1.066e+04 7.905e-10
  1.01932     81.9 1.074e+04 8.018e-10
  1.03980     81.5 1.076e+04 7.969e-10
  1.05021     80.9 1.077e+04 7.707e-10
  1.06045     81.4 1.076e+04 7.475e-10
  1.08075     80.6 1.074e+04 6.993e-10
  1.09118     79.5 1.083e+04 6.691e-10
  1.10142     78.6 1.097e+04 7.170e-10
  1.12170     77.1 1.114e+04 7.811e-10
  1.14217     75.6 1.130e+04 9.118e-10
  1.15367     74.5 1.147e+04 1.097e-09
  1.16390     75.1 1.140e+04 1.003e-09
  1.17371     74.3 1.160e+04 1.218e-09
  1.18395     74.0 1.168e+04 1.303e-09
  1.20360     73.4 1.170e+04 1.296e-09
  1.22407     72.7 1.168e+04 1.215e-09
  1.24455     71.9 1.156e+04 1.031e-09
  1.25624     70.8 1.138e+04 8.216e-10
  1.25857     70.0 1.125e+04 7.217e-10
  1.26736     70.8 1.102e+04 6.267e-10
  1.28550     69.3 1.075e+04 5.224e-10
  1.30597     68.1 1.056e+04 4.948e-10
  1.32645     67.3 1.055e+04 4.990e-10
  1.33877     66.6 1.066e+04 5.272e-10
  1.34900     66.3 1.093e+04 5.982e-10
  1.36058     65.9 1.107e+04 6.375e-10
  1.37082     66.4 1.101e+04 6.177e-10
  1.39821     66.8 1.105e+04 6.143e-10
  1.42149     66.9 1.104e+04 6.090e-10
  1.44196     66.7 1.121e+04 6.883e-10
  1.48021     67.1 1.091e+04 5.341e-10
  1.52116     67.7 1.049e+04 3.665e-10
  1.55745     68.5 1.025e+04 2.903e-10
  1.57793     68.7 1.061e+04 3.714e-10
  1.58655     69.5 1.054e+04 3.384e-10
  1.60702     68.8 1.057e+04 3.538e-10
  1.63367     69.3 1.057e+04 3.625e-10
  1.65405     69.5 1.069e+04 4.143e-10
  1.66888     69.7 1.089e+04 5.243e-10
  1.67554     69.4 1.101e+04 6.068e-10
  1.68119     69.0 1.101e+04 6.134e-10
  1.69500     69.5 1.129e+04 7.771e-10
  1.71548     70.1 1.162e+04 9.631e-10
  1.73595     70.6 1.195e+04 1.141e-09
  1.75141     70.9 1.224e+04 1.232e-09
  1.76165     70.5 1.231e+04 1.250e-09
  1.77441     70.4 1.231e+04 1.247e-09
  1.78465     69.6 1.214e+04 1.077e-09
  1.79738     69.4 1.212e+04 1.042e-09
  1.81785     69.1 1.202e+04 9.889e-10
  1.84866     68.9 1.158e+04 8.099e-10
  1.88971     69.5 1.117e+04 6.319e-10
  1.91666     70.1 1.078e+04 4.782e-10
  1.93713     69.7 1.049e+04 3.567e-10
  1.97128     70.9 1.016e+04 2.817e-10
  1.99176     70.2 9.917e+03 2.370e-10
  2.01256     71.7 9.682e+03 1.935e-10
  2.05351     73.3 9.507e+03 1.612e-10
  2.08172     74.9 9.345e+03 1.373e-10
  2.10219     75.0 9.290e+03 1.243e-10
  2.13541     76.7 9.176e+03 1.203e-10
  2.17636     78.4 9.156e+03 1.212e-10
  2.19867     80.2 9.135e+03 1.251e-10
  2.21915     79.8 9.057e+03 1.269e-10
  2.24677     81.6 9.093e+03 1.440e-10
  2.26725     81.6 9.210e+03 1.611e-10
  2.29921     83.4 9.391e+03 1.958e-10
  2.34016     85.2 9.654e+03 2.418e-10
  2.38111     86.7 9.956e+03 2.991e-10
  2.40559     87.7 1.020e+04 3.648e-10
  2.41583     87.5 9.995e+03 3.374e-10
  2.43230     87.3 9.991e+03 3.128e-10
  2.46301     88.1 1.017e+04 3.561e-10
  2.49363     88.5 1.021e+04 3.847e-10
  2.50440     88.8 1.027e+04 4.162e-10
  2.50948     88.7 1.025e+04 3.751e-10
  2.51909     88.4 1.026e+04 3.755e-10
  2.53448     88.3 1.039e+04 4.140e-10
  2.55496     88.0 1.056e+04 4.784e-10
  2.57543     87.7 1.074e+04 5.488e-10
  2.58693     87.4 1.087e+04 6.092e-10
  2.59717     87.6 1.085e+04 5.920e-10
  2.61231     87.4 1.086e+04 6.348e-10
  2.62254     86.6 1.092e+04 7.496e-10
  2.63686     86.2 1.090e+04 7.399e-10
  2.65733     85.9 1.081e+04 6.999e-10
  2.66946     85.7 1.065e+04 6.395e-10
  2.67969     86.0 1.068e+04 6.333e-10
  2.69828     85.8 1.054e+04 5.885e-10
  2.71576     85.5 1.044e+04 5.398e-10
  2.72600     84.6 1.030e+04 4.805e-10
  2.73923     84.1 1.013e+04 4.075e-10
  2.75199     83.8 1.002e+04 3.724e-10
  2.76222     84.3 1.012e+04 3.878e-10
  2.79052     84.8 1.011e+04 3.632e-10
  2.81942     84.8 9.994e+03 3.119e-10
  2.83989     84.5 9.603e+03 2.545e-10
  2.87252     84.8 9.497e+03 2.436e-10
  2.90700     85.2 9.557e+03 2.501e-10
  2.92747     85.8 9.698e+03 2.712e-10
  2.95442     86.2 9.814e+03 2.933e-10
  2.99537     86.3 9.972e+03 3.260e-10
  3.02598     86.4 1.006e+04 3.512e-10
  3.03637     86.2 1.022e+04 4.013e-10
  3.04661     85.8 1.032e+04 4.444e-10
  3.06684     85.3 1.057e+04 5.707e-10
  3.08210     84.8 1.087e+04 7.474e-10
  3.09234     85.4 1.074e+04 6.282e-10
  3.10779     84.7 1.110e+04 8.454e-10
  3.12826     84.0 1.154e+04 1.177e-09
  3.13983     83.3 1.209e+04 1.656e-09
  3.15007     83.6 1.195e+04 1.701e-09
  3.16463     83.1 1.243e+04 2.191e-09
  3.17486     83.5 1.238e+04 2.046e-09
  3.18969     82.9 1.273e+04 2.555e-09
  3.21016     81.8 1.308e+04 2.690e-09
  3.23064     80.4 1.316e+04 2.652e-09
  3.24329     78.7 1.326e+04 2.418e-09
  3.24957     79.2 1.297e+04 2.316e-09
  3.25739     79.5 1.290e+04 2.040e-09
  3.27159     77.8 1.277e+04 1.747e-09
  3.29206     75.9 1.255e+04 1.366e-09
  3.31254     73.7 1.231e+04 1.031e-09
  3.32968     70.8 1.234e+04 9.194e-10
  3.33992     69.5 1.247e+04 9.682e-10
  3.34674     65.2 1.289e+04 1.103e-09
  3.35698     66.8 1.274e+04 1.042e-09
  3.37396     64.4 1.256e+04 1.136e-09
  3.40207     62.0 1.237e+04 1.108e-09
  3.42264     60.7 1.255e+04 1.243e-09
  3.44016     59.1 1.171e+04 8.538e-10
  3.46063     61.7 1.183e+04 9.218e-10
  3.48677     60.6 1.107e+04 5.220e-10
  3.52772     59.6 1.021e+04 1.888e-10
  3.56723     57.9 9.157e+03 6.124e-11
  3.58770     56.5 8.755e+03 4.855e-11
  3.60962     56.3 8.569e+03 4.444e-11
  3.64707     56.8 8.554e+03 4.317e-11
  3.66755     58.1 8.608e+03 4.357e-11
  3.69152     58.7 8.581e+03 4.356e-11
  3.73228     59.8 8.621e+03 4.381e-11
  3.77323     61.4 8.686e+03 4.356e-11
  3.81437     62.6 8.749e+03 4.604e-11
  3.85399     63.9 8.795e+03 5.062e-11
  3.87446     64.4 8.885e+03 5.581e-11
  3.89627     65.7 8.916e+03 6.064e-11
  3.91781     67.1 8.954e+03 6.635e-11
  3.93829     67.7 8.945e+03 6.348e-11
  3.97817     69.1 8.992e+03 6.987e-11
  4.01912     70.4 9.065e+03 7.890e-11
  4.06007     71.7 9.175e+03 9.374e-11
  4.08138     72.9 9.328e+03 1.179e-10
  4.08370     73.4 9.349e+03 1.144e-10
  4.10335     74.2 9.333e+03 1.041e-10
  4.14197     75.3 9.534e+03 1.270e-10
  4.18293     76.3 9.755e+03 1.490e-10
  4.22388     77.1 9.972e+03 1.611e-10
  4.24793     77.6 1.008e+04 1.626e-10
  4.26840     78.5 1.000e+04 1.508e-10
  4.28829     79.0 1.003e+04 1.529e-10
  4.30877     79.7 1.003e+04 1.528e-10
  4.34673     80.1 1.005e+04 1.605e-10
  4.38768     80.6 1.009e+04 1.805e-10
  4.41298     81.2 1.019e+04 2.148e-10
  4.43346     82.2 1.016e+04 2.132e-10
  4.46958     82.7 1.030e+04 2.613e-10
  4.49521     83.3 1.046e+04 3.177e-10
  4.51568     83.8 1.044e+04 3.170e-10
  4.55148     84.3 1.061e+04 3.758e-10
  4.57804     84.7 1.083e+04 4.562e-10
  4.59852     85.5 1.056e+04 4.068e-10
  4.63338     86.0 1.075e+04 4.765e-10
  4.67433     86.6 1.095e+04 5.402e-10
  4.70212     87.0 1.124e+04 6.264e-10
  4.71226     86.9 1.098e+04 4.868e-10
  4.72532     86.9 1.106e+04 5.161e-10
  4.74290     86.8 1.118e+04 5.700e-10
  4.75314     87.1 1.104e+04 4.675e-10
  4.76627     87.1 1.114e+04 5.199e-10
  4.78675     87.0 1.129e+04 5.936e-10
  4.80538     86.9 1.148e+04 6.826e-10
  4.81562     86.8 1.128e+04 5.777e-10
  4.82543     86.6 1.151e+04 6.782e-10
  4.83567     87.1 1.134e+04 5.671e-10
  4.84817     86.8 1.161e+04 6.884e-10
  4.86865     86.3 1.199e+04 8.538e-10
  4.88912     85.6 1.246e+04 1.089e-09
  4.90796     84.8 1.298e+04 1.415e-09
  4.91744     85.6 1.273e+04 1.243e-09
  4.91908     85.7 1.233e+04 9.504e-10
  4.93007     84.8 1.276e+04 1.232e-09
  4.95055     83.7 1.320e+04 1.592e-09
  4.97102     82.7 1.344e+04 1.878e-09
  4.99049     81.5 1.354e+04 2.009e-09
  5.00073     82.2 1.368e+04 2.190e-09
  5.01197     80.8 1.371e+04 2.252e-09
  5.02253     79.7 1.362e+04 2.238e-09
  5.03277     80.0 1.329e+04 1.881e-09
  5.05292     79.2 1.322e+04 1.853e-09
  5.07311     77.1 1.281e+04 1.560e-09
  5.08335     78.9 1.329e+04 2.035e-09
  5.09387     78.1 1.298e+04 1.764e-09
  5.11585     76.6 1.247e+04 1.346e-09
  5.13642     77.8 1.251e+04 1.392e-09
  5.16573     77.2 1.173e+04 8.939e-10
  5.20668     77.2 1.108e+04 5.577e-10
  5.23827     77.4 1.059e+04 3.692e-10
  5.25874     77.4 1.067e+04 4.605e-10
  5.28858     77.9 1.035e+04 3.532e-10
  5.32286     79.0 1.019e+04 3.106e-10
  5.34334     79.9 1.022e+04 3.136e-10
  5.37048     81.1 1.011e+04 2.880e-10
  5.40332     82.4 1.006e+04 2.662e-10
  5.42380     82.3 9.995e+03 2.478e-10
  5.45238     83.5 9.885e+03 1.914e-10
  5.49333     84.5 9.791e+03 1.414e-10
  5.52978     85.3 9.696e+03 1.100e-10
  5.55025     85.9 9.835e+03 1.415e-10
  5.56838     86.5 9.780e+03 1.227e-10
  5.58886     86.0 9.677e+03 8.672e-11
  5.61618     86.5 9.652e+03 9.045e-11
  5.65713     86.9 9.603e+03 1.082e-10
  5.69808     87.2 9.723e+03 1.484e-10
  5.73344     87.3 1.003e+04 2.196e-10
  5.75157     86.3 1.019e+04 2.327e-10
  5.75717     86.6 9.964e+03 1.914e-10
  5.77999     86.0 1.054e+04 2.773e-10
  5.81060     85.4 1.086e+04 3.409e-10
  5.82601     84.3 1.134e+04 4.507e-10
  5.83625     83.2 1.157e+04 5.348e-10
  5.85019     81.3 1.197e+04 8.396e-10
  5.86043     82.1 1.181e+04 6.780e-10
  5.87193     80.6 1.214e+04 9.978e-10
  5.89240     79.6 1.247e+04 1.315e-09
  5.90854     78.5 1.290e+04 1.510e-09
  5.91877     77.3 1.308e+04 1.521e-09
  5.94351     74.8 1.312e+04 1.377e-09
  5.98456     74.6 1.271e+04 1.043e-09
  6.02569     72.6 1.247e+04 6.158e-10
  6.06355     70.6 1.205e+04 3.459e-10
  6.08403     68.1 1.161e+04 2.572e-10
  6.10759     67.5 1.098e+04 2.257e-10
  6.14854     67.5 1.092e+04 2.231e-10
  6.17100     68.2 1.093e+04 2.253e-10
  6.19147     69.5 1.113e+04 2.546e-10
  6.22861     70.2 1.128e+04 2.714e-10
  6.24908     68.4 1.144e+04 2.946e-10
  6.27139     68.6 1.185e+04 3.746e-10
  6.30200     68.7 1.207e+04 4.372e-10
  6.32118     68.1 1.230e+04 5.575e-10
  6.33142     66.8 1.228e+04 6.484e-10
  6.34286     66.0 1.242e+04 9.030e-10
  6.36333     65.5 1.263e+04 1.238e-09
  6.37772     65.3 1.291e+04 1.573e-09
  6.38795     65.5 1.303e+04 1.791e-09
  6.40371     65.1 1.305e+04 1.744e-09
  6.41394     64.1 1.276e+04 1.364e-09
  6.43509     63.5 1.238e+04 9.342e-10
  6.47614     62.7 1.176e+04 5.174e-10
  6.51709     61.6 1.101e+04 2.645e-10
  6.55804     60.6 1.051e+04 1.541e-10
  6.57920     60.3 1.038e+04 1.075e-10
  6.58551     59.9 1.033e+04 8.588e-11
  6.60530     60.6 1.028e+04 8.313e-11
  6.63994     60.9 1.030e+04 6.801e-11
  6.68089     61.3 1.035e+04 5.723e-11
  6.72184     61.7 1.039e+04 5.493e-11
  6.74425     62.3 1.043e+04 5.543e-11
  6.76473     62.2 1.041e+04 5.456e-11
  6.79174     62.5 1.059e+04 5.862e-11
  6.81222     62.7 1.066e+04 6.223e-11
  6.84469     63.0 1.079e+04 8.933e-11
  6.88564     63.7 1.092e+04 1.453e-10
  6.90931     64.5 1.115e+04 2.306e-10
  6.92978     64.1 1.111e+04 2.252e-10
  6.96754     64.5 1.136e+04 3.102e-10
  6.99866     64.2 1.158e+04 4.069e-10
  7.01913     64.4 1.143e+04 3.617e-10
  7.04944     64.0 1.161e+04 4.878e-10
  7.07437     63.7 1.188e+04 6.266e-10
  7.08451     63.6 1.157e+04 4.989e-10
  7.10044     63.2 1.182e+04 5.770e-10
  7.11216     61.7 1.245e+04 7.379e-10
  7.12239     60.5 1.296e+04 8.888e-10
  7.14139     57.0 1.399e+04 1.597e-09
  7.15670     53.7 1.465e+04 2.831e-09
  7.16694     52.6 1.432e+04 3.125e-09
  7.18234     50.9 1.450e+04 4.094e-09
  7.20281     49.2 1.480e+04 4.297e-09
  7.21561     46.7 1.498e+04 4.038e-09
  7.22585     45.8 1.453e+04 2.961e-09
  7.23923     42.0 1.433e+04 2.552e-09
  7.24947     40.2 1.367e+04 1.878e-09
  7.26424     37.0 1.325e+04 1.970e-09
  7.28471     35.2 1.304e+04 2.008e-09
  7.30519     34.0 1.293e+04 1.964e-09
  7.33600     33.5 1.251e+04 1.598e-09
  7.37704     33.2 1.199e+04 1.099e-09
  7.40448     33.0 1.134e+04 7.056e-10
  7.41944     32.9 1.106e+04 5.869e-10
  7.43296     34.4 1.104e+04 6.319e-10
  7.45895     34.2 1.063e+04 4.492e-10
  7.49990     34.2 1.049e+04 4.091e-10
  7.54085     34.5 1.044e+04 3.964e-10
  7.56954     35.1 1.038e+04 3.717e-10
  7.59001     35.0 1.038e+04 3.864e-10
  7.61940     35.6 1.036e+04 3.790e-10
  7.63987     36.7 1.044e+04 4.335e-10
  7.66370     37.2 1.030e+04 3.862e-10
  7.70465     37.8 1.027e+04 3.723e-10
  7.73459     38.3 1.032e+04 3.812e-10
  7.75507     38.6 1.033e+04 3.866e-10
  7.78655     39.2 1.045e+04 4.229e-10
  7.81702     39.3 1.055e+04 4.653e-10
  7.82716     39.4 1.052e+04 4.544e-10
  7.83636     39.3 1.061e+04 4.799e-10
  7.84669     39.7 1.046e+04 4.491e-10
  7.86845     39.3 1.077e+04 5.462e-10
  7.89965     38.5 1.113e+04 6.870e-10
  7.92012     38.7 1.113e+04 6.902e-10
  7.95035     38.2 1.117e+04 7.436e-10
  7.99130     37.4 1.118e+04 7.332e-10
  8.03225     36.4 1.125e+04 7.500e-10
  8.05370     35.2 1.152e+04 8.395e-10
  8.06569     36.2 1.166e+04 9.247e-10
  8.08518     36.2 1.166e+04 9.285e-10
  8.11415     34.5 1.209e+04 1.266e-09
  8.15510     32.6 1.204e+04 1.259e-09
  8.19605     31.7 1.153e+04 9.918e-10
  8.22976     31.7 1.072e+04 5.473e-10
  8.25024     32.2 1.049e+04 5.164e-10
  8.26062     31.9 9.732e+03 2.150e-10
  8.28109     33.0 9.689e+03 2.024e-10
  8.31890     31.8 9.084e+03 8.571e-11
  8.35985     31.6 8.959e+03 7.851e-11
  8.39482     32.1 8.940e+03 7.970e-11
  8.41529     32.7 8.865e+03 7.318e-11
  8.44175     33.3 8.935e+03 8.121e-11
  8.46753     33.5 9.104e+03 9.875e-11
  8.48801     34.5 9.109e+03 9.774e-11
  8.52365     34.5 9.288e+03 1.238e-10
  8.55988     34.3 9.481e+03 1.612e-10
  8.58035     34.4 9.472e+03 1.596e-10
  8.60555     33.7 9.681e+03 2.262e-10
  8.64650     33.0 9.861e+03 3.131e-10
  8.67445     32.6 9.889e+03 3.445e-10
  8.69492     33.6 9.927e+03 3.786e-10
  8.72493     33.2 9.959e+03 4.079e-10
  8.74541     33.3 9.952e+03 4.127e-10
  8.76935     33.1 9.924e+03 3.911e-10
  8.81030     32.7 9.829e+03 3.171e-10
  8.85125     31.9 9.652e+03 2.506e-10
  8.88136     31.2 9.409e+03 2.203e-10
  8.89962     32.7 9.743e+03 3.062e-10
  8.91046     32.9 9.734e+03 3.060e-10
  8.93315     32.2 9.483e+03 2.192e-10
  8.97410     31.2 9.219e+03 1.866e-10
  9.01506     30.1 9.223e+03 1.930e-10
  9.05505     28.7 9.347e+03 2.434e-10
  9.07552     28.7 9.287e+03 2.415e-10
  9.08828     27.4 9.652e+03 3.972e-10
  9.10875     28.7 9.362e+03 2.949e-10
  9.13791     27.0 9.880e+03 4.527e-10
  9.17886     24.6 1.067e+04 7.152e-10
  9.20187     22.1 1.166e+04 1.047e-09
  9.21201     22.5 1.127e+04 9.434e-10
  9.22985     18.5 1.269e+04 1.619e-09
  9.24038     14.7 1.404e+04 2.975e-09
  9.25062     14.9 1.403e+04 3.128e-09
  9.27080     12.6 1.440e+04 3.668e-09
  9.29127     11.1 1.418e+04 3.353e-09
  9.30523      9.3 1.343e+04 2.464e-09
  9.31547     10.1 1.404e+04 3.628e-09
  9.32291      8.8 1.299e+04 2.119e-09
  9.33315      8.8 1.296e+04 2.053e-09
  9.35270      6.8 1.189e+04 1.214e-09
  9.38351      1.8 9.886e+03 4.339e-10
  9.40563     -1.0 8.898e+03 2.820e-10
  9.42611     -0.2 8.921e+03 2.781e-10
  9.46551     -0.4 8.685e+03 2.707e-10
  9.50210     -0.3 8.596e+03 2.830e-10
  9.52258      0.2 8.408e+03 2.202e-10
  9.54741      0.6 8.544e+03 2.143e-10
  9.57069     -0.0 8.801e+03 2.264e-10
  9.59117      0.7 8.829e+03 2.142e-10
  9.62931     -1.2 9.381e+03 3.063e-10
  9.67026     -2.1 9.666e+03 4.551e-10
  9.70902     -2.5 9.721e+03 4.623e-10
  9.72949     -2.8 9.358e+03 3.572e-10
  9.73575     -3.8 9.374e+03 3.261e-10
  9.75622     -3.1 9.541e+03 3.450e-10
  9.79311     -5.9 9.834e+03 4.055e-10
  9.83406     -8.8 1.058e+04 7.699e-10
  9.87501     -9.0 1.121e+04 1.330e-09
  9.90080     -8.5 1.104e+04 1.233e-09
  9.92125     -8.8 1.132e+04 1.357e-09
  9.95688     -8.5 1.106e+04 1.130e-09
  9.99786     -9.9 1.083e+04 8.259e-10
 10.03881    -11.1 1.030e+04 6.815e-10
 10.06586    -10.5 9.784e+03 5.708e-10
 10.08634     -9.7 9.721e+03 5.056e-10
 10.12071     -9.0 9.273e+03 3.813e-10
 10.14332     -8.2 8.871e+03 2.708e-10
 10.16380     -8.2 8.722e+03 2.342e-10
 10.20261     -6.7 8.280e+03 1.704e-10
 10.23092     -5.0 8.051e+03 1.145e-10
 10.25139     -3.9 8.065e+03 1.133e-10
 10.28451     -3.0 8.025e+03 7.742e-11
 10.32546     -2.0 7.825e+03 6.837e-11
 10.35024     -0.9 7.831e+03 7.097e-11
 10.37071     -0.4 7.745e+03 7.069e-11
 10.39597      0.8 7.872e+03 8.305e-11
 10.41645      1.6 8.055e+03 9.295e-11
 10.44831      3.2 8.131e+03 1.226e-10
 10.48926      5.1 8.244e+03 1.543e-10
 10.53021      7.0 8.359e+03 1.738e-10
 10.55715      8.6 8.442e+03 1.781e-10
 10.56749      9.1 8.197e+03 1.320e-10
 10.58151      9.8 8.352e+03 1.497e-10
 10.61212     11.4 8.377e+03 1.523e-10
 10.65307     12.8 8.481e+03 1.646e-10
 10.69402     14.0 8.707e+03 2.083e-10
 10.72609     15.4 9.015e+03 2.961e-10
 10.74656     16.3 9.104e+03 3.383e-10
 10.76407     18.1 9.486e+03 4.756e-10
 10.78454     19.0 9.309e+03 3.827e-10
 10.81687     20.6 9.714e+03 5.128e-10
 10.84748     21.7 9.977e+03 5.914e-10
 10.86733     22.6 1.013e+04 6.181e-10
 10.87757     22.9 9.992e+03 6.121e-10
 10.88833     23.9 1.018e+04 6.155e-10
 10.90119     24.3 1.029e+04 5.947e-10
 10.91142     24.9 1.027e+04 5.989e-10
 10.92928     25.1 1.047e+04 5.751e-10
 10.94976     25.2 1.057e+04 5.759e-10
 10.97088     25.1 1.112e+04 7.092e-10
 10.98436     25.9 1.103e+04 6.851e-10
 10.99395     26.7 1.105e+04 6.854e-10
 11.01118     26.0 1.156e+04 8.265e-10
 11.03166     23.9 1.250e+04 1.321e-09
