# Columns:
#   distance along LOS (in CHIMPs)
#   peculiar velocity  (in km/s)
#   temperature (K)
#   HI number density
# pos=(6.12704,87.0038,51.5425), angles=(0.107094,4.68881)
  0.00301    -62.3 9.174e+03 1.364e-10
  0.01950    -61.8 9.303e+03 1.497e-10
  0.05264    -59.9 9.363e+03 1.861e-10
  0.09192    -57.9 9.423e+03 2.221e-10
  0.13121    -55.7 9.491e+03 2.537e-10
  0.17050    -53.7 9.539e+03 2.772e-10
  0.20979    -51.7 9.534e+03 2.895e-10
  0.24907    -49.8 9.494e+03 2.943e-10
  0.28836    -47.9 9.375e+03 3.018e-10
  0.32765    -45.8 9.336e+03 3.102e-10
  0.35943    -43.6 9.334e+03 3.102e-10
  0.37907    -43.0 9.239e+03 2.654e-10
  0.40622    -40.9 9.125e+03 2.383e-10
  0.44551    -38.6 9.003e+03 2.076e-10
  0.48480    -36.6 8.907e+03 1.899e-10
  0.52409    -34.7 8.951e+03 1.896e-10
  0.56337    -34.0 9.426e+03 2.428e-10
  0.60266    -34.4 9.919e+03 4.390e-10
  0.64195    -34.1 1.066e+04 8.825e-10
  0.68124    -33.3 1.137e+04 1.243e-09
  0.71900    -33.7 1.141e+04 1.140e-09
  0.73864    -33.3 1.239e+04 1.818e-09
  0.75981    -34.9 1.130e+04 8.978e-10
  0.79910    -37.3 1.031e+04 6.322e-10
  0.83839    -37.7 1.015e+04 6.048e-10
  0.87768    -37.7 1.020e+04 6.939e-10
  0.91696    -37.1 1.031e+04 7.886e-10
  0.95625    -36.4 1.029e+04 7.984e-10
  0.99554    -35.6 1.007e+04 7.049e-10
  1.03483    -34.9 9.730e+03 5.306e-10
  1.07411    -34.6 9.320e+03 3.935e-10
  1.09821    -33.9 9.002e+03 3.157e-10
  1.11785    -34.4 8.972e+03 2.999e-10
  1.15269    -32.9 8.711e+03 2.483e-10
  1.19198    -31.3 8.515e+03 2.109e-10
  1.23126    -29.6 8.373e+03 1.847e-10
  1.27055    -27.8 8.236e+03 1.639e-10
  1.30984    -25.7 8.125e+03 1.480e-10
  1.34913    -23.5 8.058e+03 1.331e-10
  1.38841    -21.2 7.978e+03 1.165e-10
  1.42770    -18.7 7.891e+03 9.711e-11
  1.45778    -16.4 7.801e+03 7.582e-11
  1.47742    -16.2 7.800e+03 7.340e-11
  1.50628    -14.4 7.721e+03 6.198e-11
  1.54556    -12.6 7.683e+03 6.189e-11
  1.58485    -10.4 7.631e+03 6.520e-11
  1.62414     -8.0 7.645e+03 6.553e-11
  1.66343     -5.7 7.676e+03 6.508e-11
  1.70271     -3.6 7.706e+03 6.649e-11
  1.74200     -1.5 7.734e+03 7.158e-11
  1.78129      0.6 7.804e+03 7.915e-11
  1.81735      2.9 7.875e+03 8.930e-11
  1.83699      2.9 7.897e+03 8.690e-11
  1.85986      5.3 7.923e+03 9.313e-11
  1.89915      7.7 7.949e+03 9.657e-11
  1.93844     10.2 7.970e+03 9.775e-11
  1.97773     12.7 8.013e+03 9.845e-11
  2.01702     15.1 8.104e+03 1.014e-10
  2.05630     17.5 8.219e+03 1.081e-10
  2.09559     19.8 8.356e+03 1.189e-10
  2.13488     22.1 8.520e+03 1.373e-10
  2.17417     24.1 8.670e+03 1.658e-10
  2.19656     26.5 8.975e+03 2.265e-10
  2.21620     26.4 9.026e+03 2.377e-10
  2.25274     29.1 9.535e+03 3.375e-10
  2.29203     30.9 9.908e+03 4.217e-10
  2.32140     32.2 1.007e+04 4.559e-10
  2.34094     33.1 1.034e+04 5.533e-10
  2.36059     34.0 1.061e+04 6.893e-10
  2.37615     34.9 1.086e+04 8.470e-10
  2.38597     34.5 1.082e+04 8.745e-10
  2.39987     35.4 1.110e+04 1.045e-09
  2.41952     36.0 1.153e+04 1.300e-09
  2.43916     36.6 1.203e+04 1.724e-09
  2.45881     37.2 1.267e+04 2.349e-09
  2.47845     37.7 1.354e+04 3.308e-09
  2.49809     37.8 1.455e+04 4.545e-09
  2.51278     37.2 1.489e+04 4.746e-09
  2.52255     36.7 1.516e+04 5.031e-09
  2.53237     35.2 1.595e+04 6.147e-09
  2.54219     32.5 1.756e+04 8.877e-09
  2.55202     29.3 1.925e+04 1.448e-08
  2.56075     26.9 1.988e+04 2.324e-08
  2.56566     27.0 1.923e+04 1.886e-08
  2.57166     27.0 1.943e+04 2.673e-08
  2.58148     27.2 1.944e+04 3.000e-08
  2.59130     27.9 1.939e+04 2.910e-08
  2.60112     28.7 1.943e+04 2.534e-08
  2.61095     28.9 1.906e+04 1.670e-08
  2.62077     28.3 1.888e+04 1.360e-08
  2.63555     28.3 1.783e+04 6.670e-09
  2.65524     24.4 1.598e+04 1.950e-09
  2.67489     17.5 1.175e+04 6.821e-10
  2.69453     16.1 1.033e+04 4.951e-10
  2.71417     16.8 1.009e+04 4.311e-10
  2.73382     17.7 1.010e+04 3.977e-10
  2.74554     18.9 9.986e+03 3.625e-10
  2.75536     19.6 1.002e+04 3.649e-10
  2.77311     20.0 9.974e+03 3.546e-10
  2.80267     21.2 9.997e+03 4.143e-10
  2.84205     23.3 9.892e+03 4.111e-10
  2.88134     25.7 9.657e+03 3.723e-10
  2.91570     28.1 9.404e+03 3.078e-10
  2.93534     28.7 9.332e+03 2.867e-10
  2.95992     30.8 9.082e+03 2.397e-10
  2.99920     32.9 8.930e+03 2.326e-10
  3.03849     35.0 8.931e+03 2.375e-10
  3.07778     37.1 8.982e+03 2.617e-10
  3.11707     39.1 9.141e+03 3.145e-10
  3.15635     40.6 9.315e+03 3.841e-10
  3.18572     41.5 9.368e+03 4.311e-10
  3.20527     42.4 9.510e+03 4.981e-10
  3.22491     43.3 9.714e+03 5.808e-10
  3.24456     44.2 9.896e+03 6.433e-10
  3.26420     44.9 1.001e+04 6.786e-10
  3.28384     45.5 1.003e+04 6.816e-10
  3.29471     46.0 1.002e+04 6.749e-10
  3.30454     45.8 9.879e+03 6.445e-10
  3.32313     46.3 9.825e+03 6.230e-10
  3.34278     46.9 9.699e+03 5.807e-10
  3.36242     47.4 9.587e+03 5.420e-10
  3.38206     48.0 9.434e+03 5.016e-10
  3.40171     48.5 9.366e+03 4.867e-10
  3.42135     49.1 9.339e+03 4.855e-10
  3.44099     49.7 9.367e+03 4.930e-10
  3.46064     50.2 9.466e+03 5.231e-10
  3.47450     50.6 9.621e+03 5.785e-10
  3.48432     50.8 9.512e+03 5.503e-10
  3.49993     51.2 9.715e+03 6.355e-10
  3.51957     51.7 9.937e+03 7.369e-10
  3.53921     52.0 1.015e+04 8.433e-10
  3.55886     52.3 1.036e+04 9.642e-10
  3.57850     52.8 1.051e+04 1.068e-09
  3.59814     53.1 1.054e+04 1.077e-09
  3.62771     52.9 1.023e+04 8.504e-10
  3.65448     53.6 9.684e+03 5.812e-10
  3.67412     54.5 1.035e+04 8.623e-10
  3.70638     55.2 9.653e+03 5.190e-10
  3.74567     55.3 8.790e+03 2.890e-10
  3.78496     55.4 8.254e+03 2.019e-10
  3.82424     56.1 8.208e+03 1.975e-10
  3.86353     57.4 8.222e+03 2.024e-10
  3.90282     58.9 8.305e+03 2.201e-10
  3.94211     60.3 8.424e+03 2.434e-10
  3.98139     61.9 8.534e+03 2.636e-10
  4.01405     63.4 8.635e+03 2.786e-10
  4.03369     64.3 9.141e+03 3.879e-10
  4.05997     65.7 9.374e+03 4.380e-10
  4.09926     66.6 9.609e+03 4.957e-10
  4.12862     66.9 9.533e+03 4.782e-10
  4.14817     67.1 9.652e+03 5.225e-10
  4.16781     67.3 9.831e+03 6.128e-10
  4.18746     67.8 1.001e+04 7.205e-10
  4.20346     68.4 1.020e+04 8.127e-10
  4.21328     68.9 1.050e+04 9.423e-10
  4.22675     69.4 1.058e+04 9.497e-10
  4.24639     69.8 1.057e+04 9.328e-10
  4.26603     70.2 1.052e+04 8.738e-10
  4.28568     70.5 1.042e+04 7.861e-10
  4.30532     70.8 1.035e+04 7.032e-10
  4.32497     71.1 1.035e+04 6.605e-10
  4.34461     71.5 1.036e+04 6.586e-10
  4.36425     72.0 1.038e+04 6.639e-10
  4.38324     72.5 1.049e+04 6.922e-10
  4.39307     72.8 1.058e+04 7.423e-10
  4.40354     73.4 1.072e+04 7.996e-10
  4.42318     74.0 1.088e+04 8.628e-10
  4.44283     74.6 1.104e+04 8.984e-10
  4.46247     75.1 1.110e+04 8.979e-10
  4.48212     75.7 1.112e+04 8.827e-10
  4.50176     76.2 1.112e+04 8.405e-10
  4.52140     76.7 1.113e+04 8.010e-10
  4.54105     77.5 1.116e+04 7.986e-10
  4.56069     78.2 1.130e+04 8.144e-10
  4.57285     78.7 1.159e+04 8.714e-10
  4.58267     78.8 1.159e+04 8.651e-10
  4.59998     79.1 1.200e+04 9.692e-10
  4.61962     79.4 1.240e+04 1.128e-09
  4.63927     79.8 1.269e+04 1.320e-09
  4.65891     80.3 1.286e+04 1.507e-09
  4.67855     80.9 1.293e+04 1.655e-09
  4.69820     81.5 1.300e+04 1.762e-09
  4.71784     81.9 1.313e+04 1.865e-09
  4.73748     82.2 1.336e+04 2.014e-09
  4.75263     82.4 1.370e+04 2.226e-09
  4.76246     83.0 1.321e+04 1.695e-09
  4.77677     83.0 1.373e+04 2.057e-09
  4.79642     83.1 1.430e+04 2.528e-09
  4.81606     83.2 1.478e+04 2.959e-09
  4.83570     83.2 1.513e+04 3.343e-09
  4.85535     83.2 1.517e+04 3.346e-09
  4.87499     83.2 1.504e+04 2.984e-09
  4.89464     83.3 1.461e+04 2.392e-09
  4.91428     83.2 1.397e+04 1.830e-09
  4.93242     83.0 1.321e+04 1.437e-09
  4.94224     84.2 1.367e+04 2.206e-09
  4.95357     84.2 1.296e+04 1.695e-09
  4.97321     84.3 1.233e+04 1.332e-09
  4.99285     84.5 1.184e+04 1.064e-09
  5.01250     85.1 1.149e+04 8.585e-10
  5.03214     85.8 1.120e+04 6.874e-10
  5.05179     86.3 1.104e+04 5.699e-10
  5.07143     87.1 1.081e+04 4.681e-10
  5.09107     87.4 1.078e+04 4.371e-10
  5.11230     88.5 1.058e+04 3.973e-10
  5.13204     89.7 1.032e+04 2.522e-10
  5.16002     91.4 1.010e+04 1.861e-10
  5.19931     93.0 9.943e+03 1.621e-10
  5.23860     94.6 9.897e+03 1.647e-10
  5.27788     96.2 9.856e+03 1.752e-10
  5.31717     97.8 9.858e+03 2.090e-10
  5.35646     99.3 9.967e+03 2.732e-10
  5.39575    100.9 1.020e+04 3.709e-10
  5.43503    102.3 1.045e+04 4.751e-10
  5.47197    103.5 1.069e+04 5.604e-10
  5.49161    104.9 1.106e+04 7.406e-10
  5.50369    105.0 1.111e+04 7.514e-10
  5.52324    105.2 1.118e+04 7.678e-10
  5.54288    105.4 1.117e+04 7.662e-10
  5.56252    105.7 1.112e+04 7.347e-10
  5.58217    106.1 1.096e+04 6.615e-10
  5.60181    106.5 1.080e+04 5.680e-10
  5.63137    106.5 1.051e+04 4.244e-10
  5.67076    107.2 1.018e+04 3.239e-10
  5.71005    107.8 9.893e+03 2.641e-10
  5.74934    108.5 9.620e+03 2.485e-10
  5.78862    109.6 9.518e+03 2.491e-10
  5.82791    110.9 9.476e+03 2.484e-10
  5.85118    112.4 9.442e+03 2.456e-10
  5.87082    113.8 9.123e+03 1.781e-10
  5.90649    115.2 9.188e+03 1.834e-10
  5.94577    116.5 9.268e+03 1.863e-10
  5.98506    117.7 9.314e+03 1.847e-10
  6.02435    118.8 9.367e+03 1.773e-10
  6.06364    119.8 9.379e+03 1.673e-10
  6.10292    120.7 9.365e+03 1.561e-10
  6.14221    121.6 9.306e+03 1.424e-10
  6.18150    122.5 9.218e+03 1.255e-10
  6.21075    123.4 9.122e+03 1.065e-10
  6.23039    124.7 9.236e+03 1.117e-10
  6.26007    125.5 9.185e+03 1.052e-10
  6.29936    126.3 9.195e+03 1.067e-10
  6.33865    126.9 9.275e+03 1.182e-10
  6.37794    127.0 9.500e+03 1.586e-10
  6.41722    127.0 9.836e+03 2.348e-10
  6.45651    127.0 1.020e+04 3.233e-10
  6.49580    126.4 1.037e+04 3.422e-10
  6.53509    125.4 1.036e+04 3.275e-10
  6.57032    124.3 1.024e+04 2.655e-10
  6.58996    125.3 1.054e+04 3.250e-10
  6.61366    124.1 1.024e+04 2.057e-10
  6.65295    123.1 9.886e+03 1.280e-10
  6.69224    122.5 9.534e+03 9.651e-11
  6.73152    122.5 9.211e+03 9.064e-11
  6.77081    122.8 9.069e+03 8.837e-11
  6.81010    123.6 8.991e+03 8.672e-11
  6.84939    124.5 8.964e+03 8.662e-11
  6.88868    125.5 8.956e+03 8.752e-11
  6.92796    126.5 8.954e+03 9.163e-11
  6.94953    127.5 8.994e+03 9.960e-11
  6.96917    127.9 8.907e+03 1.003e-10
  7.00654    128.8 8.958e+03 1.116e-10
  7.04583    129.8 9.107e+03 1.295e-10
  7.08511    131.0 9.392e+03 1.604e-10
  7.12440    132.1 9.827e+03 2.138e-10
  7.16369    132.4 1.022e+04 2.827e-10
  7.19306    132.4 1.036e+04 3.216e-10
  7.21260    132.3 1.052e+04 3.722e-10
  7.23225    131.8 1.085e+04 4.886e-10
  7.25189    130.8 1.158e+04 7.523e-10
  7.27153    128.8 1.281e+04 1.359e-09
  7.29118    126.3 1.426e+04 2.667e-09
  7.30890    123.8 1.550e+04 4.926e-09
  7.31873    123.8 1.544e+04 5.010e-09
  7.33047    121.7 1.619e+04 6.840e-09
  7.35011    119.4 1.630e+04 6.878e-09
  7.36975    117.2 1.618e+04 6.218e-09
  7.38940    115.1 1.559e+04 4.536e-09
  7.40904    112.8 1.452e+04 2.809e-09
  7.42868    110.7 1.316e+04 1.743e-09
  7.44833    109.2 1.207e+04 1.250e-09
  7.47789    109.2 1.159e+04 1.073e-09
  7.51728    109.4 1.100e+04 8.394e-10
  7.55656    110.6 1.062e+04 6.663e-10
  7.59585    112.4 1.032e+04 5.287e-10
  7.63514    114.5 1.008e+04 4.303e-10
  7.66867    116.5 9.921e+03 3.718e-10
  7.68831    116.8 9.511e+03 2.676e-10
  7.71371    118.9 9.465e+03 2.595e-10
  7.75300    121.1 9.461e+03 2.604e-10
  7.79229    123.4 9.474e+03 2.692e-10
  7.83158    125.7 9.535e+03 2.901e-10
  7.86501    128.1 9.644e+03 3.258e-10
  7.88466    127.1 1.006e+04 4.715e-10
  7.91015    129.3 1.032e+04 5.868e-10
  7.94944    132.0 1.077e+04 7.643e-10
  7.97881    133.9 1.096e+04 8.625e-10
  7.99835    135.0 1.105e+04 9.170e-10
  8.01800    136.2 1.114e+04 9.789e-10
  8.03764    137.3 1.124e+04 1.034e-09
  8.04769    138.5 1.133e+04 1.080e-09
  8.05751    139.0 1.117e+04 1.021e-09
  8.07693    140.0 1.129e+04 1.073e-09
  8.09657    141.1 1.137e+04 1.110e-09
  8.11622    142.0 1.144e+04 1.130e-09
  8.13586    143.0 1.144e+04 1.129e-09
  8.15550    143.9 1.144e+04 1.121e-09
  8.18507    145.2 1.142e+04 1.071e-09
  8.22445    146.8 1.128e+04 9.627e-10
  8.26374    148.2 1.110e+04 8.383e-10
  8.30303    149.7 1.092e+04 7.453e-10
  8.34232    151.0 1.087e+04 7.160e-10
  8.38160    152.3 1.087e+04 7.150e-10
  8.40745    153.2 1.089e+04 7.194e-10
  8.42709    155.0 1.086e+04 7.129e-10
  8.46018    155.7 1.102e+04 7.806e-10
  8.49947    156.0 1.118e+04 8.552e-10
  8.53875    156.3 1.127e+04 8.588e-10
  8.57804    156.3 1.130e+04 7.649e-10
  8.61733    155.5 1.106e+04 6.999e-10
  8.65662    153.7 1.086e+04 7.610e-10
  8.69590    151.9 1.086e+04 9.512e-10
  8.73519    150.6 1.105e+04 1.055e-09
  8.76702    149.3 1.110e+04 1.027e-09
  8.78656    151.2 1.170e+04 1.390e-09
  8.80375    150.4 1.174e+04 1.357e-09
  8.82339    149.4 1.171e+04 1.275e-09
  8.84304    148.3 1.164e+04 1.232e-09
  8.86268    147.1 1.159e+04 1.231e-09
  8.88232    146.2 1.163e+04 1.279e-09
  8.90197    145.4 1.166e+04 1.336e-09
  8.93153    145.1 1.164e+04 1.396e-09
  8.97092    144.4 1.166e+04 1.438e-09
  9.01020    144.1 1.160e+04 1.390e-09
  9.04949    144.3 1.129e+04 1.182e-09
  9.08878    144.5 1.072e+04 8.745e-10
  9.12659    144.9 1.006e+04 6.074e-10
  9.14623    146.5 9.981e+03 6.026e-10
  9.16735    147.2 9.418e+03 4.326e-10
  9.20664    148.0 9.258e+03 3.882e-10
  9.24593    149.2 9.277e+03 3.933e-10
  9.28522    150.6 9.400e+03 4.239e-10
  9.32451    151.9 9.584e+03 4.774e-10
  9.36379    153.4 9.712e+03 5.385e-10
  9.40308    154.9 9.804e+03 6.048e-10
  9.44237    156.6 9.960e+03 6.833e-10
  9.48166    158.0 1.025e+04 7.849e-10
  9.50580    158.9 1.066e+04 8.827e-10
  9.51552    159.9 1.064e+04 8.250e-10
  9.53057    160.3 1.100e+04 9.481e-10
  9.55021    160.5 1.143e+04 1.077e-09
  9.56986    160.6 1.177e+04 1.167e-09
  9.58950    160.6 1.184e+04 1.202e-09
  9.60914    160.3 1.179e+04 1.186e-09
  9.63871    160.3 1.234e+04 1.502e-09
  9.67809    158.9 1.184e+04 1.137e-09
  9.71738    157.2 1.082e+04 7.045e-10
  9.75667    155.7 9.582e+03 4.075e-10
  9.79596    154.8 8.814e+03 2.856e-10
  9.83524    154.8 8.754e+03 2.755e-10
  9.86537    155.3 8.752e+03 2.759e-10
  9.88501    154.9 8.896e+03 3.109e-10
  9.91382    155.7 8.946e+03 3.180e-10
  9.95311    156.5 8.970e+03 3.177e-10
  9.99239    157.2 8.969e+03 3.062e-10
 10.03168    157.9 8.897e+03 2.696e-10
 10.07097    158.6 8.779e+03 2.307e-10
 10.11026    159.3 8.752e+03 2.193e-10
 10.14954    160.0 8.776e+03 2.223e-10
 10.18883    160.4 8.925e+03 2.434e-10
 10.22494    160.6 9.220e+03 3.031e-10
 10.24458    160.5 9.430e+03 3.680e-10
 10.26741    160.5 9.873e+03 4.861e-10
 10.30669    160.5 1.029e+04 6.046e-10
 10.34598    160.6 1.043e+04 6.280e-10
 10.38527    160.7 1.042e+04 6.148e-10
 10.42456    160.8 1.035e+04 5.324e-10
 10.46385    161.0 1.018e+04 3.894e-10
 10.50313    161.1 9.967e+03 2.618e-10
 10.54242    161.4 9.693e+03 1.871e-10
 10.58171    162.1 9.374e+03 1.718e-10
 10.60415    163.3 9.353e+03 1.722e-10
 10.62379    163.0 9.507e+03 2.323e-10
 10.66028    164.5 9.493e+03 2.323e-10
 10.69957    166.2 9.497e+03 2.368e-10
 10.73886    167.9 9.546e+03 2.533e-10
 10.77815    169.4 9.636e+03 2.780e-10
 10.81743    170.9 9.731e+03 3.030e-10
 10.85672    172.4 9.834e+03 3.305e-10
 10.89601    173.9 9.956e+03 3.649e-10
 10.93530    175.3 1.007e+04 4.003e-10
 10.96372    176.6 1.011e+04 4.129e-10
 10.98336    176.7 9.942e+03 3.641e-10
 11.01387    177.9 9.940e+03 3.382e-10
 11.05316    179.2 9.842e+03 2.933e-10
 11.09245    180.5 9.671e+03 2.447e-10
 11.13173    182.0 9.493e+03 2.169e-10
 11.17102    183.7 9.464e+03 2.158e-10
 11.21031    185.7 9.483e+03 2.220e-10
 11.24960    187.6 9.607e+03 2.505e-10
 11.28888    189.4 9.863e+03 3.068e-10
 11.32329    190.9 1.015e+04 3.836e-10
 11.34293    191.7 9.913e+03 3.130e-10
 11.36746    193.0 1.022e+04 3.971e-10
 11.40675    193.8 1.040e+04 4.613e-10
 11.43612    194.6 1.060e+04 5.813e-10
 11.45566    195.5 1.072e+04 6.643e-10
 11.47531    196.1 1.090e+04 7.011e-10
 11.49495    196.5 1.095e+04 6.978e-10
 11.52451    197.6 1.094e+04 5.886e-10
 11.55398    197.8 1.104e+04 6.104e-10
 11.57352    198.1 1.114e+04 6.189e-10
 11.59317    198.3 1.116e+04 6.128e-10
 11.61281    198.5 1.118e+04 5.905e-10
 11.63246    198.7 1.116e+04 5.562e-10
 11.65210    198.7 1.111e+04 5.061e-10
 11.68166    198.3 1.073e+04 3.331e-10
 11.70250    198.0 1.055e+04 3.014e-10
 11.71223    198.8 1.097e+04 3.693e-10
 11.73067    198.2 1.078e+04 3.308e-10
 11.76024    198.0 1.078e+04 3.302e-10
 11.79962    196.5 1.096e+04 3.884e-10
 11.83891    194.3 1.170e+04 6.300e-10
 11.87820    191.7 1.253e+04 9.544e-10
 11.91749    188.6 1.276e+04 1.005e-09
 11.95677    185.8 1.266e+04 9.152e-10
 11.99606    183.5 1.215e+04 6.041e-10
 12.03535    181.3 1.117e+04 3.386e-10
 12.06207    179.2 1.045e+04 2.747e-10
 12.08171    180.4 1.043e+04 2.843e-10
 12.11392    179.0 1.037e+04 2.847e-10
 12.15321    178.0 1.035e+04 3.032e-10
 12.19250    177.1 1.040e+04 3.498e-10
 12.23179    176.4 1.049e+04 4.029e-10
 12.25158    176.1 1.064e+04 4.795e-10
 12.26130    176.2 1.064e+04 4.732e-10
 12.28070    176.0 1.079e+04 5.292e-10
 12.31026    175.8 1.082e+04 5.267e-10
 12.34965    175.3 1.085e+04 5.387e-10
 12.38894    174.8 1.085e+04 5.309e-10
 12.41830    174.2 1.086e+04 5.295e-10
 12.43127    173.8 1.085e+04 5.188e-10
 12.44118    173.7 1.076e+04 5.099e-10
 12.45759    172.9 1.076e+04 4.949e-10
 12.47714    172.5 1.075e+04 4.795e-10
 12.49678    171.9 1.072e+04 4.511e-10
 12.51643    171.3 1.072e+04 4.312e-10
 12.53607    170.5 1.072e+04 4.003e-10
 12.55571    169.6 1.074e+04 3.780e-10
 12.57536    168.7 1.075e+04 3.556e-10
 12.59500    167.8 1.073e+04 3.360e-10
 12.61105    166.8 1.067e+04 3.279e-10
 12.62087    165.9 1.063e+04 3.658e-10
 12.63429    164.8 1.065e+04 3.698e-10
 12.65393    163.4 1.078e+04 3.942e-10
 12.67358    161.2 1.122e+04 4.961e-10
 12.69322    158.5 1.196e+04 7.519e-10
 12.71286    155.9 1.276e+04 1.230e-09
 12.73251    153.5 1.346e+04 1.920e-09
 12.75215    151.4 1.399e+04 2.622e-09
 12.77180    149.3 1.418e+04 2.944e-09
 12.79083    147.1 1.414e+04 2.914e-09
 12.80066    145.9 1.447e+04 3.493e-09
 12.81108    144.2 1.409e+04 3.194e-09
 12.83073    142.8 1.344e+04 2.678e-09
 12.85037    141.7 1.273e+04 2.068e-09
 12.87001    140.6 1.205e+04 1.531e-09
 12.88966    139.8 1.143e+04 1.098e-09
 12.90930    139.1 1.076e+04 7.566e-10
 12.93887    137.7 9.722e+03 4.046e-10
 12.97825    137.0 9.002e+03 2.628e-10
 13.01754    137.1 8.921e+03 2.498e-10
 13.05683    137.7 8.931e+03 2.556e-10
 13.08619    137.8 8.978e+03 2.685e-10
 13.10574    138.3 9.030e+03 2.815e-10
 13.12538    138.3 9.149e+03 3.125e-10
 13.14503    138.0 9.505e+03 4.146e-10
 13.16023    136.1 1.054e+04 7.976e-10
 13.17005    134.5 1.171e+04 1.025e-09
 13.18431    130.3 1.521e+04 3.500e-09
 13.20396    127.0 1.773e+04 9.351e-09
 13.22360    124.3 1.896e+04 1.431e-08
 13.24325    121.4 1.900e+04 1.406e-08
 13.26289    119.1 1.833e+04 1.081e-08
 13.28253    117.1 1.667e+04 5.655e-09
 13.30218    114.4 1.384e+04 2.328e-09
 13.33174    109.1 1.009e+04 7.333e-10
 13.37113    106.8 9.254e+03 3.024e-10
 13.41041    106.9 9.050e+03 2.679e-10
 13.44970    107.9 9.014e+03 2.678e-10
 13.48899    109.5 9.033e+03 2.824e-10
 13.51999    111.1 9.191e+03 3.306e-10
 13.53963    111.1 9.193e+03 3.300e-10
 13.56756    112.7 9.370e+03 3.866e-10
 13.60685    114.4 9.529e+03 4.273e-10
 13.64614    116.0 9.657e+03 4.378e-10
 13.68543    117.5 9.668e+03 4.355e-10
 13.72471    118.9 9.685e+03 4.214e-10
 13.76400    120.1 9.683e+03 3.830e-10
 13.80329    121.3 9.626e+03 3.272e-10
 13.84258    122.4 9.531e+03 2.684e-10
 13.87956    123.7 9.412e+03 2.198e-10
 13.89920    123.5 9.562e+03 2.899e-10
 13.92115    124.8 9.469e+03 2.551e-10
 13.96044    126.3 9.348e+03 2.317e-10
 13.99973    127.9 9.229e+03 2.211e-10
 14.03902    129.6 9.197e+03 2.212e-10
 14.07830    131.3 9.192e+03 2.286e-10
