# Columns:
#   distance along LOS (in CHIMPs)
#   peculiar velocity  (in km/s)
#   temperature (K)
#   HI number density
# pos=(217.699,225.442,87.5102), angles=(0.263558,1.9457)
  0.00938     72.1 1.486e+04 5.431e-09
  0.02831     73.1 1.483e+04 5.365e-09
  0.03843     74.0 1.440e+04 4.537e-09
  0.04911     74.9 1.430e+04 4.197e-09
  0.06934     75.9 1.412e+04 3.680e-09
  0.08957     76.9 1.382e+04 2.989e-09
  0.10905     77.5 1.340e+04 2.342e-09
  0.11917     78.0 1.303e+04 1.947e-09
  0.14024     78.3 1.244e+04 1.460e-09
  0.17988     80.1 1.176e+04 9.979e-10
  0.20011     81.3 1.167e+04 1.030e-09
  0.22126     83.4 1.135e+04 8.064e-10
  0.26172     85.4 1.111e+04 6.111e-10
  0.30218     87.6 1.095e+04 4.789e-10
  0.32458     89.8 1.083e+04 4.102e-10
  0.34353     90.4 1.096e+04 5.853e-10
  0.36159     91.5 1.141e+04 9.172e-10
  0.38310     93.8 1.152e+04 9.727e-10
  0.42356     96.1 1.165e+04 1.029e-09
  0.46402     98.4 1.172e+04 1.058e-09
  0.50285    100.5 1.172e+04 1.051e-09
  0.52308    101.0 1.212e+04 1.406e-09
  0.54494    103.1 1.202e+04 1.324e-09
  0.58540    105.2 1.184e+04 1.181e-09
  0.62586    107.4 1.159e+04 1.018e-09
  0.66433    109.6 1.133e+04 8.728e-10
  0.68456    110.2 1.136e+04 8.991e-10
  0.70678    112.8 1.121e+04 8.046e-10
  0.73152    113.9 1.114e+04 7.671e-10
  0.74153    113.9 1.094e+04 6.724e-10
  0.75500    115.1 1.094e+04 6.872e-10
  0.76511    115.4 1.072e+04 6.116e-10
  0.77739    116.7 1.069e+04 6.115e-10
  0.79762    118.0 1.068e+04 6.213e-10
  0.81785    119.2 1.068e+04 6.427e-10
  0.83574    120.5 1.070e+04 6.771e-10
  0.84586    120.9 1.041e+04 5.020e-10
  0.85830    122.1 1.044e+04 5.333e-10
  0.87853    123.4 1.051e+04 5.820e-10
  0.89876    124.6 1.060e+04 6.472e-10
  0.91648    126.0 1.070e+04 7.193e-10
  0.92660    126.0 1.036e+04 4.789e-10
  0.93494    127.4 1.046e+04 5.343e-10
  0.94505    127.1 1.017e+04 3.984e-10
  0.95945    128.3 1.023e+04 4.214e-10
  0.97968    129.5 1.029e+04 4.480e-10
  0.99723    130.6 1.037e+04 4.761e-10
  1.00734    130.5 1.006e+04 3.494e-10
  1.02014    131.6 1.010e+04 3.665e-10
  1.04037    132.5 1.016e+04 3.877e-10
  1.06060    133.4 1.023e+04 4.163e-10
  1.07797    134.2 1.034e+04 4.532e-10
  1.08808    134.3 1.003e+04 3.624e-10
  1.10106    135.0 1.014e+04 4.033e-10
  1.12129    135.6 1.031e+04 4.582e-10
  1.13845    136.2 1.049e+04 5.181e-10
  1.14857    136.3 1.018e+04 4.244e-10
  1.15871    136.8 1.036e+04 4.756e-10
  1.16883    137.2 1.035e+04 4.819e-10
  1.18198    137.5 1.057e+04 5.576e-10
  1.20221    137.6 1.074e+04 6.310e-10
  1.22244    137.7 1.088e+04 7.053e-10
  1.23946    137.7 1.100e+04 7.849e-10
  1.24957    138.2 1.128e+04 9.736e-10
  1.26290    138.2 1.141e+04 1.074e-09
  1.28313    138.2 1.144e+04 1.127e-09
  1.30336    138.2 1.142e+04 1.127e-09
  1.32020    138.3 1.136e+04 1.104e-09
  1.33031    138.8 1.160e+04 1.250e-09
  1.34197    138.9 1.145e+04 1.157e-09
  1.35209    139.3 1.137e+04 1.162e-09
  1.36405    139.5 1.123e+04 1.086e-09
  1.38428    139.7 1.108e+04 1.023e-09
  1.40094    140.1 1.101e+04 9.885e-10
  1.41106    140.2 1.103e+04 9.951e-10
  1.42474    140.6 1.103e+04 9.925e-10
  1.44497    141.1 1.109e+04 1.008e-09
  1.46520    141.2 1.127e+04 1.077e-09
  1.48168    141.2 1.169e+04 1.254e-09
  1.49180    141.0 1.178e+04 1.200e-09
  1.50566    140.5 1.250e+04 1.577e-09
  1.52589    139.9 1.339e+04 2.254e-09
  1.54549    139.2 1.440e+04 3.371e-09
  1.55561    140.2 1.279e+04 1.912e-09
  1.56243    139.3 1.383e+04 3.021e-09
  1.57254    139.0 1.367e+04 2.714e-09
  1.58658    138.6 1.450e+04 3.901e-09
  1.60681    138.3 1.506e+04 4.499e-09
  1.62704    137.7 1.512e+04 4.440e-09
  1.64317    136.9 1.503e+04 3.912e-09
  1.65329    136.5 1.464e+04 3.461e-09
  1.66750    135.1 1.469e+04 3.128e-09
  1.68773    132.8 1.495e+04 3.168e-09
  1.70796    130.0 1.546e+04 3.477e-09
  1.72308    129.2 1.558e+04 3.761e-09
  1.72887    128.6 1.584e+04 4.182e-09
  1.73393    128.7 1.559e+04 4.210e-09
  1.74326    127.8 1.618e+04 5.112e-09
  1.75338    126.4 1.708e+04 6.941e-09
  1.75903    124.8 1.830e+04 1.019e-08
  1.76408    125.5 1.784e+04 8.248e-09
  1.76924    123.7 1.930e+04 1.288e-08
  1.77430    124.1 1.890e+04 1.223e-08
  1.78372    122.2 2.044e+04 1.972e-08
  1.79384    120.3 2.169e+04 3.258e-08
  1.80395    118.4 2.235e+04 5.252e-08
  1.80962    116.8 2.261e+04 7.748e-08
  1.81467    117.3 2.239e+04 7.573e-08
  1.82418    116.0 2.286e+04 9.894e-08
  1.83430    113.9 2.319e+04 1.005e-07
  1.84441    111.7 2.317e+04 9.199e-08
  1.84999    110.4 2.265e+04 6.502e-08
  1.85505    111.0 2.235e+04 6.291e-08
  1.86079    110.2 2.162e+04 3.829e-08
  1.86584    110.5 2.205e+04 5.329e-08
  1.87475    109.7 2.105e+04 2.807e-08
  1.88535    106.9 1.897e+04 9.241e-09
  1.89551    108.1 1.893e+04 1.002e-08
  1.91025    104.4 1.576e+04 3.472e-09
  1.93048    100.2 1.311e+04 1.662e-09
  1.95071     98.4 1.251e+04 1.333e-09
  1.96264     98.4 1.235e+04 1.255e-09
  1.96796     98.5 1.258e+04 1.705e-09
  1.97626     98.6 1.236e+04 1.285e-09
  1.99117     98.6 1.229e+04 1.272e-09
  2.01140     98.5 1.229e+04 1.272e-09
  2.03163     98.2 1.233e+04 1.281e-09
  2.04689     97.8 1.232e+04 1.276e-09
  2.05700     98.0 1.190e+04 1.019e-09
  2.07209     97.6 1.178e+04 1.012e-09
  2.09232     97.3 1.169e+04 1.007e-09
  2.11255     97.0 1.162e+04 1.013e-09
  2.12763     96.9 1.160e+04 1.024e-09
  2.13774     97.3 1.143e+04 9.237e-10
  2.16322     97.1 1.147e+04 9.562e-10
  2.19357     96.8 1.155e+04 9.924e-10
  2.20837     96.6 1.158e+04 9.981e-10
  2.21849     97.2 1.157e+04 1.005e-09
  2.23393     96.9 1.168e+04 1.058e-09
  2.25416     96.5 1.174e+04 1.087e-09
  2.27439     96.2 1.172e+04 1.069e-09
  2.28911     96.0 1.164e+04 1.004e-09
  2.29923     96.6 1.184e+04 1.187e-09
  2.31485     96.4 1.177e+04 1.125e-09
  2.33508     96.3 1.166e+04 1.034e-09
  2.35531     96.1 1.157e+04 9.562e-10
  2.36968     95.9 1.155e+04 9.186e-10
  2.37411     94.7 1.146e+04 8.483e-10
  2.37997     95.5 1.177e+04 1.032e-09
  2.39577     95.3 1.165e+04 9.673e-10
  2.41600     95.2 1.162e+04 9.569e-10
  2.43623     94.9 1.165e+04 9.690e-10
  2.45060     94.1 1.184e+04 1.043e-09
  2.46072     94.4 1.195e+04 1.099e-09
  2.47669     92.7 1.236e+04 1.306e-09
  2.49692     90.5 1.302e+04 1.753e-09
  2.51715     87.9 1.365e+04 2.450e-09
  2.53134     85.1 1.411e+04 2.975e-09
  2.54146     85.4 1.401e+04 3.064e-09
  2.55761     82.9 1.400e+04 3.050e-09
  2.57320     80.6 1.388e+04 2.904e-09
  2.58331     77.6 1.432e+04 3.064e-09
  2.59807     75.1 1.400e+04 2.645e-09
  2.61209     73.1 1.356e+04 2.279e-09
  2.62220     74.3 1.323e+04 2.137e-09
  2.63853     73.5 1.302e+04 1.953e-09
  2.65876     73.1 1.294e+04 1.820e-09
  2.68920     74.4 1.268e+04 1.592e-09
  2.72976     74.2 1.217e+04 1.316e-09
  2.76365     74.4 1.168e+04 1.113e-09
  2.78046     76.2 1.184e+04 1.353e-09
  2.78703     73.2 1.153e+04 1.212e-09
  2.81068     74.2 1.119e+04 1.013e-09
  2.85114     75.3 1.090e+04 8.524e-10
  2.89160     76.1 1.064e+04 7.343e-10
  2.92514     76.7 1.036e+04 6.345e-10
  2.94537     78.5 1.089e+04 8.036e-10
  2.97251     78.7 1.039e+04 6.334e-10
  3.01297     79.2 9.991e+03 4.974e-10
  3.05343     80.0 9.631e+03 3.652e-10
  3.08662     81.0 9.305e+03 2.423e-10
  3.10685     81.8 9.506e+03 3.137e-10
  3.13435     83.0 9.230e+03 1.978e-10
  3.17383     84.1 9.042e+03 1.143e-10
  3.19406     83.6 8.686e+03 7.826e-11
  3.21527     84.7 8.654e+03 5.586e-11
  3.24811     86.1 8.665e+03 5.352e-11
  3.26834     86.5 8.906e+03 9.560e-11
  3.29619     87.7 8.931e+03 9.737e-11
  3.33665     88.8 9.071e+03 1.077e-10
  3.37711     90.1 9.264e+03 1.306e-10
  3.40960     91.3 9.365e+03 1.555e-10
  3.42983     91.3 1.013e+04 3.737e-10
  3.45803     92.4 1.009e+04 3.602e-10
  3.49849     93.5 9.958e+03 3.188e-10
  3.53895     94.7 9.777e+03 2.617e-10
  3.57108     95.9 9.575e+03 2.059e-10
  3.59131     95.7 9.898e+03 2.542e-10
  3.60110     96.7 9.579e+03 1.836e-10
  3.62133     96.7 9.439e+03 1.479e-10
  3.66033     97.9 9.354e+03 1.354e-10
  3.70079     99.3 9.355e+03 1.360e-10
  3.73257    100.8 9.379e+03 1.418e-10
  3.75280    100.3 9.527e+03 1.565e-10
  3.78171    101.6 9.610e+03 1.797e-10
  3.82217    102.7 9.799e+03 2.170e-10
  3.86263    103.7 1.002e+04 2.651e-10
  3.89405    104.4 1.022e+04 3.168e-10
  3.91428    103.7 1.031e+04 2.922e-10
  3.94355    104.2 1.039e+04 2.902e-10
  3.98400    104.5 1.044e+04 2.814e-10
  4.00813    104.5 1.047e+04 2.654e-10
  4.02836    104.3 1.075e+04 2.941e-10
  4.05554    104.1 1.075e+04 2.732e-10
  4.07577    103.7 1.062e+04 1.981e-10
  4.10538    103.7 1.069e+04 1.854e-10
  4.14584    103.9 1.071e+04 1.805e-10
  4.18630    104.1 1.070e+04 1.743e-10
  4.21703    104.7 1.064e+04 1.621e-10
  4.23726    105.5 1.067e+04 1.335e-10
  4.26722    106.1 1.061e+04 1.314e-10
  4.30768    106.9 1.054e+04 1.253e-10
  4.34814    107.6 1.043e+04 1.138e-10
  4.37851    108.2 1.033e+04 9.857e-11
  4.39874    109.1 1.042e+04 1.124e-10
  4.41517    109.8 1.030e+04 1.013e-10
  4.43540    110.0 1.027e+04 8.973e-11
  4.46952    110.8 1.017e+04 7.999e-11
  4.50998    111.5 1.007e+04 7.472e-11
  4.54000    112.4 9.969e+03 7.309e-11
  4.56023    113.4 1.008e+04 8.375e-11
  4.59090    114.3 1.001e+04 8.036e-11
  4.63136    115.1 9.927e+03 7.952e-11
  4.67182    115.9 9.914e+03 7.978e-11
  4.70148    116.6 9.901e+03 8.177e-11
  4.72171    117.5 9.958e+03 8.527e-11
  4.75274    118.2 9.949e+03 9.146e-11
  4.79320    118.6 9.980e+03 1.124e-10
  4.82221    118.9 1.005e+04 1.527e-10
  4.84244    119.5 1.003e+04 1.430e-10
  4.86297    119.8 1.014e+04 2.052e-10
  4.88320    120.8 1.015e+04 1.887e-10
  4.91458    121.0 1.024e+04 2.511e-10
  4.95504    121.2 1.027e+04 2.697e-10
  4.99549    121.3 1.026e+04 2.658e-10
  5.02446    121.6 1.017e+04 2.433e-10
  5.04469    122.5 1.018e+04 2.441e-10
  5.07641    123.0 1.003e+04 2.055e-10
  5.11687    123.6 9.858e+03 1.580e-10
  5.15733    124.3 9.730e+03 1.189e-10
  5.18594    125.0 9.641e+03 9.435e-11
  5.20617    126.0 9.648e+03 9.616e-11
  5.22924    126.7 9.606e+03 8.359e-11
  5.24947    127.1 9.598e+03 9.798e-11
  5.27871    127.8 9.589e+03 9.866e-11
  5.31917    128.6 9.563e+03 1.001e-10
  5.34743    129.4 9.549e+03 1.002e-10
  5.36766    130.3 9.531e+03 9.585e-11
  5.40009    131.0 9.494e+03 9.504e-11
  5.44055    131.8 9.383e+03 8.987e-11
  5.48101    132.8 9.266e+03 7.730e-11
  5.50891    133.8 9.163e+03 6.135e-11
  5.52914    134.6 9.155e+03 6.108e-11
  5.56193    135.7 9.046e+03 4.530e-11
  5.60239    136.8 8.911e+03 3.493e-11
  5.63628    138.0 8.729e+03 3.254e-11
  5.65651    138.0 8.726e+03 3.083e-11
  5.67040    139.5 8.713e+03 3.081e-11
  5.69063    140.3 8.688e+03 2.811e-11
  5.72377    141.9 8.680e+03 2.832e-11
  5.76423    143.4 8.655e+03 2.949e-11
  5.80469    144.9 8.627e+03 3.205e-11
  5.83189    146.4 8.593e+03 3.555e-11
  5.85212    147.4 8.580e+03 3.099e-11
  5.88561    148.9 8.541e+03 3.361e-11
  5.92607    150.6 8.508e+03 3.608e-11
  5.96653    152.2 8.487e+03 3.821e-11
  5.99337    153.9 8.481e+03 4.008e-11
  6.01360    154.7 8.549e+03 3.137e-11
  6.04332    156.3 8.561e+03 3.209e-11
  6.06355    156.2 8.579e+03 2.914e-11
  6.08790    157.7 8.587e+03 3.114e-11
  6.12836    159.2 8.600e+03 3.449e-11
  6.15486    160.7 8.627e+03 3.923e-11
  6.17509    161.3 8.571e+03 3.428e-11
  6.20928    162.7 8.585e+03 4.118e-11
  6.24974    164.2 8.611e+03 5.052e-11
  6.29020    165.6 8.657e+03 6.242e-11
  6.31634    167.1 8.732e+03 7.693e-11
  6.33657    167.9 8.688e+03 7.407e-11
  6.37112    169.4 8.788e+03 8.763e-11
  6.41158    170.8 8.924e+03 9.972e-11
  6.45035    172.0 9.079e+03 1.068e-10
  6.47058    171.5 9.128e+03 1.017e-10
  6.47783    172.5 9.143e+03 9.998e-11
  6.49806    173.2 8.974e+03 9.489e-11
  6.53296    174.4 8.987e+03 8.769e-11
  6.57342    175.5 8.979e+03 7.878e-11
  6.61388    176.6 8.952e+03 7.008e-11
  6.63932    177.7 8.909e+03 6.328e-11
  6.65955    178.6 8.730e+03 6.914e-11
  6.69480    179.9 8.708e+03 6.579e-11
  6.73526    181.3 8.711e+03 6.545e-11
  6.77572    182.7 8.724e+03 6.598e-11
  6.80080    184.1 8.770e+03 6.808e-11
  6.82103    185.2 8.761e+03 6.641e-11
  6.85664    186.6 8.829e+03 7.018e-11
  6.87762    187.9 8.926e+03 7.556e-11
  6.89785    187.4 8.993e+03 7.143e-11
  6.93756    188.5 9.113e+03 7.810e-11
  6.96229    189.5 9.244e+03 8.806e-11
  6.98252    190.6 9.257e+03 7.595e-11
  7.01848    191.6 9.382e+03 8.438e-11
  7.05893    192.4 9.476e+03 9.865e-11
  7.09939    193.1 9.552e+03 1.246e-10
  7.12377    193.9 9.664e+03 1.652e-10
  7.14400    195.2 9.595e+03 1.246e-10
  7.18031    196.1 9.808e+03 1.706e-10
  7.22077    196.7 1.016e+04 2.439e-10
  7.25102    196.6 1.037e+04 2.950e-10
  7.27115    196.4 1.063e+04 3.817e-10
  7.28446    196.1 1.099e+04 5.933e-10
  7.28826    195.3 1.111e+04 7.243e-10
  7.29518    196.2 1.112e+04 5.633e-10
  7.31161    196.1 1.155e+04 1.017e-09
  7.33184    196.2 1.205e+04 1.657e-09
  7.35207    196.3 1.262e+04 2.265e-09
  7.36581    196.3 1.332e+04 2.371e-09
  7.37592    197.1 1.339e+04 2.893e-09
  7.39253    196.9 1.379e+04 2.862e-09
  7.41276    195.7 1.395e+04 2.673e-09
  7.43299    193.5 1.416e+04 2.024e-09
  7.44655    190.5 1.378e+04 1.300e-09
  7.45667    192.0 1.449e+04 1.862e-09
  7.47345    188.2 1.368e+04 1.113e-09
  7.48798    184.0 1.222e+04 7.441e-10
  7.49809    182.5 1.160e+04 7.233e-10
  7.51391    180.1 1.114e+04 6.876e-10
  7.52729    178.7 1.103e+04 6.720e-10
  7.53741    178.2 1.115e+04 7.747e-10
  7.55437    177.4 1.106e+04 7.354e-10
  7.57460    176.9 1.098e+04 6.664e-10
  7.59483    176.6 1.085e+04 5.831e-10
  7.60804    176.3 1.079e+04 5.341e-10
  7.61815    176.1 1.106e+04 6.387e-10
  7.63529    175.6 1.117e+04 6.527e-10
  7.65552    174.2 1.171e+04 7.505e-10
  7.67575    170.7 1.344e+04 1.290e-09
  7.68878    167.7 1.504e+04 2.612e-09
  7.69441    167.0 1.565e+04 4.212e-09
  7.70156    166.3 1.630e+04 5.902e-09
  7.71105    165.3 1.706e+04 7.849e-09
  7.72117    164.0 1.807e+04 1.168e-08
  7.72905    162.8 1.900e+04 1.841e-08
  7.73411    163.6 1.901e+04 2.000e-08
  7.74140    162.6 1.982e+04 2.908e-08
  7.75151    161.7 2.036e+04 3.805e-08
  7.76163    160.6 2.077e+04 4.279e-08
  7.76943    159.1 2.086e+04 4.222e-08
  7.77448    159.5 2.049e+04 3.109e-08
  7.78186    157.7 2.052e+04 2.859e-08
  7.79197    155.6 2.041e+04 2.364e-08
  7.79822    153.5 2.018e+04 1.985e-08
  7.80327    153.1 2.005e+04 1.696e-08
  7.81731    149.6 1.915e+04 1.189e-08
  7.83759    144.5 1.744e+04 8.172e-09
  7.85027    140.8 1.564e+04 6.160e-09
  7.86038    141.0 1.521e+04 5.082e-09
  7.87805    139.3 1.450e+04 4.786e-09
  7.89502    139.0 1.423e+04 4.454e-09
  7.90513    139.0 1.412e+04 4.191e-09
  7.91851    139.0 1.396e+04 3.667e-09
  7.93101    138.6 1.372e+04 2.833e-09
  7.94112    138.8 1.398e+04 3.482e-09
  7.95897    138.2 1.373e+04 2.717e-09
  7.97920    137.1 1.335e+04 1.987e-09
  7.99943    135.7 1.287e+04 1.583e-09
  8.01175    134.3 1.262e+04 1.540e-09
  8.02187    135.0 1.297e+04 1.795e-09
  8.03988    133.7 1.295e+04 1.805e-09
  8.06011    132.5 1.293e+04 1.898e-09
  8.08034    131.3 1.307e+04 2.104e-09
  8.09250    129.9 1.334e+04 2.317e-09
  8.10057    130.1 1.401e+04 3.086e-09
  8.10865    130.1 1.404e+04 3.094e-09
  8.12080    127.9 1.456e+04 3.551e-09
  8.14103    125.5 1.481e+04 3.893e-09
  8.16126    123.1 1.478e+04 3.923e-09
  8.17324    120.8 1.461e+04 3.851e-09
  8.18335    121.4 1.544e+04 5.530e-09
  8.20172    119.8 1.484e+04 4.646e-09
  8.22195    118.5 1.388e+04 3.292e-09
  8.24218    116.8 1.299e+04 2.225e-09
  8.25398    114.0 1.309e+04 2.136e-09
  8.26410    114.4 1.302e+04 1.978e-09
  8.28264    109.9 1.351e+04 2.227e-09
  8.30205    105.1 1.515e+04 3.763e-09
  8.31217    104.8 1.503e+04 3.685e-09
  8.31800    103.2 1.592e+04 5.213e-09
  8.32806    101.9 1.676e+04 7.505e-09
  8.33463    100.9 1.755e+04 1.105e-08
  8.33968    101.2 1.744e+04 1.049e-08
  8.34829    100.6 1.819e+04 1.547e-08
  8.35841    100.4 1.903e+04 2.104e-08
  8.36852    100.0 1.989e+04 2.292e-08
  8.37500     99.0 1.998e+04 2.210e-08
  8.38006     99.3 2.029e+04 2.767e-08
  8.38875     98.2 2.030e+04 2.635e-08
  8.40397     97.0 1.974e+04 1.788e-08
  8.41547     95.9 1.878e+04 9.765e-09
  8.42558     95.3 1.945e+04 1.753e-08
  8.44448     94.0 1.830e+04 9.014e-09
  8.46471     92.2 1.659e+04 3.506e-09
  8.48494     88.6 1.382e+04 1.168e-09
  8.49621     85.1 1.072e+04 5.704e-10
  8.50633     89.1 1.427e+04 1.316e-09
  8.51569     85.6 1.173e+04 6.445e-10
  8.52580     84.2 1.084e+04 5.801e-10
  8.54563     81.3 1.090e+04 6.262e-10
  8.56586     77.6 1.181e+04 1.000e-09
  8.57695     75.1 1.312e+04 2.182e-09
  8.58707     75.0 1.312e+04 2.056e-09
  8.60632     74.5 1.427e+04 4.076e-09
  8.62655     74.3 1.515e+04 5.911e-09
  8.64678     73.6 1.556e+04 6.003e-09
  8.65770     72.5 1.556e+04 5.045e-09
  8.66781     71.1 1.595e+04 5.478e-09
  8.68724     68.5 1.564e+04 3.474e-09
  8.70747     64.6 1.437e+04 1.693e-09
  8.71920     61.3 1.258e+04 1.031e-09
  8.72932     61.3 1.197e+04 7.866e-10
  8.73854     60.5 1.078e+04 5.727e-10
  8.75886     60.1 1.142e+04 7.095e-10
  8.79870     59.0 9.778e+03 3.331e-10
  8.83916     58.7 9.749e+03 2.362e-10
  8.87962     59.3 9.706e+03 2.336e-10
  8.90012     60.2 9.745e+03 2.466e-10
  8.91308     59.6 9.829e+03 2.591e-10
  8.93303     59.8 1.003e+04 3.235e-10
  8.96054     60.7 1.036e+04 4.433e-10
  9.00100     61.8 1.080e+04 6.372e-10
  9.04138     63.0 1.112e+04 8.103e-10
  9.08184     63.9 1.137e+04 9.075e-10
  9.12237     65.0 1.129e+04 8.493e-10
  9.16283     66.1 1.109e+04 7.524e-10
  9.20286     67.3 1.091e+04 6.658e-10
  9.22309     67.5 1.077e+04 5.898e-10
  9.24375     68.9 1.065e+04 5.259e-10
  9.27400     69.7 1.051e+04 4.894e-10
  9.29353     69.9 1.048e+04 4.829e-10
  9.30364     69.9 1.051e+04 4.676e-10
  9.31974     71.1 1.037e+04 4.612e-10
  9.34007     71.1 1.015e+04 3.621e-10
  9.36435     72.7 9.970e+03 3.132e-10
  9.38458     72.8 1.005e+04 3.188e-10
  9.40559     74.1 1.003e+04 3.017e-10
  9.44605     75.0 1.004e+04 2.907e-10
  9.47630     75.3 1.021e+04 3.306e-10
  9.49643     75.4 1.034e+04 3.691e-10
  9.51666     75.1 1.056e+04 4.334e-10
  9.53328     74.6 1.098e+04 5.494e-10
  9.54226     75.4 1.063e+04 4.456e-10
  9.54587     74.8 1.124e+04 6.589e-10
  9.55712     73.9 1.191e+04 9.156e-10
  9.57735     72.6 1.264e+04 1.368e-09
  9.59758     71.6 1.322e+04 2.056e-09
  9.61650     71.1 1.360e+04 2.814e-09
  9.62661     71.0 1.393e+04 3.385e-09
  9.63804     70.6 1.391e+04 3.325e-09
  9.65827     70.2 1.375e+04 3.043e-09
  9.67850     69.6 1.334e+04 2.105e-09
  9.69724     69.0 1.292e+04 1.398e-09
  9.70736     67.9 1.257e+04 1.138e-09
  9.71896     66.5 1.192e+04 7.284e-10
  9.73680     65.0 1.136e+04 4.906e-10
  9.74691     66.8 1.185e+04 7.010e-10
  9.76963     64.7 1.127e+04 4.620e-10
  9.81019     60.9 1.032e+04 3.707e-10
  9.84881     56.7 1.048e+04 4.954e-10
  9.86904     56.6 1.048e+04 5.618e-10
  9.89111     53.2 1.111e+04 9.225e-10
  9.93157     50.4 1.160e+04 1.267e-09
  9.97203     47.5 1.165e+04 1.264e-09
 10.01029     44.3 1.143e+04 1.093e-09
 10.03052     44.8 1.102e+04 9.345e-10
 10.05295     42.3 1.084e+04 8.613e-10
 10.09341     39.9 1.064e+04 7.666e-10
 10.12365     39.4 1.048e+04 6.942e-10
 10.14378     38.5 1.032e+04 6.139e-10
 10.16401     37.7 1.007e+04 5.147e-10
 10.18170     36.6 9.838e+03 4.314e-10
 10.19191     38.3 9.777e+03 4.135e-10
 10.21478     36.8 9.516e+03 3.519e-10
 10.24503     35.9 9.463e+03 3.586e-10
 10.26244     35.6 9.470e+03 3.674e-10
 10.27256     36.6 9.467e+03 3.892e-10
 10.28539     36.3 9.685e+03 4.346e-10
 10.30562     34.4 1.102e+04 6.409e-10
 10.32585     29.5 1.385e+04 1.507e-09
 10.34318     21.7 1.715e+04 5.758e-09
 10.35330     21.8 1.810e+04 6.966e-09
 10.35746     20.0 1.829e+04 1.621e-08
 10.36758     19.1 1.825e+04 1.481e-08
 10.38654     20.3 1.804e+04 1.776e-08
 10.40677     21.3 1.778e+04 1.259e-08
 10.42393     18.8 1.866e+04 5.252e-09
 10.43404     19.8 1.966e+04 5.324e-09
 10.44723     10.1 1.667e+04 1.531e-09
