# Columns:
#   distance along LOS (in CHIMPs)
#   peculiar velocity  (in km/s)
#   temperature (K)
#   HI number density
# pos=(136.816,195.221,26.7783), angles=(1.64154,3.17861)
  0.00528     29.3 1.594e+04 3.297e-09
  0.02036     29.6 1.533e+04 2.721e-09
  0.03995     30.2 1.494e+04 2.227e-09
  0.05628     31.0 1.453e+04 1.849e-09
  0.06608     29.0 1.391e+04 1.565e-09
  0.07914     30.1 1.348e+04 1.357e-09
  0.09873     31.7 1.306e+04 1.175e-09
  0.11832     33.0 1.278e+04 1.061e-09
  0.13792     34.7 1.249e+04 9.179e-10
  0.15751     36.0 1.237e+04 8.312e-10
  0.17711     37.8 1.215e+04 7.196e-10
  0.19670     38.9 1.211e+04 6.702e-10
  0.22619     40.6 1.172e+04 5.394e-10
  0.26547     43.2 1.120e+04 3.658e-10
  0.30466     45.6 1.103e+04 2.535e-10
  0.34385     47.6 1.079e+04 1.761e-10
  0.38303     48.8 1.043e+04 1.532e-10
  0.42222     50.0 1.030e+04 1.742e-10
  0.46141     51.4 1.072e+04 3.061e-10
  0.49070     51.8 1.218e+04 6.348e-10
  0.51020     52.6 1.250e+04 8.373e-10
  0.52979     54.8 1.310e+04 9.750e-10
  0.54938     56.0 1.354e+04 1.224e-09
  0.56898     58.0 1.367e+04 1.248e-09
  0.58857     59.5 1.382e+04 1.353e-09
  0.60691     61.2 1.384e+04 1.419e-09
  0.62660     63.7 1.127e+04 7.117e-10
  0.64745     64.8 1.182e+04 8.216e-10
  0.66695     65.8 1.183e+04 8.168e-10
  0.68654     66.9 1.175e+04 7.870e-10
  0.70613     67.8 1.157e+04 7.503e-10
  0.72573     68.9 1.141e+04 7.226e-10
  0.74532     70.0 1.131e+04 7.140e-10
  0.76491     71.1 1.148e+04 7.065e-10
  0.78451     71.8 1.150e+04 7.057e-10
  0.81400     74.8 1.144e+04 6.225e-10
  0.85328     77.4 1.179e+04 7.012e-10
  0.89247     79.9 1.220e+04 8.667e-10
  0.92401     82.5 1.255e+04 1.096e-09
  0.94350     81.6 1.304e+04 1.625e-09
  0.96085     82.9 1.315e+04 1.777e-09
  0.98044     84.5 1.324e+04 1.899e-09
  1.00004     85.7 1.330e+04 1.994e-09
  1.01963     87.3 1.329e+04 1.988e-09
  1.04912     88.6 1.348e+04 2.155e-09
  1.08841     90.9 1.328e+04 1.841e-09
  1.12759     93.1 1.291e+04 1.546e-09
  1.15773     95.1 1.266e+04 1.402e-09
  1.17732     96.3 1.209e+04 9.904e-10
  1.20597     98.0 1.218e+04 9.287e-10
  1.24515     98.9 1.244e+04 1.001e-09
  1.27445     99.3 1.272e+04 1.124e-09
  1.29394     99.5 1.299e+04 1.303e-09
  1.31354     99.9 1.323e+04 1.476e-09
  1.33313    100.1 1.358e+04 1.913e-09
  1.35272    100.6 1.388e+04 2.314e-09
  1.37232    100.9 1.413e+04 2.682e-09
  1.39191    101.3 1.425e+04 2.918e-09
  1.41150    101.7 1.436e+04 3.066e-09
  1.43110    102.0 1.434e+04 3.030e-09
  1.44264    102.2 1.411e+04 2.620e-09
  1.45244    103.4 1.423e+04 2.857e-09
  1.46264    103.5 1.395e+04 2.372e-09
  1.47244    100.7 1.289e+04 1.440e-09
  1.48988     99.8 1.201e+04 9.914e-10
  1.50947     98.7 1.099e+04 6.895e-10
  1.52907     97.7 1.024e+04 5.148e-10
  1.54866     97.0 9.911e+03 4.365e-10
  1.56825     96.7 9.792e+03 4.089e-10
  1.58785     96.6 9.760e+03 4.011e-10
  1.60744     96.5 9.767e+03 4.033e-10
  1.62704     96.4 9.817e+03 4.125e-10
  1.64663     96.1 9.901e+03 4.324e-10
  1.66622     95.8 1.002e+04 4.609e-10
  1.68582     95.5 1.016e+04 4.916e-10
  1.70541     94.8 1.034e+04 5.234e-10
  1.71796     93.6 1.058e+04 5.665e-10
  1.72776     95.7 1.049e+04 5.548e-10
  1.74460     94.0 1.083e+04 6.131e-10
  1.76419     91.8 1.125e+04 7.329e-10
  1.78378     89.5 1.168e+04 9.147e-10
  1.80338     87.2 1.209e+04 1.140e-09
  1.82297     84.5 1.274e+04 1.440e-09
  1.84257     80.2 1.414e+04 1.969e-09
  1.86216     74.3 1.584e+04 2.945e-09
  1.88175     68.5 1.626e+04 3.877e-09
  1.90135     63.7 1.603e+04 3.803e-09
  1.92094     60.6 1.500e+04 3.404e-09
  1.94053     58.0 1.416e+04 2.430e-09
  1.96013     54.0 1.370e+04 1.589e-09
  1.97972     48.0 1.319e+04 1.045e-09
  1.99167     42.0 1.194e+04 7.836e-10
  1.99543     42.4 1.180e+04 7.606e-10
  2.00307     46.6 1.238e+04 8.166e-10
  2.01891     41.8 1.111e+04 6.241e-10
  2.03850     39.4 1.026e+04 5.044e-10
  2.05810     38.3 9.969e+03 4.936e-10
  2.07769     35.2 1.163e+04 6.475e-10
  2.09728     29.3 1.398e+04 1.071e-09
  2.11193     25.3 1.440e+04 1.552e-09
  2.12168     22.8 1.640e+04 1.766e-09
  2.13083     11.3 2.413e+04 5.169e-09
  2.13573     12.9 2.348e+04 4.259e-09
  2.14127      2.2 2.737e+04 1.614e-08
  2.15107     -3.6 2.651e+04 4.327e-08
  2.16086     -6.9 2.623e+04 5.789e-08
  2.17066     -9.9 2.662e+04 4.933e-08
  2.18046    -13.2 2.834e+04 3.321e-08
  2.19025    -16.7 3.215e+04 1.624e-08
  2.20005    -23.2 3.457e+04 7.128e-09
  2.21480    -31.5 3.190e+04 3.930e-09
  2.23444    -47.6 1.892e+04 1.801e-09
  2.25403    -53.6 1.393e+04 1.605e-09
  2.26859    -55.1 1.353e+04 1.384e-09
  2.27838    -55.7 1.370e+04 1.393e-09
  2.29322    -57.1 1.337e+04 1.212e-09
  2.31281    -57.9 1.325e+04 1.116e-09
  2.33241    -58.4 1.321e+04 1.010e-09
  2.35200    -58.9 1.306e+04 9.226e-10
  2.37159    -59.2 1.292e+04 8.698e-10
  2.39119    -59.4 1.283e+04 8.504e-10
  2.41078    -59.4 1.278e+04 8.522e-10
  2.43037    -59.2 1.275e+04 8.608e-10
  2.44997    -59.0 1.271e+04 8.663e-10
  2.46956    -58.7 1.266e+04 8.681e-10
  2.48916    -58.2 1.256e+04 8.461e-10
  2.50875    -57.6 1.244e+04 7.922e-10
  2.52071    -57.2 1.237e+04 7.407e-10
  2.53050    -56.7 1.230e+04 7.487e-10
  2.54390    -56.2 1.222e+04 7.094e-10
  2.55370    -56.9 1.235e+04 7.672e-10
  2.56753    -56.5 1.227e+04 7.255e-10
  2.58712    -56.1 1.222e+04 7.044e-10
  2.60672    -55.6 1.215e+04 6.869e-10
  2.62631    -55.2 1.213e+04 6.848e-10
  2.64590    -54.8 1.209e+04 6.887e-10
  2.66550    -54.4 1.203e+04 6.645e-10
  2.69499    -54.0 1.184e+04 5.867e-10
  2.73427    -53.1 1.149e+04 5.242e-10
  2.77346    -52.6 1.120e+04 4.672e-10
  2.80961    -52.1 1.100e+04 4.125e-10
  2.82921    -52.9 1.082e+04 3.566e-10
  2.85183    -52.4 1.050e+04 2.836e-10
  2.89102    -51.7 1.019e+04 2.309e-10
  2.93021    -50.8 9.943e+03 1.987e-10
  2.96940    -49.6 9.784e+03 1.794e-10
  3.00858    -48.3 9.671e+03 1.670e-10
  3.04014    -46.9 9.587e+03 1.613e-10
  3.05973    -46.0 9.656e+03 1.690e-10
  3.08696    -44.5 9.595e+03 1.657e-10
  3.12614    -42.8 9.522e+03 1.686e-10
  3.16533    -41.1 9.564e+03 1.740e-10
  3.20452    -39.6 9.689e+03 1.853e-10
  3.24371    -38.3 9.919e+03 2.166e-10
  3.28289    -37.2 1.019e+04 2.829e-10
  3.32208    -36.0 1.055e+04 3.897e-10
  3.36024    -34.9 1.095e+04 5.291e-10
  3.37983    -34.4 1.083e+04 4.817e-10
  3.40046    -33.4 1.113e+04 5.989e-10
  3.43964    -32.5 1.132e+04 7.037e-10
  3.47883    -31.6 1.141e+04 7.770e-10
  3.51802    -30.7 1.143e+04 8.018e-10
  3.55720    -29.7 1.124e+04 7.345e-10
  3.59639    -28.6 1.080e+04 5.696e-10
  3.63558    -27.3 1.027e+04 4.002e-10
  3.67477    -25.8 9.743e+03 2.571e-10
  3.71395    -24.0 9.326e+03 1.664e-10
  3.75314    -21.9 9.064e+03 1.178e-10
  3.79233    -19.7 8.886e+03 9.092e-11
  3.83152    -17.5 8.776e+03 7.865e-11
  3.87070    -15.1 8.741e+03 7.551e-11
  3.90989    -12.9 8.806e+03 7.638e-11
  3.93046    -11.3 9.042e+03 9.156e-11
  3.95006     -9.3 9.032e+03 9.178e-11
  3.98827     -8.0 9.231e+03 1.373e-10
  4.02745     -6.7 9.651e+03 2.397e-10
  4.06664     -4.4 1.047e+04 4.324e-10
  4.09593     -3.8 1.034e+04 5.252e-10
  4.10780     -3.2 1.046e+04 5.586e-10
  4.11760     -3.3 1.036e+04 4.918e-10
  4.13502     -2.3 1.055e+04 5.537e-10
  4.15462     -1.8 1.061e+04 5.576e-10
  4.17421     -1.5 1.061e+04 5.536e-10
  4.19380     -1.1 1.049e+04 5.377e-10
  4.20558     -0.5 1.028e+04 4.959e-10
  4.21538      0.1 1.056e+04 6.115e-10
  4.23299      0.9 1.030e+04 5.521e-10
  4.26248      1.6 1.002e+04 4.125e-10
  4.30176      3.2 9.868e+03 3.277e-10
  4.34095      4.4 9.381e+03 2.374e-10
  4.38014      5.8 9.199e+03 1.919e-10
  4.41933      7.3 9.107e+03 1.702e-10
  4.45851      9.0 9.020e+03 1.557e-10
  4.48109     11.0 8.894e+03 1.512e-10
  4.50068     11.7 8.901e+03 1.524e-10
  4.53689     14.2 8.776e+03 1.429e-10
  4.57607     17.0 8.639e+03 1.174e-10
  4.61526     19.5 8.604e+03 8.672e-11
  4.65445     21.4 8.551e+03 7.000e-11
  4.69364     23.6 8.391e+03 6.768e-11
  4.73282     25.9 8.408e+03 7.195e-11
  4.77201     28.4 8.459e+03 8.594e-11
  4.81120     30.9 8.561e+03 1.081e-10
  4.85039     33.4 8.724e+03 1.367e-10
  4.88957     35.5 9.087e+03 1.825e-10
  4.92876     37.0 9.688e+03 2.545e-10
  4.95805     38.0 9.902e+03 3.116e-10
  4.97755     38.0 1.035e+04 4.464e-10
  4.99714     38.0 1.101e+04 6.930e-10
  5.01674     38.0 1.178e+04 1.086e-09
  5.03152     38.4 1.228e+04 1.568e-09
  5.04132     38.6 1.226e+04 1.468e-09
  5.05592     39.2 1.259e+04 1.964e-09
  5.07552     39.7 1.283e+04 2.273e-09
  5.09511     39.5 1.320e+04 2.502e-09
  5.11470     38.4 1.383e+04 2.838e-09
  5.13430     36.5 1.434e+04 3.236e-09
  5.15389     34.7 1.456e+04 3.435e-09
  5.16586     32.0 1.494e+04 3.673e-09
  5.17566     34.2 1.565e+04 5.171e-09
  5.19308     30.2 1.669e+04 5.700e-09
  5.21267     26.3 1.649e+04 5.977e-09
  5.23227     24.2 1.548e+04 5.200e-09
  5.25186     23.2 1.426e+04 3.482e-09
  5.27145     21.4 1.383e+04 2.075e-09
  5.29105     19.1 1.248e+04 1.097e-09
  5.32054     16.2 1.007e+04 4.260e-10
  5.35982     16.4 9.368e+03 3.035e-10
  5.39901     18.0 9.120e+03 2.533e-10
  5.43820     19.8 8.978e+03 2.314e-10
  5.47738     21.9 8.941e+03 2.334e-10
  5.51657     23.8 9.037e+03 2.540e-10
  5.55576     25.6 9.260e+03 3.020e-10
  5.58234     27.3 9.525e+03 3.593e-10
  5.60194     28.1 9.503e+03 3.391e-10
  5.62424     28.1 9.930e+03 4.969e-10
  5.64373     28.8 1.008e+04 6.067e-10
  5.66333     29.5 1.027e+04 7.413e-10
  5.68292     30.4 1.045e+04 8.319e-10
  5.69490     31.1 1.065e+04 8.527e-10
  5.70469     31.7 1.041e+04 7.668e-10
  5.72211     32.3 1.062e+04 8.191e-10
  5.74170     32.7 1.077e+04 8.240e-10
  5.76130     32.7 1.088e+04 8.335e-10
  5.78089     32.3 1.104e+04 8.706e-10
  5.80048     32.0 1.105e+04 8.928e-10
  5.82008     32.1 1.092e+04 8.736e-10
  5.83967     32.3 1.069e+04 8.038e-10
  5.85746     32.6 1.043e+04 6.809e-10
  5.86726     32.6 1.029e+04 6.518e-10
  5.87886     32.7 1.017e+04 5.600e-10
  5.90835     31.8 9.922e+03 4.071e-10
  5.94763     32.3 9.268e+03 2.882e-10
  5.98682     33.5 8.708e+03 1.968e-10
  6.02600     34.8 8.485e+03 1.320e-10
  6.06519     35.9 8.425e+03 1.006e-10
  6.10438     37.2 8.329e+03 9.152e-11
  6.13297     38.9 8.290e+03 8.989e-11
  6.15257     38.9 8.301e+03 9.040e-11
  6.18275     40.8 8.307e+03 9.202e-11
  6.21433     42.7 8.359e+03 9.826e-11
  6.23392     43.0 8.520e+03 1.175e-10
  6.26113     44.8 8.617e+03 1.334e-10
  6.30032     46.7 8.739e+03 1.644e-10
  6.33950     48.9 8.897e+03 2.065e-10
  6.37869     51.1 9.040e+03 2.456e-10
  6.41788     53.3 9.117e+03 2.682e-10
  6.45707     55.3 9.185e+03 2.681e-10
  6.49625     57.1 9.246e+03 2.727e-10
  6.53544     58.8 9.360e+03 2.908e-10
  6.57463     60.5 9.449e+03 3.058e-10
  6.61381     62.2 9.431e+03 3.022e-10
  6.65300     64.2 9.322e+03 2.802e-10
  6.68360     66.3 9.154e+03 2.372e-10
  6.70319     66.3 9.166e+03 2.501e-10
  6.73138     68.5 8.986e+03 1.925e-10
  6.77056     70.5 8.854e+03 1.556e-10
  6.80975     72.6 8.797e+03 1.427e-10
  6.84894     75.0 8.800e+03 1.416e-10
  6.88813     77.5 8.818e+03 1.457e-10
  6.92731     80.1 8.886e+03 1.544e-10
  6.96650     82.6 8.981e+03 1.639e-10
  7.00569     85.1 9.067e+03 1.751e-10
  7.04487     87.6 9.116e+03 1.869e-10
  7.08406     90.1 9.116e+03 1.959e-10
  7.12325     92.6 9.089e+03 2.006e-10
  7.16244     95.1 9.068e+03 1.987e-10
  7.20162     97.6 8.991e+03 1.899e-10
  7.23423    100.2 8.873e+03 1.684e-10
  7.25382    100.5 8.967e+03 1.782e-10
  7.27239    103.1 8.805e+03 1.449e-10
  7.29198    103.0 8.761e+03 1.398e-10
  7.31919    105.7 8.592e+03 1.091e-10
  7.35837    108.3 8.458e+03 8.476e-11
  7.39756    110.9 8.354e+03 6.801e-11
  7.43675    113.5 8.266e+03 5.810e-11
  7.47593    116.1 8.143e+03 5.412e-11
  7.51512    118.8 8.071e+03 5.386e-11
  7.55431    121.6 8.068e+03 5.390e-11
  7.59350    124.4 8.063e+03 5.443e-11
  7.63268    127.1 8.060e+03 5.645e-11
  7.67187    129.8 8.073e+03 6.037e-11
  7.71106    132.5 8.114e+03 6.665e-11
  7.75025    135.1 8.192e+03 7.651e-11
  7.78486    137.5 8.312e+03 9.199e-11
  7.80445    138.1 8.327e+03 9.769e-11
  7.82862    140.4 8.480e+03 1.204e-10
  7.86781    142.6 8.661e+03 1.524e-10
  7.90700    144.8 8.876e+03 1.947e-10
  7.94618    146.9 9.152e+03 2.504e-10
  7.98537    148.9 9.485e+03 3.225e-10
  8.02456    150.7 9.852e+03 4.100e-10
  8.06374    152.4 1.021e+04 5.046e-10
  8.10293    153.8 1.052e+04 5.897e-10
  8.14212    155.1 1.074e+04 6.541e-10
  8.18131    156.2 1.092e+04 7.005e-10
  8.22049    157.2 1.108e+04 7.344e-10
  8.25968    158.2 1.124e+04 7.645e-10
  8.29887    159.5 1.133e+04 7.863e-10
  8.32816    160.0 1.139e+04 8.229e-10
  8.34006    160.3 1.144e+04 8.645e-10
  8.34728    160.0 1.162e+04 9.682e-10
  8.35488    160.5 1.162e+04 9.621e-10
  8.36725    160.9 1.166e+04 1.024e-09
  8.38684    161.5 1.179e+04 1.124e-09
  8.40644    161.9 1.205e+04 1.279e-09
  8.42603    162.0 1.241e+04 1.501e-09
  8.44563    162.0 1.284e+04 1.813e-09
  8.46522    161.9 1.329e+04 2.225e-09
  8.48481    161.9 1.379e+04 2.759e-09
  8.50441    161.7 1.425e+04 3.245e-09
  8.52400    161.3 1.456e+04 3.336e-09
  8.54359    160.4 1.457e+04 3.301e-09
  8.56319    159.2 1.457e+04 3.076e-09
  8.58278    157.7 1.437e+04 2.600e-09
  8.60237    155.7 1.395e+04 2.034e-09
  8.62040    153.4 1.331e+04 1.524e-09
  8.63020    152.7 1.361e+04 1.688e-09
  8.64156    150.3 1.279e+04 1.246e-09
  8.66116    148.2 1.200e+04 9.517e-10
  8.68075    146.5 1.141e+04 7.753e-10
  8.70034    145.1 1.108e+04 6.762e-10
  8.71994    144.0 1.107e+04 6.392e-10
  8.73953    143.0 1.107e+04 6.380e-10
  8.75912    142.1 1.107e+04 6.379e-10
  8.77872    141.3 1.107e+04 6.402e-10
  8.79831    140.6 1.112e+04 6.518e-10
  8.81790    138.8 1.156e+04 7.268e-10
  8.83750    133.5 1.357e+04 1.135e-09
  8.85709    127.7 1.498e+04 1.950e-09
  8.86904    126.6 1.504e+04 2.163e-09
  8.87389    126.6 1.503e+04 2.003e-09
  8.88149    122.5 1.716e+04 2.927e-09
  8.89128    110.6 2.420e+04 8.340e-09
  8.90051     99.7 2.629e+04 3.050e-08
  8.90541     97.2 2.609e+04 3.819e-08
  8.91088     91.5 2.333e+04 5.860e-08
  8.92067     88.6 2.242e+04 5.637e-08
  8.93047     86.7 2.183e+04 4.313e-08
  8.94027     84.6 2.284e+04 2.426e-08
  8.95501     77.9 2.711e+04 6.487e-09
  8.97465     65.3 2.652e+04 1.094e-09
  8.99425     53.9 1.271e+04 8.245e-10
  9.01384     52.9 1.172e+04 8.555e-10
  9.03343     53.5 1.188e+04 9.322e-10
  9.05303     53.9 1.222e+04 1.084e-09
  9.07262     53.8 1.253e+04 1.294e-09
  9.09222     53.4 1.297e+04 1.589e-09
  9.11181     52.0 1.388e+04 2.118e-09
  9.13140     48.8 1.527e+04 3.217e-09
  9.15100     45.4 1.640e+04 5.140e-09
  9.17059     43.4 1.663e+04 6.640e-09
  9.18082     42.2 1.640e+04 6.318e-09
  9.19062     41.5 1.662e+04 7.053e-09
  9.20978     40.5 1.612e+04 5.462e-09
  9.22937     38.5 1.513e+04 2.931e-09
  9.24896     33.7 1.365e+04 1.455e-09
  9.26856     27.2 1.225e+04 8.064e-10
  9.28815     23.1 1.120e+04 5.686e-10
  9.30775     20.1 1.130e+04 5.503e-10
  9.32734     17.3 1.148e+04 5.645e-10
  9.35683     12.9 1.154e+04 7.806e-10
  9.38852      9.6 1.170e+04 8.982e-10
  9.40811     11.3 1.173e+04 1.033e-09
  9.43530      6.1 1.200e+04 7.191e-10
  9.45633      0.1 1.104e+04 6.586e-10
  9.47593      0.8 1.059e+04 4.950e-10
  9.51367     -2.5 1.068e+04 5.755e-10
  9.55286     -7.0 1.144e+04 7.228e-10
  9.58215    -12.5 1.200e+04 1.137e-09
  9.60165    -13.9 1.220e+04 1.543e-09
  9.62124    -14.7 1.225e+04 1.780e-09
  9.64084    -15.5 1.245e+04 1.858e-09
  9.66043    -17.1 1.263e+04 1.836e-09
  9.68003    -19.7 1.263e+04 1.618e-09
  9.69962    -22.8 1.240e+04 1.564e-09
  9.71921    -25.0 1.221e+04 1.610e-09
  9.73145    -26.2 1.229e+04 1.867e-09
  9.74125    -25.8 1.264e+04 2.089e-09
  9.75840    -26.2 1.283e+04 2.360e-09
  9.77799    -26.4 1.293e+04 2.460e-09
  9.79759    -26.7 1.277e+04 2.279e-09
  9.81718    -27.0 1.245e+04 1.966e-09
  9.83677    -27.4 1.194e+04 1.549e-09
  9.85637    -27.8 1.137e+04 1.145e-09
  9.87596    -28.3 1.081e+04 8.239e-10
  9.89556    -28.9 1.029e+04 6.022e-10
  9.91515    -29.4 9.815e+03 4.622e-10
  9.92715    -29.5 9.450e+03 3.827e-10
  9.93695    -28.7 9.676e+03 4.304e-10
  9.95434    -28.7 9.425e+03 3.723e-10
  9.97393    -28.4 9.265e+03 3.349e-10
  9.99352    -27.9 9.212e+03 3.169e-10
 10.00686    -27.4 9.164e+03 2.945e-10
 10.01666    -27.0 9.295e+03 3.292e-10
 10.03271    -26.8 9.272e+03 3.241e-10
 10.05230    -26.0 9.277e+03 3.238e-10
 10.07190    -25.5 9.268e+03 3.227e-10
 10.09149    -25.1 9.379e+03 3.433e-10
 10.11109    -24.7 9.559e+03 3.776e-10
 10.13068    -24.4 9.919e+03 4.394e-10
 10.15027    -24.7 1.063e+04 5.562e-10
 10.16987    -25.1 1.172e+04 7.751e-10
 10.18946    -25.7 1.280e+04 1.181e-09
 10.20905    -26.6 1.373e+04 1.888e-09
 10.22865    -27.9 1.476e+04 3.069e-09
 10.24824    -29.4 1.602e+04 4.845e-09
 10.26289    -29.3 1.679e+04 5.823e-09
 10.27264    -30.5 1.765e+04 7.558e-09
 10.28198    -31.2 1.803e+04 9.822e-09
 10.28688    -30.9 1.825e+04 1.122e-08
 10.29223    -30.9 1.829e+04 1.278e-08
 10.30203    -30.9 1.825e+04 1.309e-08
 10.31182    -30.6 1.795e+04 1.285e-08
 10.32162    -30.1 1.761e+04 1.127e-08
 10.33142    -29.9 1.718e+04 8.722e-09
 10.34121    -30.9 1.623e+04 5.903e-09
 10.35101    -31.7 1.539e+04 4.515e-09
 10.36575    -32.7 1.441e+04 2.909e-09
 10.38540    -34.8 1.304e+04 1.408e-09
 10.40499    -37.0 1.220e+04 9.018e-10
 10.42458    -38.2 1.203e+04 8.080e-10
 10.44418    -38.7 1.253e+04 8.556e-10
 10.45618    -39.3 1.321e+04 1.211e-09
 10.46598    -36.3 1.282e+04 1.241e-09
 10.48336    -37.1 1.398e+04 1.829e-09
 10.50296    -37.8 1.520e+04 2.812e-09
 10.52255    -38.1 1.624e+04 4.262e-09
 10.54215    -38.1 1.683e+04 5.896e-09
 10.55739    -38.1 1.684e+04 6.957e-09
 10.56719    -37.1 1.668e+04 6.849e-09
 10.58133    -37.0 1.670e+04 7.251e-09
 10.60093    -37.3 1.655e+04 7.147e-09
 10.62052    -37.8 1.623e+04 6.081e-09
 10.64011    -38.9 1.583e+04 4.580e-09
 10.65971    -40.5 1.539e+04 3.423e-09
 10.67930    -42.1 1.481e+04 2.679e-09
 10.69890    -43.0 1.392e+04 2.303e-09
 10.71849    -43.2 1.337e+04 2.007e-09
 10.73808    -43.0 1.296e+04 1.695e-09
 10.75768    -42.7 1.255e+04 1.368e-09
 10.77727    -42.5 1.215e+04 1.072e-09
 10.79686    -42.4 1.168e+04 8.370e-10
 10.81646    -42.5 1.120e+04 6.799e-10
 10.83271    -42.4 1.079e+04 5.796e-10
 10.84250    -42.3 1.095e+04 6.787e-10
 10.85564    -41.8 1.061e+04 5.927e-10
 10.87524    -41.0 1.040e+04 5.382e-10
 10.89483    -40.2 1.030e+04 4.997e-10
 10.91443    -39.3 1.024e+04 4.699e-10
 10.93402    -38.6 1.030e+04 4.367e-10
 10.95361    -37.9 1.030e+04 4.236e-10
 10.97321    -37.3 1.028e+04 4.202e-10
 10.98522    -36.3 1.033e+04 4.290e-10
 10.99501    -35.4 1.052e+04 5.151e-10
 11.01239    -34.5 1.063e+04 5.343e-10
 11.04188    -34.0 1.082e+04 5.721e-10
 11.08117    -32.8 1.082e+04 5.841e-10
 11.10822    -31.7 1.063e+04 5.417e-10
 11.12781    -30.4 1.036e+04 4.317e-10
 11.15954    -29.0 1.026e+04 4.051e-10
 11.19873    -27.6 1.026e+04 3.962e-10
 11.23792    -26.3 1.033e+04 4.208e-10
 11.27710    -25.0 1.060e+04 5.048e-10
 11.31629    -23.4 1.103e+04 6.345e-10
 11.35548    -22.4 1.163e+04 8.169e-10
 11.38343    -22.2 1.217e+04 1.059e-09
 11.39313    -21.2 1.206e+04 9.911e-10
 11.40427    -21.7 1.256e+04 1.237e-09
 11.42386    -22.3 1.309e+04 1.657e-09
 11.44345    -23.1 1.358e+04 2.242e-09
 11.46305    -23.2 1.406e+04 3.160e-09
 11.48264    -22.9 1.451e+04 4.047e-09
 11.50223    -22.3 1.482e+04 4.525e-09
 11.51425    -21.8 1.490e+04 4.616e-09
 11.52404    -21.4 1.528e+04 4.909e-09
 11.54142    -21.0 1.522e+04 4.697e-09
 11.56102    -20.7 1.471e+04 3.870e-09
 11.58061    -20.6 1.401e+04 3.007e-09
 11.60020    -20.8 1.329e+04 2.284e-09
 11.61980    -20.7 1.266e+04 1.739e-09
 11.63939    -20.5 1.220e+04 1.375e-09
 11.65865    -20.3 1.188e+04 1.148e-09
 11.66844    -20.3 1.199e+04 1.191e-09
 11.67858    -20.0 1.179e+04 1.104e-09
 11.69817    -19.2 1.160e+04 1.031e-09
 11.71776    -18.7 1.153e+04 1.014e-09
 11.73736    -17.7 1.155e+04 1.036e-09
