# Columns:
#   distance along LOS (in CHIMPs)
#   peculiar velocity  (in km/s)
#   temperature (K)
#   HI number density
# pos=(8.24535,161.236,182.592), angles=(2.05723,4.67865)
  0.01562     70.9 9.645e+03 4.466e-10
  0.03669     71.0 9.635e+03 4.488e-10
  0.06425     72.8 9.783e+03 4.959e-10
  0.10058     74.6 9.922e+03 5.363e-10
  0.12269     74.8 9.744e+03 4.858e-10
  0.15268     76.5 9.753e+03 4.644e-10
  0.18658     78.2 9.636e+03 4.084e-10
  0.20868     78.6 9.339e+03 3.303e-10
  0.24110     80.2 9.119e+03 2.753e-10
  0.27257     81.8 8.928e+03 2.338e-10
  0.29468     82.4 8.885e+03 2.284e-10
  0.32953     84.3 8.771e+03 1.973e-10
  0.35856     86.3 8.680e+03 1.718e-10
  0.38067     87.1 8.720e+03 1.814e-10
  0.41795     89.1 8.638e+03 1.585e-10
  0.44456     91.2 8.557e+03 1.436e-10
  0.46666     92.0 8.680e+03 1.618e-10
  0.50638     94.1 8.620e+03 1.540e-10
  0.53055     96.3 8.623e+03 1.548e-10
  0.55266     97.0 8.778e+03 1.759e-10
  0.59444     99.0 8.805e+03 1.805e-10
  0.61654     99.5 8.965e+03 2.028e-10
  0.63902    101.3 9.047e+03 2.204e-10
  0.68043    102.9 9.325e+03 2.893e-10
  0.70254    103.3 9.357e+03 2.779e-10
  0.72745    104.7 9.809e+03 3.959e-10
  0.76642    106.0 1.038e+04 5.776e-10
  0.78853    106.1 1.023e+04 4.908e-10
  0.81587    107.1 1.066e+04 6.299e-10
  0.85242    107.8 1.070e+04 6.361e-10
  0.87452    108.0 1.055e+04 5.584e-10
  0.90430    108.9 1.046e+04 5.297e-10
  0.93841    110.2 1.019e+04 4.327e-10
  0.96052    110.6 1.004e+04 3.821e-10
  0.99273    112.1 9.767e+03 2.939e-10
  1.02441    113.7 9.515e+03 2.198e-10
  1.04651    113.8 9.467e+03 2.016e-10
  1.08115    115.5 9.314e+03 1.618e-10
  1.11040    117.5 9.247e+03 1.474e-10
  1.13251    117.4 9.185e+03 1.446e-10
  1.16958    119.6 9.198e+03 1.463e-10
  1.19639    121.9 9.277e+03 1.548e-10
  1.21850    121.4 9.323e+03 1.620e-10
  1.25800    123.9 9.730e+03 2.059e-10
  1.28239    126.5 1.021e+04 2.839e-10
  1.28540    125.1 1.047e+04 3.367e-10
  1.30523    125.9 1.059e+04 3.537e-10
  1.32529    126.6 1.069e+04 4.042e-10
  1.33624    125.9 1.073e+04 4.231e-10
  1.35713    126.4 1.088e+04 5.146e-10
  1.36818    125.2 1.088e+04 5.097e-10
  1.37939    126.1 1.105e+04 6.213e-10
  1.40013    127.2 1.131e+04 7.424e-10
  1.41118    125.8 1.121e+04 6.456e-10
  1.42361    126.7 1.142e+04 7.265e-10
  1.44312    127.5 1.160e+04 7.869e-10
  1.45418    125.7 1.134e+04 5.911e-10
  1.46782    126.3 1.138e+04 6.058e-10
  1.48612    126.7 1.138e+04 6.005e-10
  1.49717    125.0 1.110e+04 4.502e-10
  1.51203    125.3 1.110e+04 4.491e-10
  1.52912    125.3 1.114e+04 4.421e-10
  1.54017    123.8 1.097e+04 3.600e-10
  1.55625    123.9 1.105e+04 3.803e-10
  1.57211    123.8 1.114e+04 4.197e-10
  1.58317    122.8 1.111e+04 4.203e-10
  1.60046    122.7 1.129e+04 4.823e-10
  1.61511    122.0 1.156e+04 5.688e-10
  1.62617    121.0 1.162e+04 6.078e-10
  1.64467    119.9 1.202e+04 8.042e-10
  1.65811    119.4 1.220e+04 9.075e-10
  1.66916    118.2 1.228e+04 1.010e-09
  1.69015    118.7 1.246e+04 1.087e-09
  1.71226    116.2 1.240e+04 1.038e-09
  1.74425    114.6 1.234e+04 8.199e-10
  1.77624    111.1 1.179e+04 4.927e-10
  1.79835    108.5 1.184e+04 4.889e-10
  1.83277    105.3 1.114e+04 4.302e-10
  1.86223    104.1 1.103e+04 4.422e-10
  1.87319    102.8 1.102e+04 4.458e-10
  1.88785    102.7 1.102e+04 4.421e-10
  1.90504    102.4 1.095e+04 4.337e-10
  1.91609    101.3 1.117e+04 4.980e-10
  1.93101    101.0 1.115e+04 5.014e-10
  1.94206    101.4 1.151e+04 6.426e-10
  1.94813    102.0 1.109e+04 4.974e-10
  1.97033     99.9 1.133e+04 6.104e-10
  1.99113    100.8 1.124e+04 5.940e-10
  2.00208    100.1 1.130e+04 6.352e-10
  2.02049    100.4 1.125e+04 6.279e-10
  2.03403    100.8 1.121e+04 6.206e-10
  2.04508    100.0 1.129e+04 6.674e-10
  2.06470    100.5 1.124e+04 6.468e-10
  2.07702    100.9 1.121e+04 6.240e-10
  2.08808    100.3 1.121e+04 6.241e-10
  2.10891    100.7 1.115e+04 5.786e-10
  2.13102    100.2 1.098e+04 5.083e-10
  2.15196    100.5 1.086e+04 4.657e-10
  2.16302     99.7 1.081e+04 4.656e-10
  2.17523     99.9 1.073e+04 4.387e-10
  2.19496    100.0 1.066e+04 4.297e-10
  2.20601     99.3 1.068e+04 4.568e-10
  2.21944     99.7 1.069e+04 4.631e-10
  2.23796    100.0 1.072e+04 4.711e-10
  2.24901     99.1 1.082e+04 5.297e-10
  2.27000     99.9 1.086e+04 5.349e-10
  2.29211     98.3 1.131e+04 7.182e-10
  2.30787     98.6 1.149e+04 7.921e-10
  2.32395     98.8 1.166e+04 8.570e-10
  2.33500     97.2 1.221e+04 1.147e-09
  2.35208     97.7 1.219e+04 1.159e-09
  2.36695     98.2 1.211e+04 1.137e-09
  2.37800     96.9 1.229e+04 1.262e-09
  2.39630     97.6 1.209e+04 1.127e-09
  2.40994     98.2 1.192e+04 1.017e-09
  2.42100     95.4 1.287e+04 1.214e-09
  2.44051     95.3 1.300e+04 1.187e-09
  2.45294     95.1 1.336e+04 1.216e-09
  2.46399     90.5 1.551e+04 2.888e-09
  2.48472     90.5 1.588e+04 3.454e-09
  2.49594     90.6 1.622e+04 3.930e-09
  2.50142     89.0 1.651e+04 5.889e-09
  2.51181     89.1 1.671e+04 6.524e-09
  2.51734     89.1 1.700e+04 9.840e-09
  2.52331     89.7 1.725e+04 1.088e-08
  2.53331     90.3 1.754e+04 1.142e-08
  2.53884     90.6 1.784e+04 1.238e-08
  2.55099     90.5 1.787e+04 1.234e-08
  2.57088     90.5 1.766e+04 1.118e-08
  2.58193     89.9 1.728e+04 9.614e-09
  2.59014     89.9 1.685e+04 7.853e-09
  2.60119     89.7 1.682e+04 7.717e-09
  2.61388     89.4 1.634e+04 6.129e-09
  2.62493     86.7 1.569e+04 3.801e-09
  2.63947     85.4 1.522e+04 3.396e-09
  2.65687     84.2 1.478e+04 3.070e-09
  2.66793     81.5 1.388e+04 2.677e-09
  2.68368     81.4 1.379e+04 2.935e-09
  2.69987     81.4 1.374e+04 2.933e-09
  2.71092     81.2 1.380e+04 3.022e-09
  2.72790     80.8 1.378e+04 2.974e-09
  2.74287     80.2 1.363e+04 2.748e-09
  2.75392     79.9 1.365e+04 2.538e-09
  2.77211     78.6 1.337e+04 2.210e-09
  2.78586     77.0 1.306e+04 1.938e-09
  2.79692     75.6 1.297e+04 1.430e-09
  2.81632     73.3 1.235e+04 1.213e-09
  2.82886     71.6 1.182e+04 1.067e-09
  2.83991     67.2 1.345e+04 8.872e-10
  2.86053     65.5 1.246e+04 7.586e-10
  2.87186     64.0 1.198e+04 6.744e-10
  2.88291     56.9 1.348e+04 1.141e-09
  2.90380     56.3 1.249e+04 1.075e-09
  2.91485     52.6 1.286e+04 2.003e-09
  2.92685     53.0 1.284e+04 1.940e-09
  2.94680     53.4 1.307e+04 1.942e-09
  2.95785     50.1 1.601e+04 3.925e-09
  2.97107     49.6 1.704e+04 4.632e-09
  2.98979     49.0 1.798e+04 5.699e-09
  3.00085     44.7 1.907e+04 1.084e-08
  3.01528     44.2 1.928e+04 1.352e-08
  3.03279     43.7 1.952e+04 1.617e-08
  3.04384     41.8 1.980e+04 1.957e-08
  3.05949     41.4 2.004e+04 2.068e-08
  3.07579     40.7 1.995e+04 2.086e-08
  3.08684     39.3 1.978e+04 1.495e-08
  3.10371     38.7 1.937e+04 1.238e-08
  3.11878     38.1 1.861e+04 9.352e-09
  3.12984     33.8 1.661e+04 3.891e-09
  3.14792     32.6 1.529e+04 3.113e-09
  3.16178     31.6 1.421e+04 2.549e-09
  3.17283     28.9 1.307e+04 2.083e-09
  3.19213     29.1 1.306e+04 2.119e-09
  3.20478     29.3 1.309e+04 2.213e-09
  3.21583     28.8 1.308e+04 2.279e-09
  3.23635     29.2 1.329e+04 2.527e-09
  3.24777     29.6 1.358e+04 2.847e-09
  3.24964     29.3 1.349e+04 2.814e-09
  3.26032     29.7 1.376e+04 3.106e-09
  3.27972     30.3 1.421e+04 3.700e-09
  3.29077     30.4 1.346e+04 2.535e-09
  3.30267     31.1 1.384e+04 2.876e-09
  3.32271     31.8 1.417e+04 3.142e-09
  3.33377     31.1 1.288e+04 1.558e-09
  3.34688     31.4 1.307e+04 1.612e-09
  3.36571     31.6 1.319e+04 1.610e-09
  3.37676     29.6 1.134e+04 7.787e-10
  3.39109     29.8 1.135e+04 7.781e-10
  3.40871     30.1 1.139e+04 7.816e-10
  3.41976     28.6 1.048e+04 5.342e-10
  3.43531     28.7 1.055e+04 5.441e-10
  3.45171     28.8 1.065e+04 5.625e-10
  3.46276     27.8 1.039e+04 4.982e-10
  3.47952     27.6 1.054e+04 5.374e-10
  3.49470     27.3 1.071e+04 5.969e-10
  3.50576     26.4 1.067e+04 5.897e-10
  3.52373     26.0 1.087e+04 6.810e-10
  3.53770     25.8 1.107e+04 7.934e-10
  3.54875     25.2 1.104e+04 7.959e-10
  3.56794     25.3 1.119e+04 8.701e-10
  3.58070     25.3 1.119e+04 8.702e-10
  3.59175     25.1 1.098e+04 7.803e-10
  3.61216     25.4 1.085e+04 6.994e-10
  3.62369     25.6 1.067e+04 5.347e-10
  3.64590     24.7 1.031e+04 3.652e-10
  3.68777     24.7 9.992e+03 2.399e-10
  3.70988     23.8 9.513e+03 1.564e-10
  3.73394     23.8 9.261e+03 1.297e-10
  3.77377     24.3 9.237e+03 1.321e-10
  3.79587     23.9 9.214e+03 1.312e-10
  3.82237     24.7 9.270e+03 1.509e-10
  3.85976     25.4 9.400e+03 1.849e-10
  3.88187     25.2 9.641e+03 2.404e-10
  3.89754     26.0 9.772e+03 2.668e-10
  3.91964     26.7 9.576e+03 2.276e-10
  3.94576     27.4 9.850e+03 2.673e-10
  3.96786     27.3 9.950e+03 2.950e-10
  3.99922     27.6 1.007e+04 3.061e-10
  4.03165     27.4 1.015e+04 3.209e-10
  4.04261     27.2 1.024e+04 3.365e-10
  4.05429     26.9 1.034e+04 3.541e-10
  4.07455     26.6 1.073e+04 4.110e-10
  4.08560     26.4 1.068e+04 4.217e-10
  4.09850     25.7 1.150e+04 5.568e-10
  4.11755     22.7 1.397e+04 1.228e-09
  4.12860     23.0 1.316e+04 9.775e-10
  4.14272     18.5 1.635e+04 3.061e-09
  4.16054     16.2 1.802e+04 8.502e-09
  4.17160     15.8 1.759e+04 7.151e-09
  4.18693     15.9 1.826e+04 1.318e-08
  4.20354     16.0 1.818e+04 1.364e-08
  4.21459     16.2 1.768e+04 1.142e-08
  4.23114     16.5 1.729e+04 1.028e-08
  4.24654     16.9 1.625e+04 6.827e-09
  4.25759     16.8 1.577e+04 5.062e-09
  4.27536     15.8 1.463e+04 3.033e-09
  4.28953     13.8 1.335e+04 1.851e-09
  4.30059     12.5 1.296e+04 1.423e-09
  4.31957     11.6 1.290e+04 1.434e-09
  4.33253     10.8 1.313e+04 1.672e-09
  4.34358     10.5 1.269e+04 1.233e-09
  4.36378      9.9 1.364e+04 1.885e-09
  4.37553     10.7 1.485e+04 3.366e-09
  4.38658     10.9 1.370e+04 1.567e-09
  4.40747     12.0 1.445e+04 2.180e-09
  4.41853     10.6 1.236e+04 9.515e-10
  4.43010     10.6 1.254e+04 1.056e-09
  4.45047     10.5 1.250e+04 1.058e-09
  4.46162      9.3 1.156e+04 7.595e-10
  4.48556      9.5 1.139e+04 7.346e-10
  4.52560      9.8 1.097e+04 6.113e-10
  4.54771      8.8 1.086e+04 5.196e-10
  4.57399      9.4 1.038e+04 3.928e-10
  4.61160     10.2 9.876e+03 2.632e-10
  4.63370      5.8 1.274e+04 2.766e-10
  4.66242      5.9 1.157e+04 1.968e-10
  4.69759      5.8 1.099e+04 2.499e-10
  4.71960      1.6 1.268e+04 9.219e-10
  4.73959      1.9 1.290e+04 1.085e-09
  4.75145      2.5 1.306e+04 1.190e-09
  4.76250      0.9 1.482e+04 2.518e-09
  4.78339      1.6 1.464e+04 2.401e-09
  4.79444      0.2 1.604e+04 4.215e-09
  4.80591      0.8 1.565e+04 3.770e-09
  4.82639      1.5 1.528e+04 3.320e-09
  4.83744     -0.9 1.567e+04 3.722e-09
  4.85013     -0.0 1.523e+04 3.281e-09
  4.86938      0.8 1.493e+04 2.997e-09
  4.88044     -1.7 1.482e+04 2.948e-09
  4.89434     -1.0 1.466e+04 2.879e-09
  4.91238     -0.3 1.445e+04 2.800e-09
  4.92343     -2.3 1.399e+04 2.329e-09
  4.93855     -1.2 1.405e+04 2.563e-09
  4.95538     -0.2 1.412e+04 2.800e-09
  4.96643     -1.8 1.355e+04 1.731e-09
  4.98277     -0.6 1.374e+04 2.049e-09
  4.99837      0.5 1.388e+04 2.364e-09
  5.00943     -1.3 1.293e+04 1.054e-09
  5.02698     -0.0 1.311e+04 1.253e-09
  5.04137      1.1 1.325e+04 1.455e-09
  5.05242     -0.8 1.176e+04 5.556e-10
  5.07119      0.3 1.194e+04 6.349e-10
  5.08437      1.6 1.212e+04 7.251e-10
  5.09542     -0.1 1.055e+04 3.093e-10
  5.11540      0.7 1.079e+04 3.373e-10
  5.12736      2.9 1.166e+04 4.997e-10
  5.14957      1.5 1.001e+04 2.237e-10
  5.19145      3.9 1.011e+04 2.517e-10
  5.21355      3.4 9.316e+03 1.616e-10
  5.21580      5.5 9.259e+03 1.607e-10
  5.23790      6.0 9.367e+03 1.833e-10
  5.27744      8.1 9.361e+03 1.877e-10
  5.29955      7.7 9.142e+03 1.553e-10
  5.32561      9.6 9.200e+03 1.758e-10
  5.36343     11.6 9.345e+03 2.126e-10
  5.38554     11.5 9.297e+03 2.079e-10
  5.41404     13.4 9.438e+03 2.455e-10
  5.44943     15.2 9.544e+03 2.615e-10
  5.47153     15.3 9.525e+03 2.588e-10
  5.50246     16.8 9.588e+03 2.601e-10
  5.53542     18.0 9.637e+03 2.633e-10
  5.55753     18.5 9.681e+03 2.714e-10
  5.59089     19.8 9.727e+03 2.759e-10
  5.62142     20.6 9.867e+03 2.963e-10
  5.64352     22.2 1.008e+04 3.220e-10
  5.66431     22.1 1.001e+04 3.210e-10
  5.67527     22.8 9.984e+03 3.209e-10
  5.69018     22.8 9.960e+03 3.365e-10
  5.70721     22.3 1.003e+04 3.869e-10
  5.71827     22.9 1.033e+04 4.028e-10
  5.73439     21.8 1.056e+04 4.788e-10
  5.75021     20.4 1.077e+04 5.764e-10
  5.76126     17.0 1.511e+04 7.153e-10
  5.77860     14.8 1.514e+04 7.820e-10
  5.79321     12.6 1.611e+04 8.556e-10
  5.80426      5.8 2.308e+04 5.296e-09
  5.82281      4.4 2.241e+04 5.403e-09
  5.83620      4.4 2.118e+04 4.788e-09
  5.84726      0.7 2.234e+04 1.341e-08
  5.86368      0.1 2.103e+04 7.423e-09
  5.87473      2.1 2.042e+04 5.814e-09
  5.87920      1.2 1.820e+04 4.598e-09
  5.89025     -4.1 1.911e+04 5.688e-09
  5.91114     -4.9 1.717e+04 4.766e-09
  5.93325    -10.2 1.573e+04 3.969e-09
  5.95414    -10.4 1.495e+04 3.264e-09
  5.96519    -14.6 1.381e+04 1.969e-09
  5.97756    -15.0 1.325e+04 1.548e-09
  5.99714    -15.6 1.281e+04 1.272e-09
  6.00819    -19.3 1.194e+04 7.922e-10
  6.02177    -19.9 1.173e+04 7.237e-10
  6.04013    -20.7 1.154e+04 6.875e-10
  6.05119    -23.3 1.099e+04 5.148e-10
  6.06599    -24.1 1.069e+04 4.914e-10
  6.08313    -25.1 1.052e+04 4.739e-10
  6.09418    -26.9 1.024e+04 3.916e-10
  6.11020    -27.9 1.012e+04 3.722e-10
  6.12613    -28.8 1.011e+04 3.728e-10
  6.13718    -30.2 1.002e+04 3.461e-10
  6.15441    -31.1 1.010e+04 3.706e-10
  6.16912    -32.4 1.032e+04 4.340e-10
  6.18018    -34.0 1.036e+04 4.403e-10
  6.19863    -35.8 1.075e+04 5.765e-10
  6.21212    -37.8 1.128e+04 8.163e-10
  6.22318    -39.5 1.124e+04 8.283e-10
  6.24284    -41.6 1.181e+04 1.130e-09
  6.25512    -44.0 1.242e+04 1.488e-09
  6.26617    -46.0 1.211e+04 1.258e-09
  6.28705    -49.3 1.251e+04 1.481e-09
  6.30916    -55.2 1.234e+04 1.447e-09
  6.33006    -58.5 1.251e+04 1.607e-09
  6.34111    -59.9 1.217e+04 1.428e-09
  6.35337    -62.7 1.226e+04 1.454e-09
  6.37306    -65.2 1.221e+04 1.427e-09
  6.38411    -66.0 1.200e+04 1.322e-09
  6.39759    -68.0 1.181e+04 1.253e-09
  6.41605    -69.4 1.147e+04 1.145e-09
  6.42711    -69.7 1.139e+04 1.122e-09
  6.44180    -70.6 1.108e+04 1.037e-09
  6.45905    -71.0 1.076e+04 9.051e-10
  6.47010    -71.1 1.074e+04 8.935e-10
  6.48601    -71.2 1.048e+04 7.684e-10
  6.50205    -71.3 1.025e+04 6.534e-10
  6.51310    -71.7 1.025e+04 6.536e-10
  6.52281    -72.0 1.001e+04 5.494e-10
  6.53386    -72.8 9.727e+03 4.488e-10
  6.54504    -72.9 9.540e+03 3.917e-10
  6.55610    -73.4 9.694e+03 4.176e-10
  6.57444    -73.3 9.600e+03 4.015e-10
  6.58804    -73.2 9.532e+03 3.998e-10
  6.59909    -73.7 9.754e+03 4.562e-10
  6.61865    -73.5 9.764e+03 4.665e-10
  6.63104    -73.5 9.884e+03 5.062e-10
  6.64209    -74.1 1.016e+04 5.819e-10
  6.66286    -74.4 1.048e+04 6.741e-10
  6.67403    -74.7 1.088e+04 8.230e-10
  6.68509    -75.5 1.107e+04 9.120e-10
  6.70598    -75.7 1.142e+04 1.117e-09
  6.71703    -76.4 1.143e+04 1.137e-09
  6.72918    -76.3 1.170e+04 1.327e-09
  6.74897    -76.1 1.186e+04 1.472e-09
  6.76003    -76.5 1.152e+04 1.289e-09
  6.77340    -76.4 1.141e+04 1.190e-09
  6.79197    -76.3 1.117e+04 1.040e-09
  6.80302    -76.5 1.074e+04 8.248e-10
  6.81761    -76.3 1.050e+04 7.181e-10
  6.83497    -76.1 1.034e+04 6.464e-10
  6.84602    -76.2 1.001e+04 5.136e-10
  6.86182    -75.6 9.917e+03 4.498e-10
  6.87796    -75.5 9.891e+03 4.318e-10
  6.88912    -75.6 9.713e+03 3.817e-10
  6.91729    -74.7 9.684e+03 3.536e-10
  6.95310    -73.1 9.476e+03 2.982e-10
  6.97521    -72.2 9.176e+03 2.409e-10
  7.00571    -70.4 9.012e+03 1.933e-10
  7.03909    -68.6 8.893e+03 1.430e-10
  7.06120    -67.8 8.810e+03 1.277e-10
  7.09414    -66.3 8.754e+03 9.733e-11
  7.12509    -64.9 8.643e+03 9.064e-11
  7.14719    -64.0 8.570e+03 8.316e-11
  7.18256    -62.4 8.558e+03 8.482e-11
  7.21108    -60.7 8.536e+03 9.405e-11
  7.23319    -59.9 8.438e+03 8.447e-11
  7.27099    -58.2 8.443e+03 9.958e-11
  7.29707    -56.3 8.486e+03 1.174e-10
  7.31918    -55.5 8.371e+03 1.015e-10
  7.35942    -53.7 8.437e+03 1.169e-10
  7.38307    -51.9 8.511e+03 1.306e-10
  7.40517    -51.2 8.381e+03 1.126e-10
  7.44696    -49.5 8.449e+03 1.246e-10
  7.46906    -48.6 8.320e+03 1.056e-10
  7.49206    -47.0 8.394e+03 1.150e-10
  7.53295    -45.3 8.478e+03 1.244e-10
  7.55506    -44.5 8.361e+03 1.049e-10
  7.58048    -43.0 8.466e+03 1.151e-10
  7.61894    -41.6 8.573e+03 1.264e-10
  7.64105    -40.8 8.435e+03 1.052e-10
  7.66891    -39.3 8.512e+03 1.107e-10
  7.70494    -37.8 8.546e+03 1.103e-10
  7.72704    -36.9 8.389e+03 8.914e-11
  7.75733    -35.4 8.402e+03 8.592e-11
  7.79093    -33.9 8.415e+03 8.210e-11
  7.81304    -33.0 8.311e+03 6.832e-11
  7.83021    -31.5 8.331e+03 6.799e-11
  7.85232    -31.5 8.308e+03 7.238e-11
  7.87692    -30.0 8.359e+03 7.813e-11
  7.89903    -29.1 8.296e+03 6.505e-11
  7.93419    -27.7 8.369e+03 7.774e-11
  7.96292    -26.2 8.491e+03 9.914e-11
  7.98502    -25.3 8.450e+03 8.770e-11
  8.02261    -23.9 8.591e+03 1.135e-10
  8.04891    -22.6 8.757e+03 1.460e-10
  8.07102    -21.7 8.760e+03 1.395e-10
  8.11104    -20.4 8.963e+03 1.779e-10
  8.13490    -19.2 9.277e+03 2.283e-10
  8.15701    -18.4 9.259e+03 2.216e-10
  8.19879    -17.3 9.686e+03 2.880e-10
  8.22090    -16.7 9.671e+03 2.779e-10
  8.24368    -16.3 1.007e+04 3.540e-10
  8.27674    -16.5 1.031e+04 4.175e-10
  8.29564    -17.1 1.059e+04 5.180e-10
  8.30670    -17.1 1.066e+04 5.232e-10
  8.32086    -18.0 1.107e+04 6.971e-10
  8.33864    -19.1 1.159e+04 9.432e-10
  8.34969    -19.6 1.172e+04 1.014e-09
  8.36507    -21.0 1.228e+04 1.407e-09
  8.38164    -22.5 1.296e+04 1.979e-09
  8.39269    -22.5 1.281e+04 1.876e-09
  8.40928    -23.9 1.329e+04 2.234e-09
  8.42463    -25.2 1.369e+04 2.415e-09
  8.43569    -25.1 1.308e+04 1.679e-09
  8.45350    -26.8 1.311e+04 1.527e-09
  8.46763    -28.3 1.292e+04 1.334e-09
  8.47868    -28.7 1.233e+04 9.134e-10
  8.48914    -29.7 1.199e+04 8.073e-10
  8.50020    -29.8 1.219e+04 9.617e-10
  8.51063    -30.4 1.188e+04 7.848e-10
  8.52168    -30.0 1.151e+04 6.340e-10
  8.54192    -30.0 1.138e+04 5.240e-10
  8.55362    -29.9 1.129e+04 4.462e-10
  8.56468    -29.4 1.118e+04 3.979e-10
  8.59729    -29.0 1.107e+04 3.432e-10
  8.62876    -28.2 1.089e+04 3.166e-10
  8.65087    -27.3 1.065e+04 2.790e-10
  8.68581    -26.4 1.068e+04 2.911e-10
  8.71475    -25.6 1.074e+04 3.379e-10
  8.73686    -24.8 1.051e+04 2.878e-10
  8.77424    -24.0 1.060e+04 3.379e-10
  8.80075    -22.9 1.062e+04 3.532e-10
  8.82285    -21.9 1.034e+04 2.729e-10
  8.86266    -20.9 1.036e+04 2.754e-10
  8.88674    -19.8 1.042e+04 2.827e-10
  8.90885    -18.5 1.006e+04 2.109e-10
  8.95063    -17.6 1.023e+04 2.396e-10
  8.97273    -16.2 9.912e+03 1.853e-10
  8.99530    -15.2 1.012e+04 2.318e-10
  9.03662    -14.2 1.034e+04 2.791e-10
  9.05873    -12.5 1.006e+04 2.348e-10
  9.08373    -11.4 1.028e+04 2.644e-10
  9.12261    -10.4 1.055e+04 2.876e-10
  9.14314     -8.8 1.035e+04 2.656e-10
  9.14847     -9.0 1.048e+04 2.924e-10
  9.16100     -8.8 1.061e+04 3.027e-10
  9.17647     -8.8 1.074e+04 3.183e-10
  9.18752     -7.9 1.066e+04 3.142e-10
  9.20512     -8.0 1.091e+04 3.641e-10
  9.21947     -8.5 1.137e+04 5.128e-10
  9.23052     -7.7 1.126e+04 4.834e-10
  9.24933     -8.5 1.188e+04 7.933e-10
  9.26246     -8.8 1.262e+04 1.425e-09
  9.27352     -8.1 1.246e+04 1.297e-09
  9.29355     -7.9 1.310e+04 2.052e-09
  9.30546     -7.9 1.359e+04 2.356e-09
  9.31651     -7.5 1.329e+04 2.001e-09
  9.34891     -8.3 1.295e+04 1.634e-09
  9.38060     -8.9 1.233e+04 1.075e-09
  9.40270     -7.6 1.182e+04 8.345e-10
  9.43743     -8.0 1.118e+04 4.406e-10
  9.46659     -8.6 1.064e+04 2.187e-10
  9.48870     -7.4 1.051e+04 2.088e-10
  9.52586     -7.6 1.016e+04 1.698e-10
  9.55258     -7.2 1.005e+04 1.704e-10
  9.57469     -5.8 1.004e+04 1.699e-10
  9.61429     -5.2 1.001e+04 1.745e-10
  9.63858     -4.4 1.002e+04 1.830e-10
  9.66068     -3.5 1.006e+04 1.872e-10
  9.70246     -2.9 1.017e+04 2.036e-10
  9.72457     -2.3 1.038e+04 2.393e-10
