# Columns:
#   distance along LOS (in CHIMPs)
#   peculiar velocity  (in km/s)
#   temperature (K)
#   HI number density
# pos=(130.714,133.994,244.829), angles=(1.54403,1.49381)
  0.00055   -101.0 1.108e+04 6.849e-10
  0.01089   -100.2 1.108e+04 6.851e-10
  0.03049    -99.4 1.116e+04 7.181e-10
  0.05009    -98.6 1.127e+04 7.919e-10
  0.06662    -97.6 1.139e+04 8.844e-10
  0.07641    -97.4 1.158e+04 9.749e-10
  0.08928    -96.3 1.168e+04 1.037e-09
  0.10887    -95.1 1.178e+04 1.074e-09
  0.12847    -93.9 1.183e+04 1.089e-09
  0.14807    -92.8 1.189e+04 1.058e-09
  0.16766    -91.7 1.188e+04 9.914e-10
  0.18726    -90.5 1.185e+04 9.212e-10
  0.20686    -89.5 1.181e+04 8.605e-10
  0.22645    -88.5 1.178e+04 8.137e-10
  0.24605    -87.5 1.175e+04 7.961e-10
  0.26167    -86.4 1.176e+04 8.073e-10
  0.27146    -85.6 1.195e+04 8.917e-10
  0.28524    -84.5 1.199e+04 8.833e-10
  0.30484    -83.5 1.204e+04 9.028e-10
  0.32101    -82.4 1.206e+04 9.180e-10
  0.33081    -82.3 1.210e+04 9.755e-10
  0.34403    -81.2 1.210e+04 9.940e-10
  0.36363    -80.1 1.210e+04 9.986e-10
  0.38322    -79.0 1.206e+04 9.979e-10
  0.40282    -77.8 1.199e+04 9.801e-10
  0.42241    -76.6 1.191e+04 9.405e-10
  0.44201    -75.4 1.179e+04 8.849e-10
  0.46161    -74.1 1.165e+04 8.162e-10
  0.48120    -72.8 1.152e+04 7.276e-10
  0.50080    -71.5 1.139e+04 6.080e-10
  0.53029    -70.3 1.124e+04 4.524e-10
  0.56581    -68.0 1.104e+04 3.659e-10
  0.58540    -67.6 1.129e+04 5.447e-10
  0.60878    -65.3 1.103e+04 4.368e-10
  0.64797    -62.5 1.071e+04 3.340e-10
  0.68716    -59.7 1.045e+04 2.506e-10
  0.72635    -56.9 1.030e+04 1.957e-10
  0.76555    -54.2 1.023e+04 1.663e-10
  0.80474    -51.6 1.017e+04 1.507e-10
  0.84393    -48.9 1.013e+04 1.447e-10
  0.88312    -46.3 1.014e+04 1.451e-10
  0.92232    -43.7 1.013e+04 1.486e-10
  0.96151    -41.0 1.010e+04 1.496e-10
  0.98933    -38.1 1.003e+04 1.470e-10
  1.00893    -37.6 1.003e+04 1.437e-10
  1.03989    -34.6 9.924e+03 1.274e-10
  1.07460    -31.6 9.859e+03 1.047e-10
  1.09419    -31.5 9.896e+03 1.087e-10
  1.11828    -28.7 9.867e+03 8.783e-11
  1.15747    -26.1 9.846e+03 7.300e-11
  1.19666    -23.5 9.830e+03 6.851e-11
  1.23586    -21.2 1.009e+04 7.286e-11
  1.27505    -19.5 1.011e+04 1.078e-10
  1.31424    -17.2 1.022e+04 1.832e-10
  1.35343    -14.5 1.056e+04 3.044e-10
  1.39263    -12.2 1.102e+04 4.547e-10
  1.43182    -10.7 1.145e+04 6.120e-10
  1.47101     -9.9 1.186e+04 8.419e-10
  1.51020     -9.4 1.248e+04 1.236e-09
  1.54940     -9.9 1.284e+04 1.572e-09
  1.58339     -9.7 1.278e+04 1.931e-09
  1.60298    -10.3 1.224e+04 1.573e-09
  1.62778     -9.6 1.187e+04 1.290e-09
  1.66697     -9.2 1.146e+04 7.172e-10
  1.70617     -9.9 1.067e+04 4.998e-10
  1.74536     -8.6 9.938e+03 3.722e-10
  1.78455     -6.5 9.763e+03 2.399e-10
  1.82375     -5.2 9.694e+03 1.520e-10
  1.86294     -4.7 9.545e+03 1.266e-10
  1.90213     -3.8 9.472e+03 1.421e-10
  1.94132     -2.5 9.483e+03 1.825e-10
  1.98052     -0.9 9.751e+03 2.443e-10
  2.01971      0.6 1.014e+04 3.122e-10
  2.05890      1.4 1.053e+04 3.667e-10
  2.08820      1.2 1.080e+04 4.387e-10
  2.10178      1.3 1.083e+04 4.450e-10
  2.11168      0.4 1.091e+04 4.925e-10
  2.13729      1.3 1.111e+04 6.271e-10
  2.17648      2.3 1.112e+04 6.572e-10
  2.21567      3.5 1.104e+04 6.091e-10
  2.25486      4.4 1.092e+04 5.478e-10
  2.29406      5.4 1.089e+04 5.512e-10
  2.33325      6.5 1.093e+04 6.200e-10
  2.37244      7.8 1.091e+04 6.589e-10
  2.41163      9.5 1.069e+04 5.879e-10
  2.44093     10.3 1.052e+04 5.096e-10
  2.45388     10.4 1.052e+04 4.975e-10
  2.46368     11.0 1.048e+04 4.790e-10
  2.48003     11.4 1.022e+04 4.133e-10
  2.49962     11.5 1.011e+04 3.990e-10
  2.51922     11.8 1.011e+04 4.070e-10
  2.53881     12.3 1.014e+04 4.287e-10
  2.55841     12.2 1.040e+04 5.112e-10
  2.57801     12.6 1.047e+04 5.986e-10
  2.59760     12.8 1.076e+04 7.390e-10
  2.61057     13.4 1.090e+04 8.615e-10
  2.62037     13.4 1.065e+04 6.956e-10
  2.63680     13.9 1.078e+04 7.875e-10
  2.65639     14.5 1.083e+04 8.498e-10
  2.67599     15.0 1.081e+04 8.544e-10
  2.69558     15.6 1.071e+04 8.304e-10
  2.71518     16.0 1.062e+04 7.930e-10
  2.73478     16.3 1.048e+04 7.320e-10
  2.75437     16.6 1.036e+04 6.830e-10
  2.77397     16.7 1.040e+04 6.899e-10
  2.79357     16.4 1.068e+04 7.467e-10
  2.81316     15.5 1.144e+04 9.374e-10
  2.83276     14.6 1.220e+04 1.278e-09
  2.85235     14.3 1.267e+04 1.698e-09
  2.86497     14.5 1.301e+04 2.100e-09
  2.87477     14.6 1.224e+04 1.478e-09
  2.89155     14.2 1.255e+04 1.727e-09
  2.91114     13.3 1.301e+04 2.067e-09
  2.93074     11.0 1.389e+04 2.704e-09
  2.95034      8.2 1.468e+04 3.879e-09
  2.96993      7.4 1.489e+04 5.023e-09
  2.98953      8.4 1.452e+04 4.576e-09
  3.00913      8.5 1.420e+04 3.555e-09
  3.02872      8.1 1.350e+04 2.233e-09
  3.04832      6.4 1.243e+04 1.347e-09
  3.06791      4.6 1.115e+04 7.621e-10
  3.08751      3.8 1.069e+04 6.228e-10
  3.10711      4.4 1.020e+04 4.761e-10
  3.11937      4.5 1.016e+04 4.691e-10
  3.12926      5.1 1.030e+04 4.852e-10
  3.15629      5.6 1.003e+04 4.259e-10
  3.19549      6.9 1.010e+04 4.473e-10
  3.23468      8.5 1.021e+04 4.749e-10
  3.27387      9.8 1.016e+04 4.517e-10
  3.31306     10.7 1.001e+04 4.087e-10
  3.35226     11.2 9.872e+03 3.960e-10
  3.39145     12.0 9.709e+03 3.753e-10
  3.43064     13.0 9.556e+03 3.129e-10
  3.46983     13.1 9.538e+03 2.607e-10
  3.50903     12.3 9.706e+03 2.940e-10
  3.54822     12.1 9.787e+03 4.064e-10
  3.58741     13.1 9.765e+03 4.880e-10
  3.61856     14.4 9.719e+03 4.746e-10
  3.63815     15.0 9.462e+03 4.316e-10
  3.66580     15.4 9.557e+03 4.043e-10
  3.70499     15.0 9.725e+03 4.238e-10
  3.74418     14.7 9.997e+03 5.284e-10
  3.78337     15.3 9.970e+03 5.383e-10
  3.82257     16.6 9.726e+03 4.216e-10
  3.86176     16.7 9.389e+03 2.462e-10
  3.89922     15.7 9.140e+03 2.028e-10
  3.91882     17.1 9.546e+03 3.133e-10
  3.94014     16.4 9.398e+03 2.859e-10
  3.97934     16.8 9.326e+03 2.792e-10
  4.01853     18.0 9.229e+03 2.540e-10
  4.05772     19.7 9.112e+03 1.956e-10
  4.09691     20.8 8.984e+03 1.404e-10
  4.12735     21.8 8.869e+03 1.252e-10
  4.14694     22.0 8.797e+03 1.081e-10
  4.17530     23.2 8.788e+03 1.109e-10
  4.21449     24.4 8.903e+03 1.359e-10
  4.25369     25.8 9.196e+03 2.121e-10
  4.29288     27.4 9.616e+03 3.546e-10
  4.33207     29.2 1.000e+04 5.330e-10
  4.37126     30.6 1.005e+04 5.794e-10
  4.41046     31.9 9.920e+03 5.438e-10
  4.44965     33.2 9.553e+03 4.292e-10
  4.48884     34.5 9.123e+03 2.988e-10
  4.52803     35.5 8.716e+03 2.041e-10
  4.56723     36.4 8.448e+03 1.707e-10
  4.60642     37.5 8.446e+03 1.739e-10
  4.63614     38.5 8.590e+03 2.043e-10
  4.65573     37.9 8.997e+03 2.849e-10
  4.68480     39.0 9.440e+03 4.188e-10
  4.72400     40.4 9.855e+03 5.738e-10
  4.76319     42.1 1.019e+04 6.912e-10
  4.79249     43.2 1.010e+04 6.773e-10
  4.81198     44.0 1.008e+04 6.688e-10
  4.83158     44.8 1.005e+04 6.564e-10
  4.85118     45.6 1.011e+04 6.388e-10
  4.87077     46.2 1.015e+04 6.381e-10
  4.89034     47.0 1.024e+04 6.466e-10
  4.90994     47.4 1.032e+04 6.650e-10
  4.92956     48.3 1.043e+04 7.004e-10
  4.94916     49.1 1.055e+04 7.444e-10
  4.96875     49.9 1.066e+04 7.896e-10
  4.98835     50.9 1.077e+04 8.373e-10
  5.00795     51.8 1.091e+04 8.911e-10
  5.02754     52.8 1.112e+04 9.584e-10
  5.04714     53.6 1.138e+04 1.044e-09
  5.06674     54.3 1.163e+04 1.145e-09
  5.08633     54.9 1.182e+04 1.249e-09
  5.10593     55.5 1.192e+04 1.347e-09
  5.12552     56.3 1.191e+04 1.347e-09
  5.14473     57.1 1.184e+04 1.301e-09
  5.15453     56.8 1.178e+04 1.245e-09
  5.16472     57.8 1.161e+04 1.114e-09
  5.18431     58.7 1.136e+04 9.256e-10
  5.20391     59.4 1.109e+04 7.198e-10
  5.22351     59.2 1.083e+04 5.956e-10
  5.24310     57.6 1.212e+04 6.302e-10
  5.26270     52.3 1.606e+04 1.182e-09
  5.28229     47.8 1.850e+04 4.094e-09
  5.30189     45.7 1.951e+04 1.088e-08
  5.31654     44.9 2.026e+04 1.622e-08
  5.32629     44.6 2.063e+04 2.706e-08
  5.33609     44.9 2.081e+04 4.481e-08
  5.34589     45.5 2.112e+04 6.845e-08
  5.35568     45.9 2.136e+04 7.468e-08
  5.36548     46.5 2.130e+04 6.765e-08
  5.37347     46.6 2.136e+04 4.923e-08
  5.37837     47.3 2.177e+04 7.826e-08
  5.38508     47.2 2.182e+04 5.465e-08
  5.39488     46.2 2.221e+04 3.454e-08
  5.40393     43.9 2.222e+04 2.136e-08
  5.40883     43.2 2.208e+04 2.160e-08
  5.41447     40.0 2.090e+04 1.328e-08
  5.42427     38.0 1.942e+04 1.029e-08
  5.43902     36.7 1.847e+04 8.514e-09
  5.45866     33.3 1.608e+04 4.890e-09
  5.47826     30.5 1.458e+04 2.861e-09
  5.49785     28.2 1.386e+04 1.907e-09
  5.51745     25.5 1.349e+04 1.400e-09
  5.53705     22.4 1.312e+04 1.179e-09
  5.55664     16.3 1.430e+04 1.426e-09
  5.57624      9.0 1.583e+04 2.582e-09
  5.59584      6.4 1.508e+04 4.035e-09
  5.61543      6.2 1.496e+04 4.900e-09
  5.63503      6.5 1.460e+04 4.570e-09
  5.65353      6.4 1.444e+04 3.429e-09
  5.66332      6.5 1.420e+04 2.445e-09
  5.67422      3.4 1.404e+04 1.417e-09
  5.69382      0.0 1.216e+04 9.524e-10
  5.71341     -1.1 1.108e+04 7.708e-10
  5.73301     -0.8 1.081e+04 7.014e-10
  5.75261      0.2 1.051e+04 6.360e-10
  5.77220      1.2 1.035e+04 4.733e-10
  5.79180      1.3 1.009e+04 3.943e-10
  5.82129      1.4 9.649e+03 2.742e-10
  5.86058      2.5 9.178e+03 1.843e-10
  5.89977      3.2 8.995e+03 1.482e-10
  5.93897      4.0 8.979e+03 1.528e-10
  5.97816      4.9 9.131e+03 1.834e-10
  6.01735      6.1 9.297e+03 2.441e-10
  6.05654      7.5 9.436e+03 2.999e-10
  6.09574      8.9 9.539e+03 3.270e-10
  6.13493     10.0 9.692e+03 3.533e-10
  6.16251     10.3 1.005e+04 4.305e-10
  6.18211      9.6 1.023e+04 4.844e-10
  6.21331      9.6 1.117e+04 8.299e-10
  6.24261      8.5 1.209e+04 1.269e-09
  6.26211      8.6 1.233e+04 1.634e-09
  6.28171      9.1 1.255e+04 1.949e-09
  6.30130      9.9 1.275e+04 1.999e-09
  6.32090     10.4 1.287e+04 1.870e-09
  6.34049     10.0 1.293e+04 1.551e-09
  6.36009      8.6 1.256e+04 1.189e-09
  6.37969      6.5 1.188e+04 9.599e-10
  6.39928      4.0 1.188e+04 1.007e-09
  6.41671      2.0 1.215e+04 1.209e-09
  6.42651      0.7 1.217e+04 1.277e-09
  6.43848      0.3 1.228e+04 1.670e-09
  6.45807      0.8 1.230e+04 1.898e-09
  6.47767      1.4 1.220e+04 1.860e-09
  6.49726      1.8 1.207e+04 1.620e-09
  6.51686      1.0 1.212e+04 1.360e-09
  6.53646     -0.5 1.172e+04 1.105e-09
  6.55605     -2.0 1.106e+04 9.461e-10
  6.57565     -3.1 1.077e+04 8.624e-10
  6.59525     -3.8 1.075e+04 8.442e-10
  6.61484     -4.5 1.080e+04 8.216e-10
  6.63444     -5.7 1.095e+04 8.947e-10
  6.65404    -11.0 1.313e+04 1.390e-09
  6.67111    -16.7 1.477e+04 2.790e-09
  6.68091    -17.4 1.477e+04 2.916e-09
  6.69323    -19.4 1.467e+04 4.707e-09
  6.71282    -19.6 1.486e+04 5.762e-09
  6.73242    -18.8 1.496e+04 5.512e-09
  6.75202    -17.9 1.462e+04 2.809e-09
  6.77161    -25.9 1.212e+04 7.765e-10
  6.79121    -31.4 9.271e+03 3.409e-10
  6.81081    -32.5 8.774e+03 2.593e-10
  6.82861    -33.0 8.563e+03 2.104e-10
  6.83840    -33.3 8.585e+03 2.281e-10
  6.85000    -33.5 8.530e+03 2.132e-10
  6.86959    -33.7 8.425e+03 1.969e-10
  6.88919    -33.6 8.427e+03 1.950e-10
  6.91868    -33.3 8.563e+03 2.077e-10
  6.95797    -32.3 8.907e+03 2.650e-10
  6.99717    -30.6 9.304e+03 3.531e-10
  7.02646    -28.3 9.456e+03 4.174e-10
  7.04596    -28.0 9.496e+03 4.305e-10
  7.06556    -26.5 9.865e+03 5.298e-10
  7.08515    -25.7 1.008e+04 5.836e-10
  7.10475    -24.8 1.026e+04 6.584e-10
  7.12435    -24.0 1.040e+04 7.275e-10
  7.14394    -22.8 1.063e+04 8.416e-10
  7.16354    -21.9 1.080e+04 9.200e-10
  7.18000    -20.7 1.129e+04 1.027e-09
  7.18980    -20.4 1.144e+04 1.226e-09
  7.20273    -20.3 1.162e+04 1.310e-09
  7.22233    -19.4 1.194e+04 1.518e-09
  7.24192    -19.2 1.221e+04 1.683e-09
  7.26152    -19.0 1.263e+04 2.045e-09
  7.28112    -18.8 1.331e+04 2.587e-09
  7.30071    -18.9 1.411e+04 3.406e-09
  7.32031    -19.0 1.488e+04 4.498e-09
  7.33991    -19.1 1.579e+04 6.186e-09
  7.35950    -20.0 1.716e+04 9.205e-09
  7.37910    -22.2 1.936e+04 1.523e-08
  7.39375    -25.5 2.113e+04 2.605e-08
  7.40350    -27.6 2.152e+04 3.508e-08
  7.41329    -28.9 2.135e+04 4.447e-08
  7.42309    -30.7 2.111e+04 4.587e-08
  7.43289    -31.9 2.058e+04 4.276e-08
  7.43910    -33.1 2.015e+04 3.341e-08
  7.44400    -34.1 1.987e+04 2.689e-08
  7.45249    -34.6 1.956e+04 1.962e-08
  7.46228    -34.9 1.970e+04 1.375e-08
  7.47208    -36.3 1.983e+04 8.683e-09
  7.48188    -40.3 1.819e+04 4.602e-09
  7.49663    -45.4 1.478e+04 2.313e-09
  7.51627    -51.7 1.101e+04 8.974e-10
  7.53587    -53.3 9.721e+03 6.374e-10
  7.55546    -53.2 9.485e+03 5.846e-10
  7.56578    -52.3 9.360e+03 5.343e-10
  7.57558    -52.3 9.365e+03 5.261e-10
  7.59466    -51.6 9.210e+03 4.480e-10
  7.61425    -51.0 9.122e+03 3.960e-10
  7.63385    -50.7 9.077e+03 3.813e-10
  7.66334    -49.8 8.987e+03 3.495e-10
  7.68889    -48.3 8.640e+03 2.683e-10
  7.70848    -48.2 8.638e+03 2.660e-10
  7.74182    -46.8 8.368e+03 2.091e-10
  7.78102    -45.5 8.094e+03 1.617e-10
  7.82021    -44.2 7.944e+03 1.378e-10
  7.85940    -42.9 7.918e+03 1.322e-10
  7.89860    -41.5 7.997e+03 1.343e-10
  7.93779    -40.6 8.269e+03 1.590e-10
  7.97698    -39.9 8.700e+03 2.236e-10
  8.01617    -39.1 9.256e+03 3.613e-10
  8.05537    -38.0 9.840e+03 5.703e-10
  8.09456    -37.0 1.035e+04 7.733e-10
  8.13375    -36.3 1.059e+04 8.544e-10
  8.17294    -36.1 1.059e+04 8.357e-10
  8.19768    -35.5 1.038e+04 7.074e-10
  8.21728    -37.0 1.065e+04 8.136e-10
  8.25133    -36.0 1.027e+04 6.326e-10
  8.28365    -34.8 9.838e+03 4.458e-10
  8.30324    -33.8 1.006e+04 5.393e-10
  8.32971    -32.6 9.717e+03 3.899e-10
  8.36891    -31.4 9.539e+03 3.273e-10
  8.40810    -30.0 9.499e+03 3.164e-10
  8.44729    -28.6 9.557e+03 3.332e-10
  8.48648    -27.0 9.636e+03 3.664e-10
  8.52568    -25.5 9.743e+03 3.981e-10
  8.56487    -24.4 9.899e+03 4.182e-10
  8.60406    -23.7 1.008e+04 4.640e-10
  8.64325    -23.0 1.025e+04 5.269e-10
  8.68245    -22.3 1.044e+04 5.614e-10
  8.70647    -22.2 1.052e+04 5.157e-10
  8.72607    -23.3 1.035e+04 4.266e-10
  8.75094    -23.7 1.032e+04 3.901e-10
  8.77043    -23.7 1.034e+04 3.908e-10
  8.79993    -24.5 1.028e+04 3.597e-10
  8.83922    -24.5 1.036e+04 3.770e-10
  8.87841    -24.3 1.042e+04 3.672e-10
  8.91760    -23.7 1.049e+04 3.507e-10
  8.95679    -23.4 1.020e+04 2.581e-10
  8.99599    -22.7 9.937e+03 1.697e-10
  9.03518    -21.8 9.817e+03 1.199e-10
  9.07437    -20.5 9.770e+03 8.951e-11
  9.11357    -19.0 9.742e+03 7.178e-11
  9.15276    -17.2 9.707e+03 6.103e-11
  9.19195    -15.3 9.714e+03 5.309e-11
  9.21526    -13.5 9.717e+03 4.853e-11
  9.23486    -13.7 9.736e+03 4.724e-11
  9.27034    -11.8 9.755e+03 4.540e-11
  9.30953    -10.0 9.739e+03 4.821e-11
  9.34872     -7.7 9.576e+03 5.882e-11
  9.38791     -5.2 9.598e+03 6.067e-11
  9.42711     -2.5 9.618e+03 5.477e-11
  9.46630     -0.4 9.744e+03 4.578e-11
  9.50549      1.3 9.781e+03 4.192e-11
  9.54468      3.3 9.778e+03 4.218e-11
  9.58388      5.3 9.787e+03 4.531e-11
  9.62307      7.4 9.776e+03 5.290e-11
  9.66226      9.6 9.809e+03 6.716e-11
  9.70145     11.9 9.877e+03 8.610e-11
  9.72405     14.1 9.954e+03 1.070e-10
  9.74160     13.7 1.002e+04 1.100e-10
  9.75819     13.4 9.995e+03 1.069e-10
  9.77984     15.4 1.009e+04 1.340e-10
  9.81903     17.3 1.021e+04 1.635e-10
  9.85822     19.1 1.036e+04 1.952e-10
  9.89742     21.0 1.060e+04 2.412e-10
  9.93661     22.4 1.089e+04 3.052e-10
  9.96591     23.3 1.098e+04 3.581e-10
  9.97825     23.9 1.114e+04 4.449e-10
  9.98805     23.7 1.130e+04 4.824e-10
 10.00500     24.5 1.154e+04 6.259e-10
 10.02460     25.3 1.182e+04 7.923e-10
 10.04419     26.0 1.219e+04 9.876e-10
 10.06379     26.4 1.268e+04 1.237e-09
 10.08339     26.1 1.338e+04 1.606e-09
 10.10298     24.9 1.465e+04 2.366e-09
 10.12258     22.8 1.591e+04 3.899e-09
 10.14217     21.8 1.648e+04 6.158e-09
 10.16177     22.4 1.684e+04 8.498e-09
 10.18137     23.3 1.685e+04 9.022e-09
 10.20096     24.4 1.669e+04 7.812e-09
 10.22056     24.6 1.648e+04 5.124e-09
 10.23265     23.8 1.580e+04 2.747e-09
 10.24245     22.8 1.587e+04 2.787e-09
 10.25975     19.9 1.420e+04 1.471e-09
 10.27935     18.1 1.276e+04 1.209e-09
 10.29895     17.0 1.219e+04 1.081e-09
 10.32844     15.3 1.177e+04 1.038e-09
 10.36773     15.3 1.152e+04 9.349e-10
 10.40692     15.7 1.144e+04 8.446e-10
 10.44611     16.4 1.124e+04 6.987e-10
 10.48531     17.2 1.081e+04 5.053e-10
 10.52450     17.8 1.032e+04 3.766e-10
 10.56369     18.5 9.905e+03 3.300e-10
 10.60288     19.6 9.673e+03 3.290e-10
 10.64208     21.2 9.518e+03 3.292e-10
 10.68127     23.0 9.386e+03 3.165e-10
 10.72046     24.9 9.363e+03 3.026e-10
 10.74164     26.0 9.425e+03 3.049e-10
 10.76123     25.1 9.601e+03 3.195e-10
 10.78895     25.5 9.799e+03 3.442e-10
 10.80845     25.8 1.006e+04 4.313e-10
 10.82805     26.3 1.042e+04 5.738e-10
 10.84764     27.0 1.074e+04 7.649e-10
 10.86724     28.0 1.102e+04 9.823e-10
 10.88683     29.2 1.130e+04 1.207e-09
 10.90643     30.3 1.152e+04 1.396e-09
 10.92603     31.3 1.172e+04 1.537e-09
 10.94562     32.3 1.182e+04 1.639e-09
 10.96522     33.1 1.193e+04 1.700e-09
 10.98482     33.8 1.206e+04 1.770e-09
 10.99584     34.3 1.221e+04 1.886e-09
 11.00564     34.1 1.183e+04 1.624e-09
 11.02401     34.5 1.205e+04 1.782e-09
 11.04360     34.8 1.238e+04 2.062e-09
 11.06320     35.2 1.276e+04 2.479e-09
 11.08280     35.7 1.322e+04 3.043e-09
 11.10239     36.2 1.374e+04 3.745e-09
 11.12199     36.6 1.431e+04 4.595e-09
 11.14159     36.8 1.486e+04 5.538e-09
 11.16118     37.0 1.528e+04 6.411e-09
 11.18078     37.1 1.552e+04 6.986e-09
 11.20037     37.2 1.555e+04 7.068e-09
 11.21294     37.2 1.545e+04 6.758e-09
 11.22273     36.3 1.528e+04 5.003e-09
 11.23957     36.1 1.509e+04 4.678e-09
 11.25023     35.7 1.481e+04 4.331e-09
 11.26003     36.0 1.450e+04 3.971e-09
 11.27876     35.8 1.433e+04 3.863e-09
 11.29836     35.8 1.422e+04 3.855e-09
 11.31795     36.0 1.408e+04 3.932e-09
 11.33755     36.5 1.401e+04 3.909e-09
 11.35714     37.2 1.391e+04 3.799e-09
 11.37674     37.9 1.375e+04 3.562e-09
 11.39634     38.7 1.354e+04 3.222e-09
 11.41593     39.5 1.328e+04 2.803e-09
 11.43553     40.2 1.294e+04 2.357e-09
 11.45513     41.0 1.258e+04 1.955e-09
 11.47472     41.7 1.228e+04 1.653e-09
 11.49432     42.4 1.210e+04 1.443e-09
 11.50463     42.9 1.199e+04 1.321e-09
 11.51443     43.1 1.179e+04 1.165e-09
 11.53351     43.7 1.176e+04 1.147e-09
 11.55311     44.3 1.182e+04 1.174e-09
 11.57270     44.7 1.194e+04 1.279e-09
 11.59230     45.0 1.202e+04 1.472e-09
 11.61190     45.6 1.212e+04 1.767e-09
 11.63149     46.5 1.230e+04 2.123e-09
 11.65109     47.5 1.254e+04 2.451e-09
 11.67069     48.5 1.283e+04 2.702e-09
 11.69028     49.5 1.319e+04 2.773e-09
 11.70988     50.2 1.337e+04 2.701e-09
 11.72947     50.7 1.370e+04 2.416e-09
 11.74907     50.8 1.384e+04 2.025e-09
 11.75903     50.7 1.372e+04 1.661e-09
 11.76882     50.7 1.309e+04 1.152e-09
 11.78826     50.7 1.265e+04 9.997e-10
 11.80786     50.7 1.216e+04 9.008e-10
 11.82746     51.1 1.178e+04 8.407e-10
 11.84705     51.6 1.156e+04 8.076e-10
 11.86665     52.2 1.141e+04 7.824e-10
 11.88624     52.9 1.128e+04 7.535e-10
 11.90584     53.6 1.115e+04 7.148e-10
 11.92544     54.4 1.103e+04 6.709e-10
 11.94041     55.1 1.090e+04 6.318e-10
 11.95021     54.9 1.054e+04 5.425e-10
 11.96463     55.6 1.056e+04 5.459e-10
 11.98423     56.3 1.062e+04 5.542e-10
 12.00362     56.9 1.072e+04 5.730e-10
 12.01342     57.8 1.062e+04 5.462e-10
 12.02342     58.3 1.079e+04 5.890e-10
 12.04302     58.6 1.104e+04 6.604e-10
 12.06261     58.7 1.133e+04 7.620e-10
 12.08221     58.5 1.171e+04 9.114e-10
 12.10180     58.1 1.216e+04 1.136e-09
 12.12140     57.7 1.258e+04 1.441e-09
 12.14100     57.5 1.292e+04 1.767e-09
 12.16059     57.2 1.320e+04 1.969e-09
 12.18019     56.5 1.349e+04 2.029e-09
 12.19979     55.3 1.374e+04 2.063e-09
 12.21938     53.6 1.401e+04 2.141e-09
 12.23898     52.0 1.377e+04 2.264e-09
 12.25802     51.4 1.359e+04 2.262e-09
