# Columns:
#   distance along LOS (in CHIMPs)
#   peculiar velocity  (in km/s)
#   temperature (K)
#   HI number density
# pos=(213.629,21.9007,204.674), angles=(1.50311,4.88926)
  0.01219   -194.2 1.053e+04 5.546e-10
  0.03422   -193.7 1.083e+04 6.863e-10
  0.05400   -193.4 1.089e+04 7.339e-10
  0.07389   -193.0 1.087e+04 7.546e-10
  0.09378   -192.7 1.084e+04 7.591e-10
  0.10598   -192.1 1.081e+04 7.610e-10
  0.11592   -192.0 1.076e+04 7.534e-10
  0.13355   -191.3 1.075e+04 7.539e-10
  0.15344   -190.5 1.074e+04 7.627e-10
  0.16986   -189.7 1.081e+04 7.973e-10
  0.17980   -190.0 1.055e+04 7.177e-10
  0.19321   -189.1 1.068e+04 7.667e-10
  0.21133   -188.2 1.083e+04 8.247e-10
  0.22127   -188.2 1.076e+04 7.928e-10
  0.23298   -187.3 1.096e+04 8.692e-10
  0.25287   -186.4 1.116e+04 9.571e-10
  0.27275   -185.5 1.136e+04 1.047e-09
  0.29264   -184.6 1.154e+04 1.128e-09
  0.31253   -183.7 1.167e+04 1.188e-09
  0.32661   -182.8 1.175e+04 1.219e-09
  0.33656   -182.8 1.195e+04 1.334e-09
  0.35230   -181.8 1.198e+04 1.353e-09
  0.37219   -180.7 1.200e+04 1.361e-09
  0.39207   -179.6 1.202e+04 1.349e-09
  0.41196   -178.5 1.208e+04 1.341e-09
  0.43184   -177.4 1.216e+04 1.353e-09
  0.44190   -176.3 1.232e+04 1.417e-09
  0.45185   -176.3 1.228e+04 1.297e-09
  0.46339   -175.3 1.243e+04 1.334e-09
  0.47334   -175.6 1.302e+04 1.967e-09
  0.49150   -174.4 1.321e+04 2.076e-09
  0.51139   -173.3 1.336e+04 2.163e-09
  0.53128   -172.2 1.345e+04 2.193e-09
  0.54725   -171.1 1.348e+04 2.185e-09
  0.55719   -171.0 1.312e+04 1.740e-09
  0.57105   -169.9 1.303e+04 1.650e-09
  0.59093   -168.9 1.285e+04 1.510e-09
  0.61082   -167.8 1.259e+04 1.351e-09
  0.63071   -166.7 1.229e+04 1.198e-09
  0.65059   -165.5 1.199e+04 1.066e-09
  0.66254   -164.3 1.172e+04 9.620e-10
  0.67248   -163.6 1.147e+04 8.716e-10
  0.69037   -162.3 1.137e+04 8.291e-10
  0.71025   -160.9 1.129e+04 7.948e-10
  0.73014   -159.6 1.124e+04 7.724e-10
  0.74698   -158.4 1.123e+04 7.667e-10
  0.75693   -157.8 1.139e+04 8.025e-10
  0.76789   -156.9 1.140e+04 8.084e-10
  0.77783   -155.4 1.136e+04 7.655e-10
  0.78980   -154.8 1.146e+04 7.877e-10
  0.80968   -155.4 1.185e+04 8.439e-10
  0.82957   -159.5 1.480e+04 1.512e-09
  0.84946   -163.6 1.782e+04 4.121e-09
  0.86934   -166.8 1.933e+04 8.748e-09
  0.88318   -170.5 1.993e+04 1.254e-08
  0.89312   -168.1 2.021e+04 1.244e-08
  0.90912   -173.2 2.032e+04 1.372e-08
  0.92900   -178.0 1.962e+04 1.226e-08
  0.94889   -183.5 1.788e+04 6.700e-09
  0.96877   -189.6 1.516e+04 2.951e-09
  0.98852   -194.6 1.292e+04 1.586e-09
  0.99846   -194.3 1.338e+04 1.821e-09
  1.00855   -196.7 1.255e+04 1.446e-09
  1.02843   -197.4 1.232e+04 1.355e-09
  1.04052   -197.6 1.223e+04 1.314e-09
  1.05046   -199.4 1.266e+04 1.479e-09
  1.06821   -199.3 1.248e+04 1.408e-09
  1.08809   -199.0 1.223e+04 1.295e-09
  1.10381   -198.5 1.194e+04 1.156e-09
  1.11375   -197.7 1.215e+04 1.258e-09
  1.12787   -197.1 1.183e+04 1.084e-09
  1.14775   -196.6 1.152e+04 9.207e-10
  1.16764   -196.4 1.123e+04 7.777e-10
  1.18752   -196.2 1.097e+04 6.624e-10
  1.20741   -196.4 1.076e+04 5.777e-10
  1.21910   -196.7 1.061e+04 5.209e-10
  1.22904   -195.5 1.073e+04 5.280e-10
  1.24718   -196.1 1.063e+04 4.907e-10
  1.26707   -196.8 1.061e+04 4.779e-10
  1.28696   -197.6 1.061e+04 4.757e-10
  1.30684   -198.5 1.063e+04 4.771e-10
  1.32411   -199.3 1.066e+04 4.992e-10
  1.33177   -200.4 1.062e+04 5.002e-10
  1.33439   -199.8 1.064e+04 4.984e-10
  1.34661   -200.8 1.059e+04 5.503e-10
  1.36650   -202.6 1.106e+04 6.457e-10
  1.38639   -205.5 1.243e+04 8.631e-10
  1.40627   -209.4 1.426e+04 1.348e-09
  1.42616   -213.5 1.575e+04 2.243e-09
  1.43974   -217.3 1.660e+04 3.457e-09
  1.44968   -218.7 1.696e+04 4.036e-09
  1.46593   -222.1 1.704e+04 4.822e-09
  1.48582   -225.4 1.699e+04 4.970e-09
  1.50571   -228.2 1.645e+04 4.665e-09
  1.52559   -230.8 1.558e+04 3.381e-09
  1.54508   -233.7 1.448e+04 2.107e-09
  1.55503   -235.7 1.437e+04 1.913e-09
  1.56536   -238.6 1.324e+04 1.233e-09
  1.58525   -240.9 1.238e+04 9.032e-10
  1.60514   -242.4 1.191e+04 7.494e-10
  1.61764   -243.2 1.166e+04 6.864e-10
  1.62758   -244.2 1.151e+04 6.750e-10
  1.64491   -244.5 1.142e+04 6.615e-10
  1.66037   -244.8 1.131e+04 6.485e-10
  1.67032   -246.0 1.154e+04 7.379e-10
  1.68468   -246.2 1.140e+04 7.263e-10
  1.70457   -246.3 1.130e+04 7.087e-10
  1.72445   -246.3 1.121e+04 6.814e-10
  1.74434   -246.2 1.115e+04 6.445e-10
  1.76423   -246.0 1.111e+04 6.013e-10
  1.77566   -245.9 1.108e+04 5.611e-10
  1.78560   -247.6 1.123e+04 6.622e-10
  1.80400   -247.7 1.116e+04 6.430e-10
  1.82389   -247.9 1.114e+04 6.396e-10
  1.84377   -248.2 1.114e+04 6.414e-10
  1.86366   -249.9 1.158e+04 6.754e-10
  1.88101   -252.5 1.309e+04 9.541e-10
  1.89095   -256.4 1.460e+04 1.754e-09
  1.90123   -258.5 1.546e+04 2.933e-09
  1.91117   -257.2 1.490e+04 2.331e-09
  1.92332   -258.5 1.543e+04 3.532e-09
  1.94320   -259.3 1.560e+04 4.450e-09
  1.96309   -259.7 1.562e+04 4.678e-09
  1.98298   -260.0 1.547e+04 4.599e-09
  1.99630   -260.1 1.516e+04 3.908e-09
  2.00624   -262.1 1.486e+04 2.864e-09
  2.02275   -262.9 1.422e+04 1.821e-09
  2.04264   -264.7 1.335e+04 1.191e-09
  2.06252   -266.7 1.282e+04 9.686e-10
  2.08241   -269.1 1.276e+04 9.394e-10
  2.10164   -272.2 1.384e+04 1.147e-09
  2.11159   -281.4 1.937e+04 2.643e-09
  2.12218   -284.4 2.102e+04 5.757e-09
  2.14207   -286.1 2.155e+04 1.035e-08
  2.16195   -286.7 2.149e+04 1.522e-08
  2.17682   -286.2 2.054e+04 1.752e-08
  2.18671   -286.1 2.050e+04 1.864e-08
  2.19467   -286.0 2.038e+04 1.976e-08
  2.20466   -284.8 1.993e+04 1.572e-08
  2.21659   -284.8 1.979e+04 1.691e-08
  2.22181   -284.6 1.934e+04 1.665e-08
  2.22678   -285.2 1.897e+04 1.203e-08
  2.23643   -285.3 1.892e+04 9.471e-09
  2.24637   -285.5 1.876e+04 6.981e-09
  2.25632   -286.0 1.842e+04 4.939e-09
  2.26626   -286.4 1.789e+04 3.680e-09
  2.28122   -286.8 1.713e+04 2.886e-09
  2.30116   -287.0 1.589e+04 1.881e-09
  2.32104   -287.2 1.485e+04 1.334e-09
  2.33222   -286.8 1.370e+04 1.035e-09
  2.34217   -289.5 1.041e+04 3.911e-10
  2.36082   -287.9 1.024e+04 3.870e-10
  2.38070   -286.3 1.022e+04 4.037e-10
  2.40059   -284.8 1.055e+04 4.474e-10
  2.42048   -283.4 1.082e+04 5.195e-10
  2.43757   -282.1 1.118e+04 6.330e-10
  2.44751   -282.7 1.056e+04 4.143e-10
  2.46025   -281.5 1.100e+04 5.170e-10
  2.47835   -280.2 1.139e+04 6.545e-10
  2.48830   -278.9 1.057e+04 3.749e-10
  2.50002   -277.6 1.097e+04 4.845e-10
  2.51991   -276.4 1.132e+04 6.214e-10
  2.53979   -275.2 1.157e+04 7.703e-10
  2.55286   -274.1 1.173e+04 9.047e-10
  2.56280   -274.4 1.095e+04 5.065e-10
  2.57957   -273.2 1.096e+04 5.606e-10
  2.59945   -272.1 1.092e+04 5.998e-10
  2.61934   -271.0 1.084e+04 6.233e-10
  2.63923   -269.9 1.077e+04 6.311e-10
  2.65820   -268.8 1.060e+04 6.330e-10
  2.66815   -269.2 1.030e+04 4.764e-10
  2.67900   -268.1 1.031e+04 4.986e-10
  2.69888   -266.9 1.034e+04 5.236e-10
  2.71877   -265.7 1.037e+04 5.499e-10
  2.73866   -264.5 1.042e+04 5.748e-10
  2.75854   -263.2 1.045e+04 5.980e-10
  2.77189   -261.9 1.049e+04 6.186e-10
  2.77689   -261.2 1.042e+04 5.309e-10
  2.78344   -261.2 1.013e+04 4.386e-10
  2.79832   -260.1 1.017e+04 4.615e-10
  2.81820   -258.8 1.021e+04 4.915e-10
  2.83809   -257.7 1.024e+04 5.169e-10
  2.85797   -256.3 1.026e+04 5.506e-10
  2.87786   -255.3 1.028e+04 5.813e-10
  2.88878   -253.9 1.028e+04 6.154e-10
  2.89873   -254.1 1.024e+04 5.584e-10
  2.91763   -252.7 1.024e+04 5.606e-10
  2.93752   -251.3 1.024e+04 5.600e-10
  2.95741   -249.8 1.024e+04 5.505e-10
  2.97729   -248.3 1.024e+04 5.363e-10
  2.99413   -246.8 1.024e+04 5.186e-10
  3.00417   -248.7 9.816e+03 3.955e-10
  3.02720   -246.0 9.699e+03 3.659e-10
  3.05567   -243.4 9.538e+03 3.314e-10
  3.07556   -242.9 9.416e+03 2.825e-10
  3.10675   -240.2 9.210e+03 2.493e-10
  3.14652   -237.5 9.006e+03 2.176e-10
  3.18629   -234.8 8.843e+03 1.908e-10
  3.21496   -232.0 8.738e+03 1.716e-10
  3.23485   -232.5 8.592e+03 1.226e-10
  3.26584   -229.7 8.586e+03 1.176e-10
  3.30561   -226.9 8.588e+03 1.166e-10
  3.34538   -224.3 8.597e+03 1.168e-10
  3.38516   -221.8 8.673e+03 1.240e-10
  3.42493   -219.5 8.764e+03 1.390e-10
  3.44554   -217.3 8.833e+03 1.546e-10
  3.46543   -217.7 8.768e+03 1.382e-10
  3.50448   -215.6 8.796e+03 1.458e-10
  3.54425   -213.5 8.800e+03 1.476e-10
  3.58402   -211.5 8.785e+03 1.472e-10
  3.62285   -209.3 8.711e+03 1.379e-10
  3.64274   -209.0 8.739e+03 1.251e-10
  3.65623   -206.8 8.664e+03 1.161e-10
  3.67612   -207.0 8.596e+03 1.092e-10
  3.70334   -204.7 8.518e+03 9.711e-11
  3.74311   -202.4 8.435e+03 8.643e-11
  3.78288   -200.2 8.354e+03 7.859e-11
  3.82266   -198.0 8.283e+03 7.385e-11
  3.86243   -195.9 8.224e+03 7.186e-11
  3.88681   -193.8 8.198e+03 7.148e-11
  3.90670   -194.2 8.331e+03 8.735e-11
  3.94197   -192.2 8.313e+03 9.277e-11
  3.98175   -190.2 8.275e+03 9.625e-11
  4.02152   -188.1 8.250e+03 9.693e-11
  4.06129   -186.0 8.159e+03 9.410e-11
  4.09750   -183.7 8.073e+03 8.912e-11
  4.11739   -184.1 8.182e+03 1.016e-10
  4.14084   -181.9 8.145e+03 9.189e-11
  4.18061   -179.6 8.156e+03 8.890e-11
  4.20992   -177.5 8.161e+03 8.870e-11
  4.22980   -177.6 8.348e+03 1.249e-10
  4.26015   -175.7 8.390e+03 1.265e-10
  4.29993   -174.2 8.747e+03 1.685e-10
  4.32808   -172.9 9.266e+03 2.889e-10
  4.34797   -173.2 9.212e+03 2.803e-10
  4.37947   -171.8 9.612e+03 4.421e-10
  4.41925   -170.5 9.935e+03 6.207e-10
  4.45902   -169.4 1.013e+04 7.577e-10
  4.49879   -168.4 1.017e+04 8.047e-10
  4.53856   -167.3 1.015e+04 8.102e-10
  4.55866   -165.9 9.858e+03 7.410e-10
  4.57855   -165.6 9.728e+03 6.308e-10
  4.61811   -163.9 9.386e+03 5.327e-10
  4.65788   -162.1 9.008e+03 4.096e-10
  4.69765   -160.2 8.654e+03 3.049e-10
  4.73743   -158.4 8.374e+03 2.314e-10
  4.76935   -156.5 8.192e+03 1.863e-10
  4.78914   -156.3 8.263e+03 1.934e-10
  4.81687   -154.6 8.332e+03 2.116e-10
  4.85674   -152.8 8.269e+03 1.910e-10
  4.89652   -151.1 8.239e+03 1.782e-10
  4.93629   -149.5 8.239e+03 1.719e-10
  4.97606   -148.0 8.255e+03 1.706e-10
  4.99993   -146.6 8.424e+03 1.839e-10
  5.01982   -146.5 8.474e+03 1.887e-10
  5.05561   -145.3 8.656e+03 2.288e-10
  5.09538   -144.0 8.880e+03 2.856e-10
  5.13515   -142.7 9.082e+03 3.474e-10
  5.17493   -141.5 9.258e+03 3.948e-10
  5.21062   -140.3 9.391e+03 4.143e-10
  5.23051   -140.2 9.605e+03 4.874e-10
  5.25447   -139.0 9.647e+03 4.938e-10
  5.29424   -137.8 9.658e+03 4.967e-10
  5.33402   -136.6 9.677e+03 4.969e-10
  5.36416   -135.3 9.722e+03 4.871e-10
  5.38405   -135.0 9.661e+03 4.928e-10
  5.41356   -133.7 9.734e+03 4.831e-10
  5.44120   -132.4 9.709e+03 4.407e-10
  5.46109   -132.4 1.006e+04 5.632e-10
  5.49311   -131.1 9.945e+03 4.794e-10
  5.53288   -129.8 9.770e+03 3.752e-10
  5.57265   -128.5 9.541e+03 2.795e-10
  5.61242   -127.0 9.396e+03 2.124e-10
  5.65190   -125.4 9.294e+03 1.680e-10
  5.67178   -125.4 9.469e+03 2.006e-10
  5.69197   -123.6 9.350e+03 1.568e-10
  5.73174   -121.7 9.282e+03 1.254e-10
  5.77151   -119.8 9.257e+03 1.022e-10
  5.81129   -117.9 9.275e+03 8.500e-11
  5.85106   -115.8 9.314e+03 7.341e-11
  5.88248   -113.8 9.353e+03 6.690e-11
  5.90236   -113.7 9.327e+03 6.953e-11
  5.93061   -111.6 9.364e+03 6.593e-11
  5.95123   -109.5 9.389e+03 6.498e-11
  5.97112   -109.7 9.393e+03 6.586e-11
  6.01015   -107.6 9.405e+03 6.561e-11
  6.04992   -105.5 9.460e+03 6.602e-11
  6.08970   -103.6 9.596e+03 7.068e-11
  6.11305   -101.7 9.679e+03 8.071e-11
  6.13294   -101.4 9.695e+03 7.806e-11
  6.16924    -99.5 9.782e+03 9.236e-11
  6.20901    -97.7 9.889e+03 1.077e-10
  6.24879    -95.8 9.996e+03 1.190e-10
  6.28856    -94.0 1.005e+04 1.228e-10
  6.32375    -92.1 1.006e+04 1.228e-10
  6.34363    -91.8 1.012e+04 1.347e-10
  6.36810    -89.7 1.015e+04 1.254e-10
  6.40788    -87.3 1.019e+04 1.060e-10
  6.44765    -84.9 1.026e+04 8.820e-11
  6.48742    -82.5 1.035e+04 7.505e-11
  6.51841    -80.0 1.044e+04 6.643e-11
  6.53830    -80.1 1.048e+04 7.648e-11
  6.55433    -77.6 1.057e+04 6.955e-11
  6.57421    -77.1 1.060e+04 6.823e-11
  6.60674    -74.6 1.065e+04 6.599e-11
  6.64651    -71.9 1.066e+04 6.606e-11
  6.68629    -69.5 1.083e+04 6.678e-11
  6.72606    -67.2 1.099e+04 7.931e-11
  6.76502    -64.9 1.088e+04 1.103e-10
  6.78490    -64.5 1.087e+04 1.011e-10
  6.80560    -62.0 1.084e+04 1.360e-10
  6.84538    -59.4 1.088e+04 1.715e-10
  6.88515    -56.8 1.093e+04 1.953e-10
  6.92492    -54.4 1.095e+04 2.025e-10
  6.96469    -52.1 1.094e+04 2.006e-10
  6.99560    -49.9 1.090e+04 1.873e-10
  7.01548    -49.7 1.090e+04 1.482e-10
  7.04424    -47.7 1.090e+04 1.433e-10
  7.08401    -45.9 1.090e+04 1.435e-10
  7.10548    -44.0 1.089e+04 1.579e-10
  7.12536    -44.8 1.083e+04 1.476e-10
  7.16356    -42.9 1.077e+04 1.597e-10
  7.20333    -40.9 1.072e+04 1.640e-10
  7.22618    -38.7 1.056e+04 1.565e-10
  7.24606    -38.4 1.053e+04 1.353e-10
  7.28287    -36.4 1.046e+04 1.165e-10
  7.32265    -34.5 1.043e+04 9.707e-11
  7.36242    -32.6 1.042e+04 8.286e-11
  7.40219    -30.8 1.038e+04 7.491e-11
  7.43687    -29.0 1.036e+04 7.237e-11
  7.45675    -28.5 1.040e+04 5.917e-11
  7.48174    -27.3 1.045e+04 5.952e-11
  7.52151    -27.2 1.085e+04 6.625e-11
  7.56128    -28.5 1.121e+04 1.161e-10
  7.60106    -28.6 1.117e+04 3.184e-10
  7.64083    -27.2 1.138e+04 5.555e-10
  7.66745    -26.0 1.145e+04 6.111e-10
  7.67939    -25.4 1.137e+04 5.560e-10
  7.69254    -26.6 1.132e+04 5.439e-10
  7.72037    -25.5 1.104e+04 3.055e-10
  7.76015    -25.0 1.088e+04 1.522e-10
  7.79992    -24.3 1.072e+04 1.014e-10
  7.83969    -22.8 1.064e+04 8.616e-11
  7.87814    -21.1 1.067e+04 7.983e-11
  7.89803    -20.7 1.066e+04 8.036e-11
  7.91924    -19.1 1.071e+04 7.806e-11
  7.95901    -17.6 1.076e+04 8.609e-11
  7.99878    -15.8 1.067e+04 1.051e-10
  8.03855    -13.6 1.069e+04 1.187e-10
  8.07833    -11.5 1.071e+04 1.204e-10
  8.10872     -9.4 1.077e+04 1.079e-10
  8.12860     -9.3 1.076e+04 1.025e-10
  8.15787     -7.6 1.077e+04 8.847e-11
  8.19764     -5.9 1.068e+04 8.323e-11
  8.23742     -3.6 1.059e+04 8.293e-11
  8.25972     -1.2 1.082e+04 7.330e-11
  8.27961     -1.6 1.079e+04 7.524e-11
  8.31696      0.3 1.095e+04 6.730e-11
  8.33930      2.2 1.099e+04 6.676e-11
  8.35918      2.3 1.098e+04 6.885e-11
  8.39651      3.7 1.097e+04 8.074e-11
  8.43628      5.7 1.085e+04 1.121e-10
  8.47605      7.9 1.086e+04 1.538e-10
  8.51583     10.3 1.094e+04 1.954e-10
  8.54999     12.5 1.101e+04 2.325e-10
  8.56988     13.0 1.103e+04 1.781e-10
  8.59537     15.0 1.109e+04 1.777e-10
  8.63514     16.9 1.111e+04 1.737e-10
  8.67492     18.8 1.117e+04 1.759e-10
  8.71469     20.6 1.119e+04 1.898e-10
  8.75446     22.4 1.123e+04 2.209e-10
  8.78057     24.2 1.129e+04 2.711e-10
  8.80046     24.4 1.133e+04 3.157e-10
  8.82690     26.1 1.152e+04 4.448e-10
  8.84679     25.9 1.139e+04 4.385e-10
  8.87378     27.8 1.156e+04 5.696e-10
  8.91355     29.5 1.172e+04 6.925e-10
  8.95332     30.9 1.193e+04 8.098e-10
  8.99126     31.9 1.210e+04 8.849e-10
  9.01115     31.7 1.242e+04 1.157e-09
  9.03287     32.5 1.234e+04 1.024e-09
  9.07264     33.3 1.207e+04 7.796e-10
  9.11242     34.2 1.172e+04 5.376e-10
  9.15219     35.2 1.140e+04 3.343e-10
  9.19196     36.0 1.120e+04 2.110e-10
  9.22184     36.7 1.109e+04 1.512e-10
  9.24173     36.6 1.109e+04 1.611e-10
  9.27151     37.3 1.103e+04 1.494e-10
  9.31128     38.1 1.099e+04 1.586e-10
  9.35105     39.0 1.092e+04 1.876e-10
  9.39082     40.0 1.096e+04 2.395e-10
  9.41397     41.0 1.105e+04 3.012e-10
  9.43385     40.6 1.114e+04 3.048e-10
  9.45242     41.5 1.118e+04 3.344e-10
  9.47231     41.8 1.102e+04 2.846e-10
  9.51014     42.7 1.100e+04 2.768e-10
  9.54991     43.7 1.092e+04 2.535e-10
  9.58969     44.9 1.083e+04 2.088e-10
  9.62946     46.1 1.078e+04 1.597e-10
  9.66311     47.4 1.074e+04 1.222e-10
  9.68300     48.0 1.064e+04 1.201e-10
  9.70900     49.4 1.061e+04 1.036e-10
  9.74878     50.8 1.053e+04 9.702e-11
  9.78855     52.5 1.045e+04 9.461e-11
  9.82832     54.3 1.040e+04 9.206e-11
  9.86809     56.1 1.035e+04 8.672e-11
  9.89369     58.0 1.032e+04 7.828e-11
  9.91358     58.5 1.024e+04 7.757e-11
  9.94764     60.3 1.017e+04 7.015e-11
  9.98115     62.1 1.006e+04 6.704e-11
 10.00103     61.9 1.027e+04 6.823e-11
 10.02719     63.6 1.031e+04 6.944e-11
 10.06696     65.3 1.039e+04 7.509e-11
 10.10438     67.0 1.041e+04 8.898e-11
 10.12427     67.7 1.034e+04 8.644e-11
 10.14650     69.4 1.031e+04 1.092e-10
 10.18628     71.2 1.028e+04 1.442e-10
 10.22605     72.9 1.031e+04 1.922e-10
 10.26582     74.5 1.040e+04 2.488e-10
 10.30559     76.0 1.053e+04 3.089e-10
 10.33496     77.1 1.067e+04 3.649e-10
 10.35485     78.0 1.080e+04 4.013e-10
 10.37510     78.0 1.077e+04 4.273e-10
 10.39489     78.2 1.085e+04 4.773e-10
 10.41477     78.2 1.108e+04 5.801e-10
 10.43466     78.0 1.151e+04 7.577e-10
 10.45006     77.3 1.196e+04 1.057e-09
 10.46000     77.9 1.224e+04 1.189e-09
 10.47443     76.7 1.290e+04 1.804e-09
 10.49432     75.4 1.365e+04 2.695e-09
 10.51420     73.7 1.443e+04 3.797e-09
 10.53409     71.8 1.509e+04 4.911e-09
 10.55398     69.7 1.540e+04 5.661e-09
 10.56535     67.5 1.539e+04 5.760e-09
 10.56944     66.7 1.632e+04 8.515e-09
 10.57796     66.0 1.662e+04 9.265e-09
 10.59375     64.8 1.591e+04 7.969e-09
 10.61364     63.9 1.504e+04 5.941e-09
 10.63352     63.2 1.433e+04 4.398e-09
 10.65341     62.4 1.374e+04 3.192e-09
 10.67069     61.7 1.318e+04 2.349e-09
 10.68063     60.6 1.247e+04 1.568e-09
 10.69318     60.4 1.221e+04 1.351e-09
 10.71307     60.0 1.183e+04 1.112e-09
 10.74300     60.0 1.164e+04 1.024e-09
 10.77623     60.0 1.097e+04 7.276e-10
 10.79612     59.1 1.037e+04 4.873e-10
 10.82264     60.1 9.987e+03 3.613e-10
 10.86241     61.4 9.666e+03 2.546e-10
 10.90218     62.7 9.443e+03 1.738e-10
 10.94196     63.9 9.293e+03 1.226e-10
 10.98173     65.3 9.130e+03 1.071e-10
 11.00681     66.9 9.121e+03 1.073e-10
 11.02670     66.3 9.191e+03 1.121e-10
 11.06127     67.8 9.212e+03 1.201e-10
 11.10105     69.4 9.304e+03 1.459e-10
 11.13539     71.0 9.410e+03 1.779e-10
 11.15528     71.4 9.545e+03 2.100e-10
 11.18059     73.0 9.698e+03 2.352e-10
 11.21750     74.4 9.769e+03 2.275e-10
 11.23739     73.5 9.641e+03 1.693e-10
 11.26014     74.5 9.614e+03 1.383e-10
 11.29991     75.3 9.550e+03 1.300e-10
 11.33968     76.0 9.589e+03 1.330e-10
 11.37945     76.3 9.784e+03 1.544e-10
 11.41923     76.1 1.004e+04 2.334e-10
 11.44808     76.0 1.035e+04 3.818e-10
 11.46797     75.3 1.074e+04 5.614e-10
 11.49877     75.1 1.113e+04 8.431e-10
 11.53855     74.1 1.118e+04 8.647e-10
 11.57832     73.0 1.094e+04 7.612e-10
 11.61809     72.7 1.043e+04 5.352e-10
 11.65786     72.5 9.878e+03 3.476e-10
 11.67866     72.5 9.464e+03 2.373e-10
 11.69855     72.0 9.458e+03 2.285e-10
 11.72246     72.6 9.184e+03 2.011e-10
 11.74235     72.5 8.978e+03 1.514e-10
 11.77718     74.0 8.972e+03 1.514e-10
 11.81695     75.7 8.986e+03 1.597e-10
 11.85673     77.4 9.138e+03 1.847e-10
 11.88936     78.9 9.383e+03 2.249e-10
 11.90924     78.6 9.451e+03 2.301e-10
 11.93627     80.2 9.725e+03 2.765e-10
 11.97604     81.4 9.956e+03 3.276e-10
 12.00455     81.7 1.005e+04 3.516e-10
 12.01439     81.7 1.004e+04 3.507e-10
 12.01580     82.1 1.015e+04 3.766e-10
 12.02574     82.1 1.024e+04 4.010e-10
 12.04545     82.6 1.046e+04 4.930e-10
 12.06534     83.0 1.078e+04 6.407e-10
 12.08522     83.3 1.117e+04 8.510e-10
 12.10511     83.5 1.160e+04 1.152e-09
 12.11974     83.7 1.206e+04 1.568e-09
 12.12968     83.3 1.210e+04 1.599e-09
 12.14488     83.8 1.264e+04 2.327e-09
 12.16477     84.6 1.316e+04 3.122e-09
 12.18466     85.5 1.368e+04 3.305e-09
 12.20454     85.8 1.374e+04 3.234e-09
 12.22443     85.7 1.390e+04 2.927e-09
 12.23503     85.3 1.413e+04 2.887e-09
 12.23995     85.1 1.459e+04 4.222e-09
 12.24919     85.1 1.468e+04 3.993e-09
 12.25913     84.7 1.498e+04 4.065e-09
 12.26907     81.9 1.694e+04 4.954e-09
 12.27902     74.9 2.115e+04 9.654e-09
 12.28760     68.2 2.182e+04 2.254e-08
 12.29258     68.4 2.259e+04 3.850e-08
 12.29890     66.7 2.158e+04 9.029e-08
