# Columns:
#   distance along LOS (in CHIMPs)
#   peculiar velocity  (in km/s)
#   temperature (K)
#   HI number density
# pos=(43.9123,10.0794,134.302), angles=(1.62464,4.18989)
  0.00736    -27.4 9.254e+03 1.945e-10
  0.03301    -26.2 9.402e+03 2.394e-10
  0.05558    -25.5 9.431e+03 2.306e-10
  0.08244    -24.5 9.609e+03 2.879e-10
  0.11735    -23.5 9.840e+03 3.542e-10
  0.13992    -23.5 1.001e+04 3.633e-10
  0.15145    -22.7 1.033e+04 4.525e-10
  0.17402    -24.3 1.171e+04 7.565e-10
  0.20168    -23.4 1.154e+04 7.598e-10
  0.22425    -24.4 1.246e+04 1.136e-09
  0.26301    -23.0 1.179e+04 8.927e-10
  0.28602    -22.1 1.122e+04 7.229e-10
  0.30859    -23.0 1.159e+04 8.014e-10
  0.34778    -22.0 1.115e+04 6.547e-10
  0.37036    -23.3 1.127e+04 6.525e-10
  0.39844    -21.8 1.124e+04 6.528e-10
  0.43212    -19.9 1.146e+04 7.610e-10
  0.45469    -21.7 1.147e+04 7.768e-10
  0.48872    -20.9 1.216e+04 1.079e-09
  0.51339    -20.4 1.288e+04 1.380e-09
  0.51845    -22.2 1.316e+04 1.636e-09
  0.52755    -22.7 1.282e+04 1.524e-09
  0.54496    -23.5 1.351e+04 2.203e-09
  0.55843    -24.0 1.407e+04 2.983e-09
  0.56972    -24.4 1.361e+04 2.546e-09
  0.58931    -24.9 1.375e+04 2.982e-09
  0.60060    -25.1 1.334e+04 2.476e-09
  0.61267    -25.4 1.348e+04 2.666e-09
  0.63148    -25.7 1.367e+04 2.698e-09
  0.64277    -25.8 1.303e+04 2.225e-09
  0.65781    -25.9 1.296e+04 2.087e-09
  0.67365    -26.1 1.282e+04 1.805e-09
  0.68493    -25.9 1.232e+04 1.627e-09
  0.70295    -26.2 1.218e+04 1.365e-09
  0.71582    -27.1 1.216e+04 1.159e-09
  0.72710    -26.3 1.178e+04 1.086e-09
  0.74670    -26.9 1.173e+04 9.480e-10
  0.75798    -25.9 1.145e+04 8.877e-10
  0.77067    -26.8 1.127e+04 7.730e-10
  0.78887    -26.6 1.097e+04 7.728e-10
  0.80015    -26.1 1.090e+04 7.286e-10
  0.81581    -26.2 1.087e+04 7.295e-10
  0.83113    -26.0 1.109e+04 9.132e-10
  0.85380    -24.0 1.058e+04 6.601e-10
  0.87552    -23.5 1.080e+04 7.677e-10
  0.89608    -23.4 1.070e+04 7.338e-10
  0.91557    -21.3 1.036e+04 5.709e-10
  0.94015    -20.9 1.070e+04 7.339e-10
  0.97733    -20.5 1.065e+04 7.278e-10
  0.99990    -18.5 1.059e+04 6.877e-10
  1.03043    -18.1 1.035e+04 6.182e-10
  1.06167    -17.3 9.799e+03 4.392e-10
  1.08424    -15.7 9.987e+03 4.923e-10
  1.12072    -14.9 9.393e+03 3.300e-10
  1.14600    -14.1 8.828e+03 2.206e-10
  1.16858    -12.7 9.117e+03 2.679e-10
  1.20777    -11.9 8.673e+03 2.000e-10
  1.23034    -10.7 9.036e+03 2.564e-10
  1.25614     -9.7 8.795e+03 2.301e-10
  1.29211     -8.3 8.689e+03 2.163e-10
  1.31468     -7.3 9.110e+03 3.097e-10
  1.34643     -5.7 9.014e+03 2.987e-10
  1.37644     -4.1 8.878e+03 2.654e-10
  1.39901     -3.1 9.119e+03 3.132e-10
  1.43671     -1.6 8.875e+03 2.520e-10
  1.46078     -0.4 8.632e+03 2.026e-10
  1.48335      0.7 8.653e+03 2.041e-10
  1.52254      2.0 8.559e+03 1.898e-10
  1.54511      3.4 8.559e+03 1.885e-10
  1.57214      4.9 8.582e+03 1.921e-10
  1.59958      6.1 8.719e+03 2.148e-10
  1.61175      6.2 8.711e+03 2.141e-10
  1.62945      7.8 8.727e+03 2.140e-10
  1.66242      9.1 9.081e+03 2.750e-10
  1.69121     10.0 9.511e+03 3.640e-10
  1.70240     11.2 9.501e+03 3.413e-10
  1.71866     11.3 9.626e+03 3.926e-10
  1.73319     11.3 9.847e+03 4.833e-10
  1.74447     11.8 1.002e+04 5.041e-10
  1.76380     12.0 1.033e+04 6.378e-10
  1.77536     12.0 1.080e+04 8.420e-10
  1.78664     12.7 1.101e+04 8.656e-10
  1.80624     12.8 1.148e+04 1.152e-09
  1.81752     13.4 1.162e+04 1.158e-09
  1.83151     13.6 1.202e+04 1.529e-09
  1.84841     13.9 1.240e+04 1.896e-09
  1.85969     14.5 1.246e+04 1.835e-09
  1.87666     14.9 1.270e+04 2.104e-09
  1.89057     15.1 1.277e+04 2.110e-09
  1.90186     15.8 1.284e+04 2.162e-09
  1.92146     15.9 1.288e+04 2.149e-09
  1.93274     16.4 1.297e+04 2.216e-09
  1.94437     16.4 1.303e+04 2.241e-09
  1.96142     16.4 1.290e+04 2.035e-09
  1.96939     16.6 1.320e+04 2.347e-09
  1.97491     17.0 1.343e+04 2.666e-09
  1.98951     17.0 1.349e+04 2.669e-09
  2.00579     16.8 1.337e+04 2.355e-09
  2.01708     17.4 1.384e+04 3.080e-09
  2.03465     17.2 1.376e+04 2.820e-09
  2.04796     16.8 1.356e+04 2.381e-09
  2.05925     17.8 1.406e+04 3.142e-09
  2.07884     17.4 1.377e+04 2.708e-09
  2.09013     18.5 1.415e+04 3.136e-09
  2.10237     18.1 1.376e+04 2.657e-09
  2.12101     17.5 1.326e+04 2.122e-09
  2.13230     18.6 1.359e+04 2.414e-09
  2.15199     17.5 1.291e+04 1.538e-09
  2.17456     18.7 1.314e+04 2.012e-09
  2.19265     18.6 1.300e+04 1.831e-09
  2.20535     18.5 1.299e+04 1.523e-09
  2.21663     19.1 1.338e+04 2.205e-09
  2.23633     18.7 1.342e+04 1.246e-09
  2.24761     19.8 1.388e+04 3.049e-09
  2.26036     20.0 1.395e+04 2.815e-09
  2.27840     20.2 1.403e+04 2.289e-09
  2.28968     20.6 1.445e+04 3.788e-09
  2.30551     20.7 1.454e+04 3.204e-09
  2.32057     20.6 1.467e+04 2.337e-09
  2.32722     21.1 1.518e+04 4.274e-09
  2.33473     21.2 1.526e+04 4.637e-09
  2.35065     21.0 1.537e+04 3.920e-09
  2.36273     20.7 1.528e+04 2.940e-09
  2.37402     21.4 1.612e+04 5.430e-09
  2.39362     21.0 1.615e+04 4.461e-09
  2.40490     21.9 1.667e+04 6.675e-09
  2.41836     21.5 1.672e+04 6.057e-09
  2.43579     21.0 1.678e+04 4.683e-09
  2.44707     21.8 1.674e+04 7.073e-09
  2.46351     21.2 1.677e+04 6.368e-09
  2.47795     20.3 1.714e+04 5.181e-09
  2.48924     21.2 1.719e+04 8.348e-09
  2.50865     20.3 1.759e+04 8.146e-09
  2.52012     19.5 1.825e+04 6.916e-09
  2.53141     20.5 1.799e+04 1.218e-08
  2.55100     19.7 1.837e+04 1.159e-08
  2.56229     20.4 1.844e+04 1.611e-08
  2.57636     19.6 1.892e+04 1.642e-08
  2.59317     18.4 1.925e+04 1.408e-08
  2.60446     19.0 1.923e+04 1.887e-08
  2.62150     17.8 1.920e+04 1.663e-08
  2.63534     17.0 1.870e+04 1.176e-08
  2.64663     18.2 1.889e+04 1.570e-08
  2.66622     17.6 1.831e+04 1.201e-08
  2.67751     19.1 1.844e+04 1.333e-08
  2.68548     18.9 1.803e+04 1.054e-08
  2.69676     19.2 1.799e+04 9.830e-09
  2.70839     18.6 1.725e+04 7.181e-09
  2.71968     20.0 1.756e+04 7.436e-09
  2.73436     19.6 1.701e+04 6.029e-09
  2.75056     18.8 1.593e+04 4.648e-09
  2.76184     20.0 1.679e+04 5.006e-09
  2.77950     19.7 1.602e+04 4.417e-09
  2.79273     19.4 1.496e+04 3.674e-09
  2.80401     20.7 1.627e+04 4.421e-09
  2.82361     20.3 1.528e+04 3.951e-09
  2.83489     20.9 1.620e+04 4.457e-09
  2.84722     21.0 1.562e+04 4.194e-09
  2.86578     20.9 1.453e+04 3.287e-09
  2.87706     22.1 1.633e+04 4.653e-09
  2.89236     21.7 1.549e+04 3.580e-09
  2.90795     20.1 1.458e+04 2.520e-09
  2.91923     22.5 1.677e+04 3.889e-09
  2.93750     20.7 1.578e+04 2.662e-09
  2.95011     17.7 1.421e+04 2.356e-09
  2.96140     21.2 1.713e+04 2.339e-09
  2.98100     17.8 1.453e+04 1.993e-09
  2.99228     21.3 1.803e+04 1.704e-09
  3.00521     17.6 1.451e+04 1.449e-09
  3.02316     14.6 1.371e+04 1.727e-09
  3.03445     16.4 1.454e+04 1.143e-09
  3.04751     11.9 1.441e+04 1.840e-09
  3.05880     12.4 1.445e+04 1.810e-09
  3.06533      8.8 1.491e+04 3.825e-09
  3.07662      8.9 1.473e+04 2.447e-09
  3.09550      9.2 1.527e+04 5.256e-09
  3.10750     10.2 1.554e+04 7.074e-09
  3.11879     11.1 1.495e+04 5.184e-09
  3.13838     11.9 1.503e+04 5.193e-09
  3.14967     12.3 1.434e+04 3.416e-09
  3.16321     12.7 1.428e+04 2.922e-09
  3.18055     12.3 1.418e+04 1.873e-09
  3.19184     12.0 1.312e+04 1.322e-09
  3.20835      9.5 1.261e+04 7.219e-10
  3.22272      6.9 1.112e+04 3.548e-10
  3.23400      7.0 1.086e+04 3.390e-10
  3.25350      5.3 1.005e+04 2.654e-10
  3.26498      5.9 9.794e+03 2.305e-10
  3.28765      7.9 9.505e+03 1.968e-10
  3.32685      7.5 9.358e+03 1.845e-10
  3.34942      9.8 9.210e+03 1.829e-10
  3.37783      9.0 9.339e+03 2.014e-10
  3.41118      8.0 9.615e+03 2.753e-10
  3.43375     10.4 9.575e+03 2.535e-10
  3.46812      9.2 9.792e+03 3.219e-10
  3.49552      8.5 9.667e+03 3.084e-10
  3.51809      9.8 9.830e+03 3.284e-10
  3.55728      8.9 9.565e+03 2.806e-10
  3.57986     10.1 9.823e+03 3.590e-10
  3.60354      9.7 9.302e+03 2.489e-10
  3.64162      9.4 8.774e+03 1.584e-10
  3.66419     11.1 9.048e+03 1.887e-10
  3.69383     10.2 8.515e+03 1.155e-10
  3.72596     10.3 8.311e+03 1.098e-10
  3.74853     11.3 8.441e+03 1.253e-10
  3.77177     11.4 8.629e+03 1.433e-10
  3.79434     11.1 8.653e+03 1.430e-10
  3.81029     10.5 9.385e+03 2.218e-10
  3.82148     10.6 9.659e+03 2.576e-10
  3.84035      9.4 1.004e+04 3.239e-10
  3.85227      7.5 1.049e+04 5.247e-10
  3.86355      7.5 1.057e+04 7.029e-10
  3.88315      7.2 1.082e+04 9.311e-10
  3.89443      7.8 1.109e+04 1.124e-09
  3.90806      7.9 1.118e+04 1.165e-09
  3.92532      8.1 1.107e+04 1.074e-09
  3.93660      8.1 1.113e+04 1.067e-09
  3.95320      7.5 1.086e+04 8.419e-10
  3.96748      6.5 1.048e+04 6.284e-10
  3.97877      6.0 1.034e+04 6.068e-10
  3.99834      5.0 9.874e+03 4.183e-10
  4.02092      4.0 9.549e+03 3.588e-10
  4.04054      3.4 9.385e+03 3.324e-10
  4.05182      3.9 9.386e+03 3.243e-10
  4.06606      3.4 9.432e+03 3.348e-10
  4.08270      2.6 9.555e+03 3.906e-10
  4.09399      3.3 9.442e+03 3.510e-10
  4.11120      2.6 9.757e+03 4.283e-10
  4.12487      0.3 1.100e+04 7.206e-10
  4.13599      0.8 1.085e+04 5.813e-10
  4.14489      2.8 9.941e+03 4.097e-10
  4.15575     -0.2 1.165e+04 7.385e-10
  4.16704     -0.1 1.159e+04 6.098e-10
  4.17891     -3.3 1.256e+04 1.234e-09
  4.19792     -4.9 1.272e+04 2.333e-09
  4.20921     -6.7 1.330e+04 2.639e-09
  4.22406     -9.5 1.565e+04 5.217e-09
  4.24009    -12.7 1.828e+04 9.334e-09
  4.25138    -15.1 1.900e+04 1.358e-08
  4.26920    -17.7 1.924e+04 1.496e-08
  4.28226    -19.9 1.861e+04 1.299e-08
  4.29354    -21.2 1.877e+04 1.223e-08
  4.31314    -24.1 1.815e+04 5.967e-09
  4.32443    -28.8 1.815e+04 3.914e-09
  4.33691    -36.7 1.492e+04 1.624e-09
  4.35531    -41.8 1.150e+04 1.186e-09
  4.36659    -43.1 1.101e+04 1.218e-09
  4.38205    -41.9 1.089e+04 1.198e-09
  4.39748    -40.8 1.092e+04 1.197e-09
  4.40876    -41.2 1.092e+04 9.786e-10
  4.42720    -40.9 1.110e+04 8.624e-10
  4.43964    -40.9 1.127e+04 7.677e-10
  4.45093    -43.3 1.059e+04 5.252e-10
  4.47053    -43.9 1.023e+04 4.642e-10
  4.48181    -45.8 9.298e+03 3.531e-10
  4.49491    -45.5 9.237e+03 3.513e-10
  4.50692    -45.2 9.134e+03 3.659e-10
  4.51342    -44.4 9.077e+03 3.428e-10
  4.52408    -43.9 9.075e+03 3.201e-10
  4.55153    -42.8 9.151e+03 3.490e-10
  4.58594    -41.6 9.300e+03 3.634e-10
  4.60851    -41.4 9.001e+03 2.391e-10
  4.64182    -40.5 9.014e+03 2.464e-10
  4.67028    -39.6 9.005e+03 2.490e-10
  4.69285    -39.3 8.661e+03 1.774e-10
  4.73204    -38.6 8.778e+03 2.001e-10
  4.77718    -37.4 8.991e+03 2.364e-10
  4.81638    -36.4 9.653e+03 3.599e-10
  4.83895    -35.3 9.493e+03 3.304e-10
  4.85615    -36.0 1.015e+04 5.442e-10
  4.86896    -37.2 1.080e+04 7.961e-10
  4.87126    -36.3 1.051e+04 6.674e-10
  4.88092    -35.5 1.043e+04 6.001e-10
  4.90052    -36.1 1.105e+04 9.165e-10
  4.91181    -35.6 1.098e+04 7.665e-10
  4.92376    -36.3 1.158e+04 1.117e-09
  4.94269    -36.5 1.197e+04 1.495e-09
  4.95397    -37.2 1.201e+04 1.486e-09
  4.96890    -37.4 1.221e+04 1.877e-09
  4.98486    -37.2 1.236e+04 2.008e-09
  4.99614    -37.8 1.260e+04 2.444e-09
  5.01405    -37.6 1.276e+04 2.439e-09
  5.02702    -38.0 1.296e+04 1.998e-09
  5.03831    -38.3 1.401e+04 2.646e-09
  5.05791    -39.9 1.318e+04 1.908e-09
  5.06919    -40.3 1.431e+04 2.425e-09
  5.08176    -41.6 1.297e+04 1.686e-09
  5.10007    -42.3 1.251e+04 1.406e-09
  5.11136    -42.7 1.254e+04 1.500e-09
  5.12690    -43.3 1.229e+04 1.297e-09
  5.14224    -44.0 1.220e+04 1.216e-09
  5.15353    -44.7 1.201e+04 1.168e-09
  5.17204    -45.4 1.199e+04 1.138e-09
  5.18441    -46.0 1.207e+04 1.134e-09
  5.19570    -46.8 1.201e+04 1.189e-09
  5.21529    -47.3 1.207e+04 1.217e-09
  5.22658    -48.1 1.248e+04 1.399e-09
  5.23099    -47.8 1.211e+04 1.238e-09
  5.24227    -46.7 1.210e+04 1.267e-09
  5.27371    -45.9 1.203e+04 1.179e-09
  5.29982    -45.4 1.169e+04 9.302e-10
  5.32240    -45.8 1.191e+04 1.224e-09
  5.36159    -45.8 1.172e+04 1.025e-09
  5.38416    -46.3 1.199e+04 1.346e-09
  5.39785    -47.2 1.209e+04 1.480e-09
  5.41485    -47.1 1.236e+04 1.705e-09
  5.42613    -47.3 1.269e+04 2.130e-09
  5.44290    -47.0 1.307e+04 2.481e-09
  5.45702    -46.8 1.319e+04 2.537e-09
  5.46830    -46.5 1.378e+04 3.202e-09
  5.48790    -46.7 1.387e+04 2.951e-09
  5.49918    -46.9 1.430e+04 3.178e-09
  5.51061    -47.6 1.409e+04 2.515e-09
  5.53007    -49.3 1.371e+04 2.122e-09
  5.54135    -49.9 1.339e+04 1.833e-09
  5.55575    -51.6 1.284e+04 1.638e-09
  5.57223    -52.4 1.269e+04 1.619e-09
  5.58352    -53.1 1.190e+04 1.266e-09
  5.59302    -53.5 1.184e+04 1.240e-09
  5.60431    -53.1 1.183e+04 1.223e-09
  5.61440    -53.4 1.179e+04 1.203e-09
  5.63707    -54.0 1.141e+04 9.951e-10
  5.66871    -53.9 1.140e+04 1.019e-09
  5.68745    -53.9 1.141e+04 1.029e-09
  5.69874    -54.0 1.095e+04 8.534e-10
  5.71375    -53.8 1.104e+04 9.188e-10
  5.72962    -53.6 1.109e+04 9.413e-10
  5.74091    -53.3 1.106e+04 9.334e-10
  5.75890    -53.0 1.117e+04 9.728e-10
  5.77179    -53.1 1.164e+04 1.041e-09
  5.78308    -53.0 1.135e+04 1.074e-09
  5.80267    -55.7 1.396e+04 1.644e-09
  5.81396    -55.5 1.298e+04 1.818e-09
  5.82661    -58.7 1.541e+04 3.737e-09
  5.84484    -59.9 1.746e+04 8.445e-09
  5.85613    -58.2 1.562e+04 6.464e-09
  5.87175    -57.7 1.736e+04 1.097e-08
  5.88701    -57.1 1.858e+04 1.450e-08
  5.89829    -56.0 1.642e+04 7.679e-09
  5.91689    -56.0 1.710e+04 8.148e-09
  5.92918    -56.7 1.789e+04 6.558e-09
  5.94046    -58.3 1.557e+04 3.441e-09
  5.95505    -61.1 1.459e+04 2.318e-09
  5.96436    -58.5 1.534e+04 2.950e-09
  5.97134    -59.6 1.368e+04 2.000e-09
  5.98461    -61.6 1.308e+04 1.660e-09
  6.00223    -62.5 1.267e+04 1.529e-09
  6.01351    -61.7 1.276e+04 1.589e-09
  6.02975    -62.1 1.272e+04 1.583e-09
  6.04439    -62.3 1.259e+04 1.534e-09
  6.05568    -62.3 1.310e+04 1.811e-09
  6.07489    -62.5 1.288e+04 1.638e-09
  6.08656    -62.6 1.254e+04 1.370e-09
  6.09785    -62.7 1.370e+04 2.330e-09
  6.11745    -63.0 1.306e+04 1.753e-09
  6.12873    -63.1 1.373e+04 2.537e-09
  6.14260    -63.4 1.291e+04 1.684e-09
  6.15961    -63.7 1.207e+04 1.082e-09
  6.17090    -63.7 1.294e+04 1.741e-09
  6.18775    -64.2 1.206e+04 1.135e-09
  6.20178    -64.5 1.143e+04 8.075e-10
  6.21307    -64.8 1.181e+04 9.420e-10
  6.23266    -64.9 1.136e+04 7.031e-10
  6.24395    -65.6 1.172e+04 9.535e-10
  6.26684    -65.6 1.147e+04 8.338e-10
  6.30070    -65.9 1.138e+04 7.562e-10
  6.31700    -66.3 1.147e+04 7.743e-10
  6.32829    -65.8 1.175e+04 9.657e-10
  6.34575    -66.5 1.190e+04 1.061e-09
  6.35917    -66.9 1.210e+04 1.261e-09
  6.37045    -67.3 1.211e+04 1.272e-09
  6.39005    -67.3 1.225e+04 1.448e-09
  6.40134    -67.7 1.207e+04 1.152e-09
  6.41346    -67.6 1.208e+04 1.170e-09
  6.43222    -67.3 1.204e+04 1.072e-09
  6.44350    -68.8 1.147e+04 7.061e-10
  6.45860    -69.1 1.133e+04 5.389e-10
  6.47439    -70.6 1.114e+04 3.993e-10
  6.48567    -72.3 1.056e+04 3.426e-10
  6.50374    -73.8 1.042e+04 3.124e-10
  6.51656    -74.9 1.040e+04 3.094e-10
  6.52784    -75.3 1.031e+04 3.219e-10
  6.54744    -76.2 1.047e+04 3.667e-10
  6.55872    -76.4 1.042e+04 4.249e-10
  6.57146    -77.1 1.067e+04 5.011e-10
  6.58961    -78.0 1.100e+04 6.055e-10
  6.60089    -78.0 1.112e+04 7.008e-10
  6.61660    -78.9 1.148e+04 8.251e-10
  6.63177    -79.9 1.178e+04 9.077e-10
  6.64306    -80.5 1.224e+04 1.196e-09
  6.66174    -81.8 1.256e+04 1.363e-09
  6.67394    -83.1 1.262e+04 1.422e-09
  6.68003    -83.4 1.280e+04 1.541e-09
  6.69040    -82.7 1.289e+04 1.631e-09
  6.70492    -83.6 1.263e+04 1.483e-09
  6.72759    -85.1 1.281e+04 1.659e-09
  6.76351    -86.3 1.220e+04 1.279e-09
  6.78936    -88.2 1.149e+04 8.969e-10
  6.81193    -89.8 1.151e+04 8.578e-10
  6.83143    -90.6 1.135e+04 8.023e-10
  6.84261    -91.7 1.133e+04 8.002e-10
  6.86221    -92.7 1.127e+04 7.859e-10
  6.87350    -93.7 1.120e+04 7.421e-10
  6.88745    -96.9 1.146e+04 8.987e-10
  6.90438   -103.1 1.425e+04 1.603e-09
  6.91566   -111.6 1.824e+04 3.408e-09
  6.93260   -115.9 1.900e+04 6.638e-09
  6.94655   -118.9 1.910e+04 9.122e-09
  6.95783   -124.7 1.957e+04 1.094e-08
  6.97743   -127.6 1.867e+04 8.690e-09
  6.98872   -134.0 1.751e+04 5.183e-09
  7.00031   -138.2 1.480e+04 2.241e-09
  7.01960   -141.8 1.198e+04 1.057e-09
  7.03088   -145.8 1.075e+04 6.080e-10
  7.04115   -146.0 1.042e+04 4.500e-10
  7.05243   -145.7 1.059e+04 4.902e-10
  7.06177   -145.3 1.038e+04 3.767e-10
  7.07305   -147.0 1.003e+04 3.069e-10
  7.09059   -146.5 9.875e+03 2.774e-10
  7.10403   -145.3 9.824e+03 2.578e-10
  7.12670   -147.5 9.566e+03 2.360e-10
  7.16589   -146.6 9.292e+03 2.026e-10
  7.18847   -147.8 9.208e+03 1.955e-10
  7.21493   -146.9 9.157e+03 1.851e-10
  7.25023   -146.1 9.149e+03 1.833e-10
  7.27280   -146.8 9.134e+03 1.819e-10
  7.30522   -146.1 9.132e+03 1.810e-10
  7.33457   -145.4 9.138e+03 1.788e-10
  7.35714   -145.7 9.115e+03 1.739e-10
  7.39209   -144.8 9.076e+03 1.607e-10
  7.41466   -145.2 9.063e+03 1.533e-10
  7.41890   -144.3 9.011e+03 1.385e-10
  7.44147   -144.2 8.953e+03 1.271e-10
  7.48067   -143.3 8.897e+03 1.143e-10
  7.50324   -143.1 8.847e+03 1.054e-10
  7.53093   -142.1 8.826e+03 9.914e-11
  7.56500   -141.0 8.825e+03 9.796e-11
  7.58758   -140.7 8.804e+03 9.285e-11
  7.62121   -139.7 8.833e+03 9.306e-11
  7.64934   -138.9 8.956e+03 1.019e-10
  7.67191   -138.5 8.953e+03 1.003e-10
  7.71111   -137.7 9.061e+03 1.191e-10
  7.73368   -137.3 9.100e+03 1.207e-10
  7.75664   -136.5 9.242e+03 1.478e-10
  7.79544   -135.7 9.374e+03 1.741e-10
  7.81801   -135.5 9.386e+03 1.761e-10
  7.84692   -134.7 9.473e+03 1.950e-10
  7.87978   -133.8 9.496e+03 2.013e-10
  7.90235   -133.4 9.397e+03 1.868e-10
  7.93721   -132.3 9.355e+03 1.816e-10
  7.96411   -131.0 9.282e+03 1.570e-10
  7.98668   -130.2 9.163e+03 1.255e-10
  8.02588   -128.7 9.125e+03 1.080e-10
  8.04845   -128.1 9.065e+03 8.967e-11
  8.07263   -126.6 9.103e+03 8.529e-11
  8.11021   -125.2 9.188e+03 8.483e-11
  8.13116   -125.0 9.306e+03 8.996e-11
  8.13872   -124.8 9.246e+03 8.302e-11
  8.16292   -123.9 9.456e+03 1.133e-10
  8.19455   -123.3 9.767e+03 1.680e-10
  8.21712   -123.0 9.944e+03 2.428e-10
  8.25320   -122.5 1.051e+04 4.003e-10
  8.27889   -122.4 1.121e+04 6.340e-10
  8.30146   -122.1 1.159e+04 8.399e-10
  8.34065   -122.7 1.252e+04 1.303e-09
  8.36313   -123.4 1.320e+04 1.849e-09
  8.37715   -123.6 1.376e+04 2.515e-09
  8.39391   -124.0 1.459e+04 3.577e-09
  8.40520   -124.4 1.513e+04 4.283e-09
  8.42229   -125.0 1.621e+04 6.545e-09
  8.43608   -125.9 1.707e+04 8.834e-09
  8.44736   -126.5 1.792e+04 1.157e-08
  8.46696   -127.7 1.868e+04 1.563e-08
  8.47825   -128.7 1.914e+04 1.809e-08
  8.48927   -129.9 1.958e+04 2.124e-08
  8.50051   -131.1 2.020e+04 2.704e-08
  8.50908   -131.8 1.936e+04 2.020e-08
  8.52041   -132.9 1.941e+04 2.083e-08
  8.53515   -133.1 1.808e+04 1.296e-08
  8.55130   -133.2 1.631e+04 6.655e-09
  8.56258   -133.8 1.629e+04 6.951e-09
  8.58029   -133.8 1.462e+04 3.457e-09
  8.59347   -134.4 1.328e+04 1.750e-09
  8.60475   -134.6 1.333e+04 1.916e-09
  8.62435   -135.3 1.238e+04 1.133e-09
  8.63563   -135.4 1.239e+04 1.207e-09
  8.64800   -135.6 1.170e+04 8.347e-10
  8.66652   -135.5 1.113e+04 6.390e-10
  8.67780   -135.5 1.117e+04 6.747e-10
  8.69315   -135.1 1.077e+04 5.704e-10
  8.70868   -134.2 1.057e+04 5.194e-10
  8.71997   -134.2 1.057e+04 5.285e-10
  8.73829   -133.5 1.049e+04 5.058e-10
  8.75085   -132.6 1.047e+04 5.011e-10
  8.76214   -132.7 1.040e+04 4.964e-10
  8.78173   -131.9 1.039e+04 4.948e-10
  8.79302   -132.1 1.039e+04 4.916e-10
  8.80600   -131.6 1.043e+04 4.944e-10
  8.82390   -131.4 1.065e+04 5.497e-10
  8.83519   -131.8 1.059e+04 5.391e-10
  8.85114   -131.8 1.087e+04 6.610e-10
  8.86259   -131.8 1.131e+04 8.785e-10
  8.86623   -131.8 1.093e+04 6.765e-10
  8.87736   -132.1 1.084e+04 6.720e-10
  8.89629   -131.9 1.126e+04 9.158e-10
  8.90824   -131.6 1.174e+04 1.263e-09
  8.91952   -131.6 1.156e+04 1.170e-09
  8.93912   -131.1 1.199e+04 1.534e-09
