# Columns:
#   distance along LOS (in CHIMPs)
#   peculiar velocity  (in km/s)
#   temperature (K)
#   HI number density
# pos=(43.2434,235.263,23.6379), angles=(1.87976,3.1409)
  0.00335   -101.5 2.216e+04 5.567e-08
  0.00798   -102.0 2.175e+04 3.719e-08
  0.01439   -103.3 2.097e+04 2.186e-08
  0.02982   -105.3 1.961e+04 1.232e-08
  0.05037   -107.0 1.810e+04 6.124e-09
  0.06583   -110.3 1.625e+04 2.565e-09
  0.07608   -114.5 1.426e+04 1.430e-09
  0.09137   -119.7 1.230e+04 1.066e-09
  0.11187   -122.9 1.212e+04 1.028e-09
  0.12869   -124.6 1.198e+04 1.081e-09
  0.13895   -125.8 1.221e+04 1.382e-09
  0.15288   -126.1 1.265e+04 1.811e-09
  0.17338   -126.2 1.297e+04 2.233e-09
  0.19156   -126.2 1.318e+04 2.498e-09
  0.20181   -126.7 1.329e+04 2.626e-09
  0.21438   -127.0 1.325e+04 2.528e-09
  0.23489   -127.6 1.316e+04 2.294e-09
  0.25443   -128.4 1.300e+04 1.975e-09
  0.26468   -129.4 1.273e+04 1.656e-09
  0.27589   -131.0 1.252e+04 1.431e-09
  0.29639   -132.9 1.235e+04 1.328e-09
  0.31689   -135.0 1.228e+04 1.306e-09
  0.32755   -137.1 1.235e+04 1.412e-09
  0.33780   -137.7 1.233e+04 1.420e-09
  0.35790   -139.2 1.246e+04 1.517e-09
  0.37840   -140.6 1.250e+04 1.550e-09
  0.39042   -141.8 1.249e+04 1.553e-09
  0.40067   -141.7 1.257e+04 1.607e-09
  0.41940   -142.7 1.237e+04 1.497e-09
  0.43991   -143.5 1.199e+04 1.279e-09
  0.45329   -144.2 1.152e+04 1.034e-09
  0.46354   -144.1 1.148e+04 9.800e-10
  0.48091   -144.7 1.099e+04 7.820e-10
  0.50141   -145.0 1.054e+04 6.237e-10
  0.51616   -145.2 1.014e+04 4.966e-10
  0.52641   -145.4 1.019e+04 5.151e-10
  0.54242   -145.4 9.904e+03 4.311e-10
  0.56292   -145.2 9.655e+03 3.677e-10
  0.57903   -144.4 9.487e+03 3.276e-10
  0.58928   -144.8 9.618e+03 3.833e-10
  0.60392   -144.0 9.591e+03 3.600e-10
  0.62443   -143.2 9.616e+03 3.567e-10
  0.64190   -142.8 9.949e+03 3.792e-10
  0.65215   -144.7 1.203e+04 7.315e-10
  0.66543   -144.8 1.282e+04 8.726e-10
  0.68593   -144.8 1.328e+04 1.016e-09
  0.70126   -145.0 1.375e+04 1.254e-09
  0.70979   -145.3 1.433e+04 1.436e-09
  0.71492   -147.8 1.777e+04 2.391e-09
  0.72171   -150.1 2.131e+04 3.279e-09
  0.73196   -153.4 2.557e+04 5.417e-09
  0.74123   -157.2 2.763e+04 1.275e-08
  0.74635   -163.2 2.715e+04 6.121e-08
  0.75247   -165.2 2.537e+04 1.332e-07
  0.76272   -166.8 2.326e+04 2.882e-07
  0.77266   -168.1 2.197e+04 5.281e-07
  0.77779   -170.0 2.173e+04 5.173e-07
  0.78322   -171.6 2.117e+04 7.172e-07
  0.79347   -174.0 2.095e+04 7.933e-07
  0.80372   -176.6 2.079e+04 7.734e-07
  0.80922   -178.2 2.076e+04 5.368e-07
  0.81435   -177.9 2.149e+04 2.146e-07
  0.82422   -178.9 2.254e+04 9.227e-08
  0.83447   -180.1 2.462e+04 3.429e-08
  0.84066   -181.7 2.781e+04 1.243e-08
  0.85096   -185.2 3.581e+04 2.467e-09
  0.87045   -189.8 3.419e+04 1.065e-09
  0.89095   -192.7 2.959e+04 6.598e-10
  0.90362   -194.9 2.097e+04 5.392e-10
  0.91387   -197.8 1.166e+04 6.205e-10
  0.93196   -196.5 1.147e+04 6.219e-10
  0.95246   -195.1 1.142e+04 6.343e-10
  0.96649   -193.4 1.149e+04 6.497e-10
  0.97674   -192.6 1.150e+04 6.811e-10
  0.99346   -190.9 1.156e+04 7.160e-10
  1.01396   -189.2 1.165e+04 7.579e-10
  1.02936   -187.4 1.176e+04 8.074e-10
  1.03961   -187.2 1.220e+04 9.999e-10
  1.05497   -185.7 1.242e+04 1.108e-09
  1.07547   -184.1 1.268e+04 1.241e-09
  1.09223   -182.5 1.300e+04 1.417e-09
  1.10248   -183.0 1.370e+04 2.081e-09
  1.11647   -181.6 1.404e+04 2.492e-09
  1.13698   -180.4 1.439e+04 3.029e-09
  1.15510   -179.1 1.476e+04 3.724e-09
  1.16535   -179.2 1.525e+04 4.891e-09
  1.17798   -177.9 1.568e+04 5.772e-09
  1.19848   -176.7 1.613e+04 6.779e-09
  1.21797   -175.6 1.659e+04 7.937e-09
  1.22822   -175.8 1.660e+04 7.803e-09
  1.23949   -174.8 1.704e+04 8.740e-09
  1.25999   -173.9 1.746e+04 9.272e-09
  1.28049   -173.3 1.764e+04 9.361e-09
  1.29109   -173.0 1.789e+04 9.016e-09
  1.30134   -173.4 1.706e+04 5.852e-09
  1.32150   -173.3 1.710e+04 5.458e-09
  1.34200   -173.2 1.714e+04 5.188e-09
  1.35396   -173.3 1.717e+04 5.004e-09
  1.36421   -173.9 1.593e+04 3.177e-09
  1.38300   -174.0 1.596e+04 3.141e-09
  1.40350   -174.0 1.596e+04 3.006e-09
  1.41683   -174.2 1.580e+04 2.699e-09
  1.42708   -174.3 1.465e+04 2.090e-09
  1.44451   -174.5 1.439e+04 1.849e-09
  1.46501   -174.8 1.393e+04 1.581e-09
  1.47970   -174.9 1.339e+04 1.364e-09
  1.48995   -174.4 1.311e+04 1.376e-09
  1.50601   -174.3 1.294e+04 1.237e-09
  1.52652   -174.1 1.279e+04 1.142e-09
  1.54256   -173.7 1.267e+04 1.091e-09
  1.55282   -173.3 1.266e+04 1.129e-09
  1.57787   -173.0 1.250e+04 1.043e-09
  1.60563   -171.1 1.218e+04 8.888e-10
  1.62613   -168.6 1.214e+04 9.139e-10
  1.65997   -166.4 1.189e+04 7.802e-10
  1.70098   -163.8 1.169e+04 6.682e-10
  1.73137   -161.1 1.153e+04 5.741e-10
  1.74152   -160.4 1.169e+04 6.336e-10
  1.75204   -159.6 1.161e+04 5.966e-10
  1.77254   -158.4 1.150e+04 5.389e-10
  1.79304   -157.7 1.142e+04 5.051e-10
  1.80429   -156.5 1.132e+04 4.635e-10
  1.81454   -155.9 1.140e+04 4.844e-10
  1.83405   -155.0 1.135e+04 4.678e-10
  1.85455   -154.0 1.130e+04 4.546e-10
  1.86716   -153.0 1.127e+04 4.478e-10
  1.87741   -152.4 1.135e+04 4.654e-10
  1.89555   -151.4 1.131e+04 4.595e-10
  1.91606   -150.7 1.130e+04 4.584e-10
  1.93003   -150.0 1.129e+04 4.647e-10
  1.94028   -149.4 1.137e+04 4.806e-10
  1.95706   -148.9 1.138e+04 4.952e-10
  1.97756   -148.5 1.141e+04 5.377e-10
  1.99290   -148.2 1.148e+04 6.051e-10
  2.00315   -147.9 1.162e+04 6.605e-10
  2.01857   -147.6 1.173e+04 7.757e-10
  2.03907   -147.3 1.187e+04 9.046e-10
  2.05577   -147.0 1.199e+04 1.022e-09
  2.06602   -146.9 1.220e+04 1.224e-09
  2.08007   -146.5 1.224e+04 1.311e-09
  2.10057   -145.9 1.224e+04 1.332e-09
  2.11864   -145.2 1.221e+04 1.334e-09
  2.12889   -144.9 1.235e+04 1.575e-09
  2.14158   -143.9 1.210e+04 1.423e-09
  2.16208   -142.8 1.182e+04 1.232e-09
  2.18150   -141.7 1.155e+04 1.044e-09
  2.19176   -141.5 1.159e+04 1.045e-09
  2.20308   -140.4 1.132e+04 8.793e-10
  2.22359   -139.3 1.109e+04 7.580e-10
  2.24409   -138.3 1.092e+04 6.687e-10
  2.25462   -137.1 1.077e+04 6.038e-10
  2.26488   -137.0 1.076e+04 5.979e-10
  2.28509   -135.7 1.065e+04 5.544e-10
  2.30559   -134.4 1.059e+04 5.273e-10
  2.31749   -133.1 1.056e+04 5.112e-10
  2.32774   -132.9 1.053e+04 5.067e-10
  2.34660   -131.6 1.052e+04 4.998e-10
  2.36710   -130.2 1.051e+04 4.946e-10
  2.38036   -128.9 1.050e+04 4.911e-10
  2.39061   -128.7 1.049e+04 4.830e-10
  2.40811   -127.7 1.048e+04 4.792e-10
  2.43896   -126.4 1.048e+04 4.745e-10
  2.48006   -123.5 1.035e+04 4.563e-10
  2.50630   -120.9 1.024e+04 4.450e-10
  2.52680   -119.9 1.001e+04 3.804e-10
  2.56207   -117.5 1.001e+04 3.796e-10
  2.60307   -115.5 1.001e+04 3.792e-10
  2.63203   -113.7 9.972e+03 3.824e-10
  2.65254   -113.1 9.905e+03 3.494e-10
  2.68508   -111.5 9.986e+03 3.879e-10
  2.72608   -109.9 1.006e+04 4.204e-10
  2.75777   -108.2 1.014e+04 4.553e-10
  2.77827   -108.0 1.064e+04 5.860e-10
  2.80809   -105.9 1.081e+04 6.558e-10
  2.84909   -103.5 1.118e+04 7.677e-10
  2.88351   -101.1 1.157e+04 8.829e-10
  2.90391   -101.4 1.266e+04 1.410e-09
  2.92066   -100.6 1.311e+04 1.787e-09
  2.94116    -99.9 1.354e+04 2.266e-09
  2.95643    -99.2 1.408e+04 3.035e-09
  2.96669    -98.6 1.428e+04 3.573e-09
  2.98216    -97.7 1.482e+04 4.488e-09
  3.00266    -96.6 1.548e+04 5.817e-09
  3.01930    -95.4 1.620e+04 7.650e-09
  3.02955    -94.8 1.605e+04 7.204e-09
  3.04367    -93.5 1.676e+04 9.189e-09
  3.06417    -92.8 1.755e+04 1.129e-08
  3.08217    -92.7 1.862e+04 1.311e-08
  3.09242    -93.5 1.939e+04 1.262e-08
  3.10518    -94.2 2.123e+04 1.568e-08
  3.11868    -94.4 2.246e+04 1.821e-08
  3.12376    -95.4 2.334e+04 2.086e-08
  3.13071    -95.7 2.426e+04 2.484e-08
  3.14096    -95.7 2.531e+04 3.084e-08
  3.15007    -95.5 2.638e+04 3.846e-08
  3.15519    -96.5 2.589e+04 4.661e-08
  3.16146    -96.5 2.638e+04 5.990e-08
  3.17171    -96.7 2.630e+04 8.377e-08
  3.18150    -97.4 2.587e+04 1.344e-07
  3.18663    -99.8 2.554e+04 1.338e-07
  3.19221   -101.2 2.425e+04 2.447e-07
  3.20246   -103.7 2.308e+04 4.380e-07
  3.21271   -109.0 2.274e+04 6.140e-07
  3.21806   -117.1 2.273e+04 6.544e-07
  3.22319   -117.9 2.255e+04 4.092e-07
  3.23322   -124.2 2.233e+04 3.304e-07
  3.24347   -128.9 2.238e+04 1.747e-07
  3.24950   -131.3 2.237e+04 7.922e-08
  3.25462   -128.9 2.258e+04 5.393e-08
  3.26397   -130.6 2.207e+04 2.977e-08
  3.27422   -131.7 2.114e+04 1.927e-08
  3.28093   -132.4 2.015e+04 1.427e-08
  3.28606   -131.2 2.004e+04 1.104e-08
  3.29472   -131.7 1.925e+04 9.327e-09
  3.30497   -131.8 1.847e+04 8.256e-09
  3.31237   -131.7 1.800e+04 7.890e-09
  3.31749   -131.2 1.803e+04 7.942e-09
  3.33065   -131.4 1.734e+04 7.741e-09
  3.34390   -131.1 1.658e+04 7.080e-09
  3.35415   -129.7 1.679e+04 6.884e-09
  3.37170   -129.4 1.661e+04 6.960e-09
  3.39220   -129.2 1.635e+04 7.513e-09
  3.40677   -129.3 1.666e+04 8.236e-09
  3.41702   -128.3 1.697e+04 8.498e-09
  3.43321   -129.5 1.780e+04 9.897e-09
  3.45371   -131.7 1.887e+04 1.112e-08
  3.46964   -135.5 1.947e+04 1.112e-08
  3.47989   -136.5 2.136e+04 1.449e-08
  3.48954   -140.3 2.200e+04 1.417e-08
  3.49974   -142.7 2.175e+04 1.321e-08
  3.51517   -147.0 2.053e+04 1.155e-08
  3.53251   -152.4 1.811e+04 8.881e-09
  3.54271   -152.9 1.932e+04 9.926e-09
  3.55617   -155.7 1.900e+04 8.350e-09
  3.57672   -158.5 1.924e+04 6.821e-09
  3.59537   -160.4 1.932e+04 6.512e-09
  3.60563   -161.4 2.005e+04 6.879e-09
  3.61773   -163.6 1.979e+04 6.913e-09
  3.63823   -165.1 1.928e+04 8.097e-09
  3.65824   -166.3 1.904e+04 1.013e-08
  3.66849   -166.7 1.883e+04 1.017e-08
  3.67923   -167.5 1.875e+04 1.130e-08
  3.69974   -168.4 1.868e+04 1.155e-08
  3.72024   -169.2 1.849e+04 1.156e-08
  3.73136   -170.2 1.804e+04 1.080e-08
  3.74161   -170.2 1.771e+04 8.823e-09
  3.76124   -171.2 1.715e+04 7.356e-09
  3.78174   -172.0 1.644e+04 5.690e-09
  3.79423   -172.7 1.562e+04 4.117e-09
  3.80448   -172.9 1.513e+04 3.112e-09
  3.82275   -173.3 1.431e+04 2.172e-09
  3.84325   -173.6 1.356e+04 1.499e-09
  3.85710   -173.9 1.289e+04 1.054e-09
  3.86735   -174.2 1.245e+04 8.581e-10
  3.88425   -174.5 1.195e+04 6.662e-10
  3.90476   -174.7 1.157e+04 5.557e-10
  3.91997   -174.7 1.132e+04 4.948e-10
  3.93022   -174.7 1.126e+04 4.976e-10
  3.94576   -174.5 1.120e+04 4.739e-10
  3.96626   -174.3 1.116e+04 4.544e-10
  3.98284   -174.1 1.115e+04 4.265e-10
  3.99309   -174.0 1.117e+04 4.295e-10
  4.00727   -173.8 1.114e+04 3.862e-10
  4.02777   -173.7 1.110e+04 3.516e-10
  4.04571   -173.5 1.104e+04 3.251e-10
  4.05596   -173.3 1.105e+04 3.258e-10
  4.07912   -173.0 1.099e+04 3.082e-10
  4.12022   -172.3 1.083e+04 2.782e-10
  4.16123   -171.5 1.062e+04 2.471e-10
  4.20223   -170.1 1.031e+04 2.023e-10
  4.24324   -169.1 1.014e+04 1.761e-10
  4.28424   -168.0 9.991e+03 1.518e-10
  4.30763   -166.8 9.859e+03 1.303e-10
  4.32813   -165.9 9.851e+03 1.240e-10
  4.36625   -164.4 9.753e+03 1.089e-10
  4.40725   -162.9 9.670e+03 9.694e-11
  4.43337   -161.4 9.594e+03 8.755e-11
  4.45387   -160.5 9.643e+03 9.243e-11
  4.48926   -158.9 9.607e+03 8.880e-11
  4.53026   -157.2 9.587e+03 8.752e-11
  4.55911   -155.6 9.577e+03 8.741e-11
  4.57961   -154.9 9.645e+03 1.048e-10
  4.61227   -153.3 9.640e+03 1.105e-10
  4.65328   -151.8 9.670e+03 1.242e-10
  4.68484   -150.1 9.740e+03 1.494e-10
  4.70535   -149.7 9.783e+03 1.759e-10
  4.73528   -148.1 9.864e+03 2.089e-10
  4.77629   -146.6 9.961e+03 2.438e-10
  4.81058   -145.2 1.006e+04 2.709e-10
  4.83108   -145.0 9.932e+03 2.533e-10
  4.85830   -143.8 9.935e+03 2.560e-10
  4.89930   -142.6 9.852e+03 2.431e-10
  4.93632   -141.2 9.713e+03 2.193e-10
  4.95682   -140.9 9.477e+03 1.888e-10
  4.98131   -139.5 9.350e+03 1.720e-10
  5.02231   -138.0 9.269e+03 1.638e-10
  5.06206   -136.4 9.247e+03 1.619e-10
  5.08256   -135.9 9.236e+03 1.623e-10
  5.10432   -134.2 9.234e+03 1.626e-10
  5.14533   -132.5 9.232e+03 1.703e-10
  5.18633   -130.8 9.240e+03 1.813e-10
  5.20830   -129.1 9.249e+03 1.909e-10
  5.22880   -128.8 9.173e+03 1.840e-10
  5.26834   -127.1 9.163e+03 1.868e-10
  5.30934   -125.2 9.154e+03 1.894e-10
  5.33404   -123.3 9.158e+03 1.949e-10
  5.35454   -123.1 9.027e+03 1.743e-10
  5.39135   -121.1 9.032e+03 1.800e-10
  5.43236   -119.2 9.095e+03 1.951e-10
  5.45977   -117.3 9.194e+03 2.169e-10
  5.48028   -117.0 8.972e+03 1.834e-10
  5.51436   -115.1 9.045e+03 1.948e-10
  5.55537   -113.2 9.148e+03 2.115e-10
  5.58551   -111.5 9.303e+03 2.422e-10
  5.60601   -111.1 9.060e+03 2.136e-10
  5.63738   -109.6 9.299e+03 2.655e-10
  5.67838   -108.4 9.641e+03 3.562e-10
  5.71125   -107.3 1.002e+04 4.844e-10
  5.73175   -107.0 1.001e+04 4.896e-10
  5.76039   -106.2 1.035e+04 6.356e-10
  5.80139   -105.6 1.059e+04 7.551e-10
  5.83699   -104.9 1.072e+04 8.256e-10
  5.85739   -105.0 1.065e+04 7.916e-10
  5.87295   -105.0 1.048e+04 7.737e-10
  5.89346   -105.0 1.028e+04 6.972e-10
  5.90991   -105.0 1.011e+04 6.379e-10
  5.92016   -105.0 9.964e+03 5.817e-10
  5.93446   -105.0 9.954e+03 5.706e-10
  5.95496   -105.1 1.001e+04 5.707e-10
  5.97278   -105.2 1.014e+04 6.071e-10
  5.98303   -104.9 1.008e+04 5.821e-10
  5.99597   -105.0 1.024e+04 6.495e-10
  6.01647   -105.0 1.036e+04 7.275e-10
  6.03565   -104.9 1.041e+04 7.896e-10
  6.04590   -104.5 1.040e+04 7.860e-10
  6.05747   -104.3 1.040e+04 8.112e-10
  6.07797   -104.1 1.038e+04 8.147e-10
  6.09848   -103.9 1.023e+04 7.787e-10
  6.11898   -103.3 1.011e+04 7.170e-10
  6.13948   -103.2 9.928e+03 6.304e-10
  6.15998   -103.6 9.789e+03 5.605e-10
  6.17164   -104.2 9.735e+03 5.172e-10
  6.18189   -103.4 9.928e+03 5.842e-10
  6.20099   -104.6 9.939e+03 5.769e-10
  6.22149   -107.6 1.014e+04 6.301e-10
  6.23451   -112.5 1.223e+04 1.017e-09
  6.24476   -113.8 1.378e+04 1.467e-09
  6.26249   -118.3 1.676e+04 2.637e-09
  6.27782   -120.0 1.778e+04 3.573e-09
  6.28802   -122.6 1.939e+04 5.334e-09
  6.29728   -125.4 2.028e+04 8.710e-09
  6.30241   -126.4 2.059e+04 1.185e-08
  6.30853   -127.9 2.043e+04 1.556e-08
  6.31878   -129.0 2.018e+04 1.727e-08
  6.32871   -129.8 1.958e+04 1.760e-08
  6.33384   -130.1 1.964e+04 1.740e-08
  6.33928   -130.9 1.922e+04 1.552e-08
  6.34953   -131.9 1.876e+04 1.294e-08
  6.35978   -133.0 1.821e+04 1.059e-08
  6.36527   -133.6 1.781e+04 8.834e-09
  6.37045   -134.5 1.784e+04 7.829e-09
  6.38551   -135.4 1.739e+04 5.302e-09
  6.40601   -137.3 1.655e+04 2.905e-09
  6.42312   -140.0 1.445e+04 1.457e-09
  6.43337   -142.0 1.287e+04 1.055e-09
  6.44701   -143.6 1.096e+04 7.969e-10
  6.46751   -144.3 1.043e+04 7.410e-10
  6.48598   -144.3 1.040e+04 7.375e-10
  6.49624   -144.4 1.024e+04 6.597e-10
  6.50852   -143.7 1.031e+04 6.667e-10
  6.53937   -142.9 1.043e+04 6.735e-10
  6.58047   -141.4 1.089e+04 7.967e-10
  6.61192   -140.5 1.135e+04 9.449e-10
  6.63242   -140.1 1.052e+04 5.943e-10
  6.66248   -139.5 1.057e+04 6.433e-10
  6.70348   -138.8 1.052e+04 6.600e-10
  6.73766   -137.8 1.042e+04 6.646e-10
  6.75816   -137.7 9.659e+03 4.531e-10
  6.78549   -136.3 9.586e+03 4.508e-10
  6.82650   -134.5 9.522e+03 4.042e-10
  6.86339   -132.6 9.435e+03 3.447e-10
  6.88390   -132.7 9.367e+03 3.165e-10
  6.90850   -130.5 9.247e+03 2.688e-10
  6.94951   -128.3 9.179e+03 2.317e-10
  6.98913   -126.0 9.049e+03 1.990e-10
  7.00963   -126.4 8.951e+03 1.836e-10
  7.03152   -123.8 8.833e+03 1.691e-10
  7.07252   -121.1 8.767e+03 1.637e-10
  7.11352   -118.4 8.701e+03 1.598e-10
  7.13537   -115.7 8.715e+03 1.586e-10
  7.15587   -116.3 8.581e+03 1.511e-10
  7.19553   -113.8 8.845e+03 2.012e-10
  7.23654   -111.4 9.677e+03 3.066e-10
  7.26111   -108.7 1.087e+04 4.857e-10
  7.28161   -110.9 1.110e+04 5.763e-10
  7.30820   -108.9 1.189e+04 7.829e-10
  7.32378   -109.5 1.264e+04 1.113e-09
  7.33403   -113.1 1.359e+04 1.784e-09
  7.34910   -113.9 1.442e+04 2.777e-09
  7.36960   -114.7 1.523e+04 3.818e-09
  7.38665   -115.8 1.592e+04 4.720e-09
  7.39690   -120.0 1.586e+04 4.539e-09
  7.41061   -122.6 1.611e+04 4.646e-09
  7.43111   -126.0 1.604e+04 4.280e-09
  7.44952   -129.9 1.540e+04 3.616e-09
  7.45977   -134.8 1.381e+04 2.527e-09
  7.47212   -138.2 1.276e+04 1.972e-09
  7.49262   -141.1 1.186e+04 1.493e-09
  7.51239   -143.9 1.126e+04 1.108e-09
  7.52264   -145.5 1.079e+04 8.618e-10
  7.53362   -148.0 1.040e+04 6.613e-10
  7.55412   -150.5 1.008e+04 5.407e-10
  7.57463   -152.7 9.901e+03 4.868e-10
  7.58551   -154.3 9.857e+03 4.725e-10
  7.59576   -154.6 9.624e+03 4.118e-10
  7.61563   -155.7 9.635e+03 4.113e-10
  7.63613   -156.6 9.727e+03 4.253e-10
  7.64838   -157.1 9.820e+03 4.504e-10
  7.65863   -156.9 9.647e+03 4.151e-10
  7.67714   -157.1 9.738e+03 4.398e-10
  7.69764   -157.1 9.823e+03 4.611e-10
  7.71125   -157.0 9.886e+03 4.816e-10
  7.72150   -156.7 9.673e+03 4.517e-10
  7.73864   -156.2 9.771e+03 4.728e-10
  7.75914   -155.5 9.917e+03 5.044e-10
  7.77412   -154.7 1.013e+04 5.495e-10
  7.78437   -154.4 9.968e+03 5.393e-10
  7.80015   -153.5 1.021e+04 5.983e-10
  7.82065   -152.4 1.043e+04 6.655e-10
  7.83699   -151.4 1.056e+04 7.274e-10
  7.84724   -151.4 1.046e+04 7.328e-10
  7.86165   -151.1 1.080e+04 7.865e-10
  7.88216   -152.6 1.381e+04 8.249e-10
  7.89985   -160.6 3.332e+04 9.954e-10
  7.91011   -163.0 3.267e+04 1.592e-09
  7.92316   -171.1 3.604e+04 4.758e-09
  7.93637   -171.1 4.083e+04 3.694e-09
  7.94144   -170.4 3.723e+04 3.497e-09
  7.94869   -172.7 3.475e+04 6.660e-09
  7.95894   -174.0 3.205e+04 1.122e-08
  7.96775   -175.0 2.934e+04 1.732e-08
  7.97288   -176.2 2.688e+04 1.351e-08
  7.97944   -177.4 2.548e+04 1.606e-08
  7.98969   -178.8 2.489e+04 1.697e-08
  7.99919   -180.6 2.355e+04 1.740e-08
  8.00431   -181.9 2.186e+04 1.455e-08
  8.01020   -184.1 2.105e+04 1.438e-08
  8.02554   -185.9 2.055e+04 1.340e-08
  8.04609   -189.4 1.581e+04 5.319e-09
  8.06668   -192.0 1.332e+04 2.632e-09
  8.08718   -194.0 1.101e+04 1.377e-09
  8.09871   -194.9 1.002e+04 8.472e-10
  8.10896   -193.6 1.000e+04 7.993e-10
  8.12818   -193.2 9.705e+03 6.341e-10
  8.14868   -191.9 9.362e+03 5.144e-10
  8.16158   -190.4 9.090e+03 4.280e-10
  8.17183   -188.5 9.087e+03 4.183e-10
  8.18969   -187.3 9.019e+03 3.773e-10
  8.22054   -186.4 9.003e+03 3.499e-10
  8.26164   -184.1 8.788e+03 2.909e-10
  8.28751   -181.0 8.463e+03 2.345e-10
  8.30802   -179.1 8.431e+03 2.359e-10
  8.34365   -176.1 8.207e+03 1.959e-10
  8.38465   -173.2 8.076e+03 1.680e-10
  8.41325   -170.3 8.009e+03 1.490e-10
  8.43375   -169.0 8.046e+03 1.563e-10
  8.46666   -166.4 8.022e+03 1.425e-10
  8.50766   -163.8 8.030e+03 1.343e-10
  8.53899   -161.2 8.056e+03 1.311e-10
  8.55949   -160.7 8.183e+03 1.505e-10
  8.58967   -158.4 8.190e+03 1.502e-10
  8.63068   -156.2 8.220e+03 1.571e-10
  8.66473   -154.3 8.556e+03 1.909e-10
  8.68523   -153.9 8.756e+03 2.378e-10
  8.71269   -152.1 9.043e+03 2.826e-10
  8.75369   -150.6 9.341e+03 3.366e-10
  8.79047   -149.3 9.636e+03 3.880e-10
  8.81097   -149.0 9.533e+03 3.785e-10
  8.83570   -147.9 9.759e+03 4.134e-10
  8.87670   -146.9 1.010e+04 4.778e-10
  8.91620   -146.1 1.060e+04 6.161e-10
  8.93671   -145.3 1.049e+04 5.853e-10
  8.95871   -144.5 1.102e+04 7.653e-10
  8.99971   -143.9 1.159e+04 1.052e-09
  9.04072   -143.1 1.208e+04 1.418e-09
  9.06244   -142.3 1.244e+04 1.739e-09
  9.08295   -141.8 1.247e+04 1.697e-09
  9.12273   -140.8 1.270e+04 1.922e-09
  9.16373   -139.8 1.271e+04 1.948e-09
  9.18808   -138.5 1.231e+04 1.689e-09
  9.19824   -138.5 1.234e+04 1.718e-09
  9.21479   -137.7 1.211e+04 1.568e-09
  9.23529   -136.8 1.188e+04 1.389e-09
  9.25086   -135.8 1.166e+04 1.213e-09
  9.26111   -135.6 1.177e+04 1.262e-09
  9.27630   -134.7 1.159e+04 1.103e-09
  9.29680   -133.7 1.140e+04 9.551e-10
  9.31372   -132.7 1.122e+04 8.203e-10
  9.32398   -132.7 1.138e+04 8.779e-10
  9.33780   -131.8 1.120e+04 7.651e-10
  9.35831   -130.8 1.101e+04 6.617e-10
  9.37659   -129.7 1.085e+04 5.672e-10
  9.38684   -129.8 1.096e+04 6.256e-10
  9.39931   -128.4 1.084e+04 5.390e-10
  9.41981   -127.3 1.081e+04 4.799e-10
  9.43956   -126.5 1.081e+04 4.404e-10
  9.46016   -126.7 1.079e+04 4.369e-10
  9.49176   -124.8 1.055e+04 3.635e-10
