# Columns:
#   distance along LOS (in CHIMPs)
#   peculiar velocity  (in km/s)
#   temperature (K)
#   HI number density
# pos=(18.2096,22.7221,57.098), angles=(1.61022,4.4293)
  0.00801      7.8 1.056e+04 3.818e-10
  0.02619      7.7 1.088e+04 4.509e-10
  0.04196      7.4 1.124e+04 5.828e-10
  0.05213      6.4 1.125e+04 6.120e-10
  0.06691      6.2 1.152e+04 8.013e-10
  0.08726      6.3 1.173e+04 1.022e-09
  0.10748      6.5 1.191e+04 1.211e-09
  0.11766      5.6 1.172e+04 1.156e-09
  0.12798      5.8 1.180e+04 1.206e-09
  0.14833      5.6 1.180e+04 1.193e-09
  0.16869      5.3 1.177e+04 1.153e-09
  0.18318      4.7 1.171e+04 1.101e-09
  0.19336      3.7 1.155e+04 1.034e-09
  0.20940      3.0 1.144e+04 9.870e-10
  0.22976      2.4 1.142e+04 9.634e-10
  0.24871      1.8 1.146e+04 9.688e-10
  0.25888      0.6 1.146e+04 9.638e-10
  0.27048     -0.2 1.161e+04 9.935e-10
  0.29083     -1.2 1.175e+04 1.045e-09
  0.31119     -2.0 1.168e+04 1.072e-09
  0.32441     -2.5 1.150e+04 1.046e-09
  0.33459     -3.2 1.132e+04 9.760e-10
  0.35190     -3.3 1.094e+04 8.595e-10
  0.37226     -3.3 1.056e+04 7.173e-10
  0.38562     -3.4 1.024e+04 5.770e-10
  0.39312     -2.6 1.034e+04 6.279e-10
  0.40011     -3.4 1.014e+04 5.459e-10
  0.41297     -3.9 9.888e+03 4.160e-10
  0.43333     -4.6 9.725e+03 3.521e-10
  0.46396     -4.0 9.621e+03 3.147e-10
  0.50477     -3.5 9.390e+03 2.697e-10
  0.53135     -2.9 9.173e+03 2.488e-10
  0.55171     -5.8 9.308e+03 2.958e-10
  0.58620     -9.9 1.108e+04 3.117e-10
  0.60696    -13.0 1.195e+04 2.669e-10
  0.61704    -16.4 1.447e+04 6.609e-10
  0.63690    -20.7 1.727e+04 1.912e-09
  0.65725    -23.8 1.889e+04 6.304e-09
  0.67238    -25.9 1.998e+04 1.470e-08
  0.68256    -28.0 1.994e+04 1.725e-08
  0.69283    -28.7 2.066e+04 2.231e-08
  0.70296    -29.3 2.090e+04 2.577e-08
  0.71014    -29.9 2.086e+04 2.492e-08
  0.71523    -31.1 2.067e+04 1.885e-08
  0.72331    -32.9 2.062e+04 1.355e-08
  0.73349    -36.0 2.007e+04 7.849e-09
  0.74290    -39.1 1.884e+04 4.969e-09
  0.74799    -42.1 1.720e+04 3.276e-09
  0.75899    -45.1 1.588e+04 2.337e-09
  0.77939    -49.8 1.362e+04 1.423e-09
  0.79975    -53.4 1.163e+04 9.193e-10
  0.81361    -54.8 1.101e+04 7.312e-10
  0.82379    -55.7 1.055e+04 5.111e-10
  0.84046    -56.0 1.059e+04 5.080e-10
  0.86082    -56.6 1.059e+04 5.114e-10
  0.87769    -57.8 1.078e+04 5.569e-10
  0.88583    -57.9 1.090e+04 5.908e-10
  0.88931    -58.0 1.031e+04 4.183e-10
  0.90153    -59.2 1.070e+04 5.387e-10
  0.92189    -60.9 1.157e+04 8.117e-10
  0.94225    -63.4 1.282e+04 1.467e-09
  0.95484    -66.6 1.394e+04 2.681e-09
  0.96501    -66.8 1.336e+04 1.943e-09
  0.98296    -69.7 1.428e+04 3.213e-09
  0.99818    -72.3 1.487e+04 3.609e-09
  1.00831    -72.5 1.487e+04 3.607e-09
  1.01849    -76.2 1.571e+04 3.662e-09
  1.02535    -77.4 1.619e+04 3.809e-09
  1.03049    -76.0 1.543e+04 3.200e-09
  1.04403    -82.0 1.745e+04 3.093e-09
  1.06439    -87.4 1.795e+04 4.675e-09
  1.08474    -93.8 1.822e+04 6.564e-09
  1.09606    -96.5 1.759e+04 6.932e-09
  1.10624    -92.9 1.624e+04 4.403e-09
  1.12546    -94.4 1.633e+04 5.336e-09
  1.14581    -94.9 1.643e+04 4.999e-09
  1.16159    -95.0 1.632e+04 4.313e-09
  1.17176    -92.6 1.560e+04 4.236e-09
  1.18653    -92.8 1.595e+04 3.891e-09
  1.20688    -92.9 1.594e+04 3.507e-09
  1.22711    -92.9 1.606e+04 3.180e-09
  1.23729    -90.4 1.585e+04 3.505e-09
  1.24760    -90.7 1.665e+04 3.497e-09
  1.26795    -91.1 1.760e+04 3.305e-09
  1.28831    -92.1 1.973e+04 3.447e-09
  1.30281    -95.2 2.357e+04 4.355e-09
  1.30785    -97.7 2.407e+04 7.621e-09
  1.31366    -99.1 2.575e+04 9.640e-09
  1.32384   -100.0 2.812e+04 1.284e-08
  1.33401   -102.2 2.949e+04 1.904e-08
  1.34056   -104.1 2.921e+04 3.442e-08
  1.34565   -106.0 3.003e+04 6.606e-08
  1.35437   -107.4 2.622e+04 1.743e-07
  1.36455   -107.8 2.356e+04 4.368e-07
  1.37333   -107.7 2.231e+04 8.711e-07
  1.37842   -110.3 2.255e+04 1.181e-06
  1.38491   -121.0 2.377e+04 1.204e-06
  1.39509   -125.3 2.761e+04 5.168e-07
  1.40526   -129.7 3.194e+04 1.694e-07
  1.41118   -133.6 3.048e+04 7.676e-08
  1.41627   -136.7 2.677e+04 4.713e-08
  1.42562   -138.0 2.280e+04 3.124e-08
  1.43580   -137.9 2.144e+04 2.422e-08
  1.44394   -137.1 2.095e+04 2.041e-08
  1.44903   -137.9 1.915e+04 1.464e-08
  1.45616   -137.2 1.889e+04 1.330e-08
  1.46633   -136.7 1.852e+04 1.219e-08
  1.47651   -136.0 1.812e+04 1.130e-08
  1.48179   -135.2 1.781e+04 1.041e-08
  1.48688   -135.2 1.678e+04 7.944e-09
  1.49687   -134.4 1.660e+04 7.478e-09
  1.50705   -133.6 1.647e+04 7.023e-09
  1.51455   -133.0 1.629e+04 6.682e-09
  1.51964   -133.0 1.578e+04 5.648e-09
  1.52740   -132.3 1.571e+04 5.548e-09
  1.53758   -131.9 1.567e+04 5.471e-09
  1.55290   -130.9 1.555e+04 5.244e-09
  1.57330   -129.7 1.555e+04 5.136e-09
  1.58526   -128.2 1.521e+04 4.547e-09
  1.59544   -127.6 1.439e+04 3.762e-09
  1.61402   -126.1 1.390e+04 3.312e-09
  1.63437   -124.5 1.355e+04 2.859e-09
  1.65079   -122.9 1.330e+04 2.363e-09
  1.66097   -122.2 1.308e+04 2.345e-09
  1.67509   -120.5 1.288e+04 1.911e-09
  1.69544   -118.9 1.251e+04 1.536e-09
  1.71580   -117.5 1.218e+04 1.197e-09
  1.72649   -116.3 1.180e+04 9.219e-10
  1.73667   -115.3 1.184e+04 9.452e-10
  1.75651   -114.2 1.146e+04 7.394e-10
  1.77687   -113.1 1.110e+04 6.039e-10
  1.79201   -112.0 1.089e+04 5.133e-10
  1.80219   -111.2 1.082e+04 4.816e-10
  1.81758   -110.2 1.068e+04 4.249e-10
  1.83794   -109.2 1.062e+04 4.025e-10
  1.85754   -108.4 1.062e+04 4.030e-10
  1.86772   -107.7 1.049e+04 3.592e-10
  1.87202   -107.0 1.054e+04 3.947e-10
  1.88220   -107.1 1.054e+04 3.924e-10
  1.89901   -106.0 1.058e+04 4.751e-10
  1.91937   -104.6 1.063e+04 5.603e-10
  1.93324   -103.0 1.073e+04 6.246e-10
  1.94342   -102.8 1.050e+04 5.125e-10
  1.96008   -101.3 1.066e+04 5.594e-10
  1.98044   -100.1 1.084e+04 5.932e-10
  1.99876    -99.3 1.091e+04 6.030e-10
  2.00894    -99.0 1.069e+04 5.318e-10
  2.02115    -98.7 1.039e+04 5.202e-10
  2.04151    -97.2 1.055e+04 5.983e-10
  2.06186    -96.3 1.060e+04 6.186e-10
  2.07446    -95.0 1.069e+04 6.389e-10
  2.08464    -94.7 1.060e+04 6.094e-10
  2.10258    -93.8 1.065e+04 5.940e-10
  2.12293    -92.9 1.067e+04 5.649e-10
  2.13999    -92.1 1.066e+04 5.319e-10
  2.15017    -91.9 1.066e+04 5.324e-10
  2.16365    -91.1 1.067e+04 4.915e-10
  2.18400    -90.4 1.055e+04 4.637e-10
  2.20436    -89.4 1.040e+04 4.212e-10
  2.21569    -88.7 1.024e+04 3.899e-10
  2.22587    -88.8 1.046e+04 4.167e-10
  2.25535    -88.3 1.055e+04 4.484e-10
  2.29616    -86.2 1.029e+04 4.919e-10
  2.33676    -85.8 1.090e+04 4.859e-10
  2.36407    -88.5 1.430e+04 1.633e-09
  2.37427    -87.4 1.387e+04 1.495e-09
  2.38757    -88.0 1.483e+04 2.204e-09
  2.40793    -87.9 1.589e+04 3.637e-09
  2.42244    -88.2 1.672e+04 5.168e-09
  2.43262    -89.0 1.774e+04 8.749e-09
  2.44864    -89.6 1.775e+04 9.728e-09
  2.46900    -90.2 1.732e+04 9.642e-09
  2.48796    -90.4 1.658e+04 8.225e-09
  2.49814    -91.9 1.651e+04 8.212e-09
  2.50971    -91.6 1.572e+04 5.933e-09
  2.53007    -92.0 1.465e+04 4.017e-09
  2.55043    -92.5 1.313e+04 2.445e-09
  2.56367    -93.0 1.182e+04 1.565e-09
  2.57384    -93.4 1.130e+04 1.233e-09
  2.59114    -93.2 1.065e+04 8.567e-10
  2.61150    -92.8 1.021e+04 6.083e-10
  2.62919    -92.4 9.810e+03 4.267e-10
  2.63937    -93.1 9.461e+03 3.260e-10
  2.65221    -92.3 9.152e+03 2.647e-10
  2.67257    -92.4 9.041e+03 2.548e-10
  2.70320    -91.1 9.014e+03 2.522e-10
  2.74401    -89.2 8.731e+03 2.878e-10
  2.77061    -86.9 8.850e+03 2.584e-10
  2.79097    -86.2 8.496e+03 1.928e-10
  2.82544    -84.7 8.504e+03 2.104e-10
  2.86615    -83.1 8.572e+03 2.275e-10
  2.90166    -81.7 8.812e+03 2.636e-10
  2.92202    -81.2 8.705e+03 2.308e-10
  2.94758    -79.8 9.165e+03 3.149e-10
  2.98829    -78.3 9.619e+03 4.076e-10
  3.02900    -77.0 1.004e+04 4.613e-10
  3.05297    -77.4 1.059e+04 5.585e-10
  3.06305    -77.3 1.072e+04 6.043e-10
  3.07970    -77.7 1.073e+04 6.655e-10
  3.10006    -77.6 1.060e+04 7.209e-10
  3.11839    -77.1 1.060e+04 7.778e-10
  3.12857    -76.8 1.060e+04 7.823e-10
  3.14077    -76.1 1.070e+04 8.089e-10
  3.16113    -75.4 1.082e+04 8.083e-10
  3.18148    -74.9 1.088e+04 7.827e-10
  3.19409    -74.3 1.083e+04 7.415e-10
  3.20427    -73.9 1.071e+04 6.694e-10
  3.22220    -73.3 1.062e+04 6.278e-10
  3.24255    -72.8 1.055e+04 5.930e-10
  3.25962    -72.3 1.047e+04 5.607e-10
  3.26980    -72.0 1.036e+04 5.125e-10
  3.28327    -71.6 1.033e+04 4.982e-10
  3.30362    -71.2 1.030e+04 4.978e-10
  3.32398    -70.8 1.034e+04 5.143e-10
  3.33532    -70.5 1.039e+04 5.453e-10
  3.34550    -70.0 1.028e+04 5.067e-10
  3.35841    -69.6 1.030e+04 5.355e-10
  3.36859    -69.4 1.049e+04 6.272e-10
  3.38505    -68.9 1.052e+04 6.578e-10
  3.40084    -68.4 1.050e+04 6.746e-10
  3.41102    -67.9 1.042e+04 6.322e-10
  3.42576    -67.3 1.037e+04 6.302e-10
  3.44612    -66.7 1.026e+04 6.137e-10
  3.46637    -65.7 1.013e+04 5.737e-10
  3.47655    -65.2 1.013e+04 5.694e-10
  3.48683    -65.1 1.011e+04 5.277e-10
  3.50719    -63.8 9.773e+03 4.188e-10
  3.52755    -63.8 9.772e+03 4.142e-10
  3.55818    -62.2 9.462e+03 3.184e-10
  3.59761    -60.7 9.079e+03 2.489e-10
  3.61797    -60.1 9.190e+03 2.526e-10
  3.63970    -58.6 9.096e+03 2.457e-10
  3.68042    -56.8 9.113e+03 2.597e-10
  3.72113    -54.8 9.153e+03 2.855e-10
  3.74901    -52.7 9.145e+03 3.055e-10
  3.76937    -52.2 9.139e+03 2.963e-10
  3.80256    -50.0 9.066e+03 2.810e-10
  3.84327    -47.8 8.903e+03 2.432e-10
  3.88006    -45.6 8.689e+03 1.982e-10
  3.90042    -45.0 8.610e+03 1.697e-10
  3.92470    -42.9 8.398e+03 1.387e-10
  3.96541    -40.9 8.267e+03 1.279e-10
  4.00612    -38.8 8.240e+03 1.282e-10
  4.03147    -36.6 8.242e+03 1.327e-10
  4.05182    -35.9 8.232e+03 1.189e-10
  4.08755    -33.8 8.298e+03 1.301e-10
  4.12826    -31.7 8.407e+03 1.411e-10
  4.16251    -29.6 8.485e+03 1.504e-10
  4.18287    -29.0 8.489e+03 1.488e-10
  4.20969    -27.0 8.572e+03 1.572e-10
  4.25040    -25.2 8.723e+03 1.685e-10
  4.29112    -23.4 9.018e+03 1.907e-10
  4.31392    -21.9 9.439e+03 2.334e-10
  4.33428    -20.8 9.416e+03 2.256e-10
  4.35283    -20.0 9.613e+03 2.550e-10
  4.37319    -19.3 9.593e+03 2.563e-10
  4.40298    -18.8 9.856e+03 3.114e-10
  4.42324    -19.0 1.020e+04 4.053e-10
  4.44360    -19.0 1.059e+04 5.598e-10
  4.45495    -18.9 1.099e+04 7.478e-10
  4.46513    -18.5 1.102e+04 7.434e-10
  4.48431    -18.3 1.143e+04 9.294e-10
  4.50467    -18.2 1.184e+04 1.090e-09
  4.52047    -18.4 1.222e+04 1.210e-09
  4.53065    -18.0 1.233e+04 1.233e-09
  4.54538    -18.6 1.272e+04 1.367e-09
  4.56574    -19.6 1.303e+04 1.557e-09
  4.58600    -20.6 1.315e+04 1.861e-09
  4.59618    -20.1 1.311e+04 1.875e-09
  4.60645    -20.9 1.316e+04 2.216e-09
  4.62681    -21.3 1.331e+04 2.636e-09
  4.64717    -21.4 1.367e+04 2.843e-09
  4.66170    -21.7 1.389e+04 2.776e-09
  4.67188    -21.3 1.393e+04 2.455e-09
  4.68788    -22.0 1.429e+04 2.188e-09
  4.70824    -23.2 1.427e+04 1.805e-09
  4.72722    -24.6 1.363e+04 1.439e-09
  4.73740    -24.8 1.343e+04 1.407e-09
  4.74895    -26.0 1.249e+04 1.166e-09
  4.76931    -26.5 1.169e+04 1.007e-09
  4.78966    -26.4 1.132e+04 8.998e-10
  4.80292    -26.2 1.105e+04 7.823e-10
  4.81310    -25.8 1.110e+04 7.992e-10
  4.83038    -25.4 1.081e+04 6.532e-10
  4.84481    -24.8 1.054e+04 5.251e-10
  4.85499    -25.2 1.042e+04 4.990e-10
  4.86845    -24.9 1.024e+04 4.027e-10
  4.87863    -24.5 1.024e+04 4.000e-10
  4.90172    -23.7 1.009e+04 3.226e-10
  4.94253    -22.0 9.846e+03 2.751e-10
  4.98325    -19.9 9.865e+03 2.791e-10
  5.00987    -18.0 9.984e+03 3.037e-10
  5.03023    -17.4 9.891e+03 2.836e-10
  5.06467    -15.7 1.007e+04 3.343e-10
  5.08547    -14.6 1.012e+04 3.794e-10
  5.09556    -14.2 1.011e+04 3.788e-10
  5.11537    -13.9 1.015e+04 3.965e-10
  5.13573    -12.8 1.024e+04 4.599e-10
  5.15090    -12.7 1.026e+04 4.697e-10
  5.16118    -12.3 1.018e+04 4.399e-10
  5.18681    -10.4 1.025e+04 5.103e-10
  5.22753     -8.6 1.044e+04 5.845e-10
  5.25796     -7.4 1.039e+04 5.677e-10
  5.27822     -6.9 1.033e+04 5.447e-10
  5.29213     -6.1 1.027e+04 5.192e-10
  5.30230     -5.8 1.018e+04 5.056e-10
  5.31894     -5.1 1.019e+04 5.064e-10
  5.33688     -4.2 1.023e+04 5.157e-10
  5.35733     -3.5 9.949e+03 3.939e-10
  5.38010     -1.8 1.002e+04 4.237e-10
  5.40036     -1.5 1.008e+04 4.423e-10
  5.42072     -0.9 1.030e+04 5.206e-10
  5.43335     -0.3 1.051e+04 6.181e-10
  5.44353      0.1 1.032e+04 5.437e-10
  5.46143      0.6 1.052e+04 6.277e-10
  5.48179      1.3 1.067e+04 7.179e-10
  5.49888      1.9 1.076e+04 8.089e-10
  5.50905      2.2 1.059e+04 7.362e-10
  5.52250      3.0 1.065e+04 8.053e-10
  5.54286      3.7 1.070e+04 8.557e-10
  5.56322      4.5 1.075e+04 8.842e-10
  5.57458      5.3 1.079e+04 8.833e-10
  5.58476      5.6 1.072e+04 8.189e-10
  5.60393      6.4 1.073e+04 8.159e-10
  5.62429      7.1 1.075e+04 8.036e-10
  5.64010      7.8 1.076e+04 7.805e-10
  5.65028      8.1 1.071e+04 7.492e-10
  5.66500      8.7 1.076e+04 7.418e-10
  5.68536      9.3 1.081e+04 7.451e-10
  5.70563     10.0 1.095e+04 7.649e-10
  5.72598     10.7 1.117e+04 8.170e-10
  5.74643     10.6 1.151e+04 9.144e-10
  5.76678     10.4 1.219e+04 1.120e-09
  5.78133      9.5 1.315e+04 1.615e-09
  5.79151     10.3 1.281e+04 1.420e-09
  5.80750      9.1 1.371e+04 2.169e-09
  5.82785      8.1 1.454e+04 3.486e-09
  5.83913      8.1 1.528e+04 5.597e-09
  5.84795      8.2 1.484e+04 5.261e-09
  5.85703      8.4 1.428e+04 4.076e-09
  5.86857      8.7 1.500e+04 5.791e-09
  5.88892      9.1 1.556e+04 6.868e-09
  5.90928      9.4 1.563e+04 6.744e-09
  5.92255      9.8 1.539e+04 5.682e-09
  5.93273     10.1 1.529e+04 5.774e-09
  5.94999     10.7 1.476e+04 4.316e-09
  5.97035     11.3 1.414e+04 2.723e-09
  5.98808     11.4 1.353e+04 1.593e-09
  5.99826     12.0 1.341e+04 1.789e-09
  6.01106     11.9 1.291e+04 1.091e-09
  6.03142     11.5 1.228e+04 8.030e-10
  6.05178     11.7 1.185e+04 7.658e-10
  6.06378     12.5 1.184e+04 7.655e-10
  6.07396     12.8 1.177e+04 7.600e-10
  6.09249     13.7 1.182e+04 7.774e-10
  6.11285     14.6 1.202e+04 8.600e-10
  6.12930     15.3 1.234e+04 1.030e-09
  6.13948     15.4 1.213e+04 9.632e-10
  6.15356     15.7 1.249e+04 1.183e-09
  6.17392     15.4 1.303e+04 1.583e-09
  6.19427     14.5 1.409e+04 2.400e-09
  6.20501     12.7 1.566e+04 4.157e-09
  6.21518     12.1 1.513e+04 3.700e-09
  6.23499     10.6 1.603e+04 5.505e-09
  6.25021      9.9 1.629e+04 6.194e-09
  6.26034      9.0 1.662e+04 6.836e-09
  6.27043      7.8 1.699e+04 7.359e-09
  6.27552      7.3 1.668e+04 6.372e-09
  6.28069      5.7 1.677e+04 6.376e-09
  6.29087      4.0 1.675e+04 6.266e-09
  6.30105      2.3 1.657e+04 5.940e-09
  6.30828      0.6 1.617e+04 5.363e-09
  6.31337      0.2 1.574e+04 4.739e-09
  6.32141     -0.4 1.553e+04 4.549e-09
  6.33115     -2.2 1.523e+04 4.198e-09
  6.33624     -1.7 1.515e+04 4.028e-09
  6.34105     -2.1 1.505e+04 3.910e-09
  6.34618     -1.4 1.490e+04 3.635e-09
  6.35713     -2.5 1.449e+04 2.901e-09
  6.37748     -3.4 1.427e+04 2.260e-09
  6.39784     -4.2 1.396e+04 1.737e-09
  6.41176     -5.3 1.368e+04 1.433e-09
  6.42193     -5.0 1.295e+04 1.132e-09
  6.43855     -6.0 1.262e+04 1.048e-09
  6.45891     -6.3 1.231e+04 1.007e-09
  6.47728     -6.1 1.203e+04 9.725e-10
  6.48746     -5.4 1.163e+04 9.048e-10
  6.49962     -4.8 1.134e+04 8.208e-10
  6.51998     -4.0 1.105e+04 6.872e-10
  6.54034     -2.9 1.089e+04 5.404e-10
  6.55298     -2.1 1.086e+04 4.143e-10
  6.56316     -1.4 1.071e+04 3.383e-10
  6.58105     -1.1 1.074e+04 2.673e-10
  6.60141     -0.5 1.053e+04 2.466e-10
  6.61851      0.1 1.049e+04 2.482e-10
  6.62868      0.4 1.043e+04 2.301e-10
  6.64212      2.2 1.039e+04 2.350e-10
  6.66248      2.7 1.042e+04 2.403e-10
  6.68284      4.3 1.046e+04 2.580e-10
  6.69421      4.9 1.051e+04 2.795e-10
  6.70448      5.7 1.045e+04 2.446e-10
  6.72365      6.9 1.046e+04 2.778e-10
  6.74391      7.7 1.064e+04 3.555e-10
  6.75973      8.6 1.097e+04 5.124e-10
  6.76991      9.9 1.069e+04 3.856e-10
  6.78462     11.0 1.107e+04 5.685e-10
  6.80498     12.2 1.172e+04 8.584e-10
  6.82327     13.4 1.267e+04 1.296e-09
  6.83338     12.2 1.338e+04 1.535e-09
  6.84561     14.9 1.370e+04 1.775e-09
  6.86605     15.6 1.464e+04 2.580e-09
  6.88640     16.2 1.526e+04 3.434e-09
  6.90096     16.7 1.585e+04 4.053e-09
  6.91114     18.6 1.618e+04 4.177e-09
  6.92712     18.9 1.697e+04 5.051e-09
  6.94747     18.8 1.804e+04 5.852e-09
  6.96648     17.3 1.914e+04 6.561e-09
  6.97666     21.2 1.945e+04 7.472e-09
  6.98819     18.6 2.035e+04 7.532e-09
  7.00854     13.9 2.044e+04 7.859e-09
  7.02890      6.5 2.003e+04 9.289e-09
  7.04213     -4.2 2.407e+04 1.273e-08
  7.04717     -4.2 2.601e+04 1.709e-08
  7.05425    -16.7 2.772e+04 7.332e-08
  7.06443    -23.7 2.377e+04 2.903e-07
  7.07430    -27.3 2.217e+04 5.120e-07
  7.07939    -25.6 2.203e+04 5.904e-07
  7.07994    -28.6 2.168e+04 7.203e-07
  7.08503    -29.2 2.100e+04 1.470e-06
  7.09496    -33.0 2.222e+04 8.903e-07
  7.10514    -38.5 2.534e+04 3.069e-07
  7.11270    -45.3 2.731e+04 1.107e-07
  7.11779    -48.3 2.845e+04 7.181e-08
  7.12550    -54.9 2.397e+04 3.297e-08
  7.13567    -57.1 2.091e+04 2.409e-08
  7.14546    -56.7 2.009e+04 1.988e-08
  7.15055    -58.0 1.902e+04 1.523e-08
  7.15603    -57.3 1.868e+04 1.342e-08
  7.16621    -55.8 1.795e+04 1.043e-08
  7.17639    -55.9 1.762e+04 9.323e-09
  7.18336    -54.3 1.719e+04 8.023e-09
  7.19359    -55.6 1.567e+04 5.455e-09
  7.21211    -54.5 1.467e+04 3.341e-09
  7.23247    -54.4 1.369e+04 2.078e-09
  7.24893    -54.1 1.292e+04 1.502e-09
  7.25911    -54.3 1.267e+04 1.338e-09
  7.27318    -53.3 1.223e+04 1.145e-09
  7.29354    -51.9 1.192e+04 1.050e-09
  7.31389    -50.2 1.181e+04 1.023e-09
  7.32464    -48.3 1.187e+04 1.042e-09
  7.32609    -48.4 1.186e+04 1.035e-09
  7.33570    -48.0 1.181e+04 1.027e-09
  7.35461    -46.7 1.196e+04 1.087e-09
  7.37496    -46.0 1.228e+04 1.238e-09
  7.39016    -46.3 1.284e+04 1.519e-09
  7.40034    -46.9 1.331e+04 1.656e-09
  7.41568    -48.2 1.451e+04 2.642e-09
  7.43603    -50.0 1.538e+04 4.850e-09
  7.45125    -49.6 1.602e+04 8.147e-09
  7.46067    -49.4 1.605e+04 8.387e-09
  7.46581    -49.2 1.619e+04 8.500e-09
  7.47161    -48.4 1.594e+04 8.783e-09
  7.48174    -48.6 1.606e+04 9.241e-09
  7.49192    -47.6 1.562e+04 8.284e-09
  7.49853    -47.9 1.553e+04 7.341e-09
  7.50361    -47.9 1.576e+04 7.524e-09
  7.51741    -48.1 1.512e+04 5.079e-09
  7.53138    -49.9 1.497e+04 2.890e-09
  7.54156    -49.7 1.489e+04 2.973e-09
  7.55817    -53.1 1.385e+04 1.668e-09
  7.57853    -56.2 1.207e+04 1.107e-09
  7.59691    -57.0 1.110e+04 9.362e-10
  7.60709    -56.1 1.132e+04 9.668e-10
  7.61924    -55.6 1.075e+04 8.194e-10
  7.63960    -55.2 1.052e+04 7.151e-10
  7.65996    -54.0 1.016e+04 5.320e-10
  7.67261    -54.5 1.018e+04 4.389e-10
  7.68279    -53.7 1.027e+04 4.738e-10
  7.71095    -51.7 9.720e+03 3.037e-10
  7.75176    -50.8 9.345e+03 1.879e-10
  7.79247    -49.9 9.134e+03 1.387e-10
  7.81403    -48.4 8.946e+03 1.272e-10
  7.83439    -46.6 9.044e+03 1.132e-10
  7.87390    -44.8 8.874e+03 1.073e-10
  7.91461    -42.7 8.809e+03 1.063e-10
  7.94508    -40.8 8.870e+03 1.101e-10
  7.96544    -39.3 8.847e+03 9.888e-11
  7.99604    -37.7 8.972e+03 1.146e-10
  8.03675    -36.8 9.276e+03 1.681e-10
  8.07613    -35.8 9.646e+03 3.078e-10
  8.09648    -34.3 9.522e+03 2.774e-10
  8.11818    -33.0 9.972e+03 4.826e-10
  8.15889    -32.0 1.024e+04 5.525e-10
  8.19960    -31.1 1.013e+04 4.960e-10
  8.22753    -30.0 9.862e+03 3.462e-10
  8.24789    -28.3 9.875e+03 3.610e-10
  8.28103    -27.3 9.641e+03 2.237e-10
  8.30987    -26.5 9.446e+03 1.306e-10
  8.33022    -26.3 9.479e+03 1.094e-10
  8.35858    -26.0 9.362e+03 6.801e-11
  8.37894    -24.2 9.412e+03 7.457e-11
  8.40317    -23.8 9.201e+03 5.971e-11
  8.44388    -22.7 9.089e+03 5.961e-11
  8.48460    -21.5 9.106e+03 6.103e-11
  8.50998    -20.3 9.179e+03 6.517e-11
  8.53034    -19.0 9.240e+03 6.578e-11
  8.56603    -17.9 9.273e+03 7.066e-11
  8.60674    -16.8 9.303e+03 7.551e-11
