# Columns:
#   distance along LOS (in CHIMPs)
#   peculiar velocity  (in km/s)
#   temperature (K)
#   HI number density
# pos=(69.5357,230.416,5.1617), angles=(1.60247,4.79228)
  0.00334     49.9 1.211e+04 1.494e-09
  0.01647     49.9 1.201e+04 1.429e-09
  0.03608     49.8 1.180e+04 1.314e-09
  0.05568     49.6 1.150e+04 1.155e-09
  0.07529     49.6 1.113e+04 9.768e-10
  0.09489     49.7 1.073e+04 8.126e-10
  0.11449     49.9 1.032e+04 6.555e-10
  0.13410     50.3 9.961e+03 5.237e-10
  0.15370     50.4 9.677e+03 3.804e-10
  0.16929     50.3 9.598e+03 3.505e-10
  0.17815     50.8 9.618e+03 3.624e-10
  0.18216     51.6 9.720e+03 4.146e-10
  0.20281     51.4 9.522e+03 3.290e-10
  0.24211     51.9 9.502e+03 3.096e-10
  0.28132     52.4 9.607e+03 3.277e-10
  0.31063     52.9 9.683e+03 3.576e-10
  0.33013     53.0 9.704e+03 3.695e-10
  0.34974     53.1 9.735e+03 4.056e-10
  0.36934     53.1 9.887e+03 4.689e-10
  0.38894     52.5 1.027e+04 5.711e-10
  0.40855     50.8 1.099e+04 7.717e-10
  0.41914     47.9 1.228e+04 1.255e-09
  0.42894     49.7 1.144e+04 9.265e-10
  0.44775     46.2 1.283e+04 1.571e-09
  0.46736     43.4 1.361e+04 2.457e-09
  0.48696     41.8 1.397e+04 3.144e-09
  0.50656     39.7 1.448e+04 3.559e-09
  0.52617     36.5 1.497e+04 3.669e-09
  0.54577     32.5 1.489e+04 3.478e-09
  0.56538     29.3 1.410e+04 2.934e-09
  0.58498     27.3 1.322e+04 2.379e-09
  0.60458     26.6 1.251e+04 1.914e-09
  0.62419     26.8 1.190e+04 1.463e-09
  0.64379     26.2 1.159e+04 1.179e-09
  0.65919     24.7 1.108e+04 8.395e-10
  0.66899     26.4 1.099e+04 8.319e-10
  0.68300     25.6 1.049e+04 6.753e-10
  0.71250     26.0 9.995e+03 5.252e-10
  0.75180     27.2 9.324e+03 3.946e-10
  0.78475     29.5 8.764e+03 2.820e-10
  0.80435     28.2 8.664e+03 2.601e-10
  0.83022     30.5 8.264e+03 1.793e-10
  0.86943     32.3 7.955e+03 1.287e-10
  0.89943     34.3 7.720e+03 1.055e-10
  0.91903     36.2 7.851e+03 1.197e-10
  0.94784     38.4 7.737e+03 1.133e-10
  0.98705     40.8 7.740e+03 1.164e-10
  1.02625     43.3 7.812e+03 1.281e-10
  1.06546     45.8 7.960e+03 1.465e-10
  1.10467     48.4 8.162e+03 1.705e-10
  1.14388     50.9 8.360e+03 1.982e-10
  1.18308     53.2 8.584e+03 2.315e-10
  1.22229     55.6 8.832e+03 2.752e-10
  1.26150     57.7 9.216e+03 3.329e-10
  1.29081     60.0 9.520e+03 4.014e-10
  1.31031     60.5 9.615e+03 4.193e-10
  1.32992     61.3 9.930e+03 4.999e-10
  1.34952     62.1 1.033e+04 6.434e-10
  1.36912     62.9 1.064e+04 7.868e-10
  1.38873     63.7 1.094e+04 9.302e-10
  1.39893     64.4 1.126e+04 1.090e-09
  1.40694     65.3 1.124e+04 1.078e-09
  1.41634     64.7 1.134e+04 1.107e-09
  1.42793     65.2 1.175e+04 1.347e-09
  1.44754     65.8 1.208e+04 1.601e-09
  1.46714     66.5 1.235e+04 1.813e-09
  1.48674     67.1 1.258e+04 1.966e-09
  1.50635     67.4 1.283e+04 2.089e-09
  1.52595     67.3 1.326e+04 2.273e-09
  1.54555     66.5 1.384e+04 2.579e-09
  1.56516     65.1 1.458e+04 3.103e-09
  1.58476     63.8 1.503e+04 3.783e-09
  1.60437     63.1 1.502e+04 4.225e-09
  1.62397     63.2 1.485e+04 4.212e-09
  1.63898     63.7 1.438e+04 3.698e-09
  1.64878     64.4 1.439e+04 3.639e-09
  1.66318     65.1 1.382e+04 2.962e-09
  1.68278     65.9 1.321e+04 2.044e-09
  1.70238     66.2 1.272e+04 1.210e-09
  1.72199     65.6 1.241e+04 6.485e-10
  1.74159     64.0 1.180e+04 3.642e-10
  1.76119     62.6 1.082e+04 2.708e-10
  1.78080     62.0 9.943e+03 2.622e-10
  1.81030     63.4 1.017e+04 2.539e-10
  1.84961     65.5 1.016e+04 2.570e-10
  1.87922     67.9 1.022e+04 2.719e-10
  1.89873     68.7 1.012e+04 2.714e-10
  1.91802     69.9 1.022e+04 3.025e-10
  1.93763     70.6 1.059e+04 3.808e-10
  1.95723     71.0 1.111e+04 5.438e-10
  1.97683     71.5 1.159e+04 8.041e-10
  1.99644     72.1 1.202e+04 1.166e-09
  2.01604     72.9 1.243e+04 1.593e-09
  2.02853     73.8 1.285e+04 2.051e-09
  2.03833     72.9 1.296e+04 2.100e-09
  2.05525     73.8 1.331e+04 2.372e-09
  2.07485     74.7 1.369e+04 2.576e-09
  2.09445     75.3 1.399e+04 2.612e-09
  2.11406     75.8 1.412e+04 2.456e-09
  2.12887     76.1 1.411e+04 2.140e-09
  2.13867     77.1 1.462e+04 2.860e-09
  2.15327     77.4 1.453e+04 2.446e-09
  2.17287     77.4 1.427e+04 2.008e-09
  2.19247     77.3 1.385e+04 1.622e-09
  2.21208     77.1 1.336e+04 1.348e-09
  2.23168     76.9 1.290e+04 1.187e-09
  2.25128     76.9 1.258e+04 1.107e-09
  2.27089     77.1 1.243e+04 1.069e-09
  2.29049     77.3 1.237e+04 1.044e-09
  2.31009     77.5 1.228e+04 1.018e-09
  2.32970     77.6 1.223e+04 1.015e-09
  2.34930     77.5 1.231e+04 1.051e-09
  2.36891     77.3 1.251e+04 1.135e-09
  2.38851     77.8 1.273e+04 1.258e-09
  2.40811     77.3 1.306e+04 1.402e-09
  2.42772     76.7 1.345e+04 1.582e-09
  2.44732     76.5 1.406e+04 1.903e-09
  2.46692     76.5 1.475e+04 2.387e-09
  2.48653     76.8 1.523e+04 2.959e-09
  2.50613     77.4 1.558e+04 3.393e-09
  2.52573     77.9 1.562e+04 3.497e-09
  2.54534     78.3 1.552e+04 3.430e-09
  2.56494     78.7 1.528e+04 3.167e-09
  2.58454     79.0 1.496e+04 2.812e-09
  2.60415     79.2 1.460e+04 2.505e-09
  2.61877     79.3 1.428e+04 2.294e-09
  2.62857     79.9 1.412e+04 1.880e-09
  2.64072     80.2 1.384e+04 1.807e-09
  2.65052     79.0 1.412e+04 2.713e-09
  2.66296     79.8 1.390e+04 2.602e-09
  2.68256     80.5 1.375e+04 2.515e-09
  2.70217     81.3 1.374e+04 2.510e-09
  2.72177     82.0 1.388e+04 2.594e-09
  2.74137     82.3 1.432e+04 2.860e-09
  2.76098     82.5 1.511e+04 3.499e-09
  2.78058     82.6 1.602e+04 4.287e-09
  2.79523     83.3 1.631e+04 4.679e-09
  2.80499     83.6 1.648e+04 4.962e-09
  2.81479     83.5 1.683e+04 5.658e-09
  2.82459     83.6 1.736e+04 6.846e-09
  2.83439     83.6 1.821e+04 8.767e-09
  2.84419     83.4 1.947e+04 1.190e-08
  2.85400     82.8 2.094e+04 1.659e-08
  2.86362     81.9 2.225e+04 2.290e-08
  2.86852     82.5 2.171e+04 2.169e-08
  2.87360     82.4 2.291e+04 3.090e-08
  2.88340     82.7 2.391e+04 4.569e-08
  2.89320     83.1 2.447e+04 6.664e-08
  2.90301     83.5 2.449e+04 9.752e-08
  2.91281     83.7 2.420e+04 1.503e-07
  2.92261     83.6 2.361e+04 2.416e-07
  2.92851     82.7 2.340e+04 3.201e-07
  2.93093     83.2 2.342e+04 3.102e-07
  2.93481     82.9 2.326e+04 3.618e-07
  2.93971     82.2 2.320e+04 4.542e-07
  2.94461     81.3 2.303e+04 5.206e-07
  2.95159     80.3 2.264e+04 5.583e-07
  2.95652     79.0 2.400e+04 2.428e-07
  2.96182     76.0 2.447e+04 2.150e-07
  2.97162     71.2 2.741e+04 1.449e-07
  2.98142     64.9 3.120e+04 8.842e-08
  2.98854     61.4 2.696e+04 1.084e-07
  2.99344     62.1 2.741e+04 1.280e-07
  3.00102     60.6 2.600e+04 8.598e-08
  3.01082     59.4 2.758e+04 3.200e-08
  3.02063     57.6 2.795e+04 1.506e-08
  3.03043     56.9 2.654e+04 1.118e-08
  3.04023     56.7 2.558e+04 9.288e-09
  3.05498     57.2 2.388e+04 9.043e-09
  3.07463     57.5 2.133e+04 6.723e-09
  3.09424     57.8 1.888e+04 5.162e-09
  3.10867     58.1 1.712e+04 4.282e-09
  3.11847     58.2 1.791e+04 5.884e-09
  3.13344     58.3 1.673e+04 5.008e-09
  3.15305     58.5 1.592e+04 4.669e-09
  3.17265     58.8 1.556e+04 4.665e-09
  3.19226     59.4 1.537e+04 4.698e-09
  3.21186     60.3 1.516e+04 4.624e-09
  3.23146     61.4 1.483e+04 4.281e-09
  3.25107     62.6 1.435e+04 3.630e-09
  3.26271     63.8 1.377e+04 2.928e-09
  3.27251     63.1 1.295e+04 2.114e-09
  3.30017     64.1 1.221e+04 1.477e-09
  3.32958     64.7 1.179e+04 1.207e-09
  3.34871     65.4 1.164e+04 1.100e-09
  3.35851     65.1 1.141e+04 9.652e-10
  3.37859     65.8 1.043e+04 6.487e-10
  3.41789     67.1 9.479e+03 3.913e-10
  3.45710     68.1 8.736e+03 2.642e-10
  3.49631     69.4 8.405e+03 2.275e-10
  3.53551     71.1 8.358e+03 2.273e-10
  3.57472     73.1 8.354e+03 2.413e-10
  3.61393     75.4 8.351e+03 2.551e-10
  3.65314     77.7 8.328e+03 2.542e-10
  3.69234     80.1 8.260e+03 2.455e-10
  3.73155     82.6 8.148e+03 2.252e-10
  3.77076     85.0 8.006e+03 2.000e-10
  3.80996     87.3 7.875e+03 1.805e-10
  3.83880     89.8 7.839e+03 1.763e-10
  3.85841     88.9 7.921e+03 1.860e-10
  3.88838     91.5 7.980e+03 1.927e-10
  3.92759     94.1 8.144e+03 2.147e-10
  3.96679     96.8 8.371e+03 2.511e-10
  4.00600     99.5 8.658e+03 3.042e-10
  4.04521    102.0 9.053e+03 3.828e-10
  4.08441    104.2 9.552e+03 4.937e-10
  4.12362    106.4 1.014e+04 6.581e-10
  4.16283    108.3 1.091e+04 9.057e-10
  4.20204    109.6 1.175e+04 1.221e-09
  4.23134    109.2 1.188e+04 1.291e-09
  4.25085    109.4 1.203e+04 1.384e-09
  4.27045    109.4 1.222e+04 1.495e-09
  4.29006    109.2 1.248e+04 1.640e-09
  4.30966    108.8 1.282e+04 1.843e-09
  4.32850    108.3 1.315e+04 2.071e-09
  4.33831    107.8 1.323e+04 2.088e-09
  4.34887    107.3 1.352e+04 2.247e-09
  4.36847    106.7 1.363e+04 2.247e-09
  4.38807    106.3 1.368e+04 2.178e-09
  4.40768    105.8 1.366e+04 2.003e-09
  4.42728    105.5 1.369e+04 1.800e-09
  4.44688    105.0 1.380e+04 1.587e-09
  4.46649    104.5 1.385e+04 1.440e-09
  4.48609    104.1 1.372e+04 1.392e-09
  4.49689    104.1 1.361e+04 1.412e-09
  4.50669    104.9 1.169e+04 7.215e-10
  4.52530    104.9 1.188e+04 7.747e-10
  4.54490    105.1 1.196e+04 8.307e-10
  4.56451    105.6 1.195e+04 8.797e-10
  4.57835    106.3 1.191e+04 9.229e-10
  4.58815    106.1 1.160e+04 7.918e-10
  4.60371    107.0 1.162e+04 8.426e-10
  4.62332    107.9 1.168e+04 8.924e-10
  4.64292    108.8 1.175e+04 9.369e-10
  4.66252    109.7 1.179e+04 9.719e-10
  4.68213    110.5 1.181e+04 9.967e-10
  4.70173    111.4 1.181e+04 1.011e-09
  4.72134    112.4 1.178e+04 1.018e-09
  4.74094    113.5 1.178e+04 1.014e-09
  4.76054    114.8 1.178e+04 1.013e-09
  4.78015    116.0 1.178e+04 1.020e-09
  4.79975    117.3 1.183e+04 1.033e-09
  4.81840    118.5 1.187e+04 1.034e-09
  4.82820    118.6 1.200e+04 1.099e-09
  4.83896    119.8 1.203e+04 1.094e-09
  4.85856    121.0 1.205e+04 1.079e-09
  4.87816    122.3 1.206e+04 1.051e-09
  4.89777    123.4 1.206e+04 1.015e-09
  4.91737    124.6 1.207e+04 9.766e-10
  4.93697    125.7 1.206e+04 9.383e-10
  4.95658    126.8 1.204e+04 8.981e-10
  4.97618    127.9 1.200e+04 8.554e-10
  4.99579    129.1 1.198e+04 8.240e-10
  5.01539    130.2 1.199e+04 8.192e-10
  5.03499    131.4 1.202e+04 8.230e-10
  5.05460    132.6 1.215e+04 8.495e-10
  5.06825    133.7 1.237e+04 9.166e-10
  5.07805    133.7 1.256e+04 9.792e-10
  5.09380    134.7 1.283e+04 1.085e-09
  5.10908    135.7 1.318e+04 1.237e-09
  5.11888    135.1 1.315e+04 1.317e-09
  5.13301    136.0 1.350e+04 1.509e-09
  5.15261    136.9 1.382e+04 1.725e-09
  5.17222    137.7 1.412e+04 1.914e-09
  5.19182    138.5 1.431e+04 1.966e-09
  5.21142    139.2 1.431e+04 1.955e-09
  5.23103    140.0 1.425e+04 1.883e-09
  5.25063    140.9 1.413e+04 1.747e-09
  5.27024    141.8 1.408e+04 1.607e-09
  5.28984    142.3 1.423e+04 1.537e-09
  5.30830    142.2 1.438e+04 1.546e-09
  5.31810    141.3 1.382e+04 1.229e-09
  5.32905    140.6 1.409e+04 1.287e-09
  5.34865    138.5 1.494e+04 1.610e-09
  5.36825    135.9 1.629e+04 2.595e-09
  5.38786    134.3 1.762e+04 4.356e-09
  5.40746    133.5 1.847e+04 5.560e-09
  5.42706    132.4 1.850e+04 5.481e-09
  5.44667    131.1 1.829e+04 4.657e-09
  5.46627    129.4 1.759e+04 3.016e-09
  5.48587    126.6 1.654e+04 1.518e-09
  5.50548    121.9 1.506e+04 6.913e-10
  5.52508    116.3 1.330e+04 4.347e-10
  5.54469    112.6 1.274e+04 4.176e-10
  5.55815    110.3 1.270e+04 4.255e-10
  5.56795    108.4 1.236e+04 3.776e-10
  5.58389    106.8 1.258e+04 4.365e-10
  5.60350    105.3 1.289e+04 5.117e-10
  5.62310    103.9 1.313e+04 5.803e-10
  5.64270    102.2 1.341e+04 6.498e-10
  5.66231    100.1 1.378e+04 7.412e-10
  5.68191     97.8 1.417e+04 8.648e-10
  5.70151     95.8 1.448e+04 1.013e-09
  5.72112     93.8 1.483e+04 1.225e-09
  5.73107     90.7 1.575e+04 1.579e-09
  5.74087     86.9 1.615e+04 1.677e-09
  5.76033     80.1 1.881e+04 2.528e-09
  5.77993     74.6 2.012e+04 3.837e-09
  5.79819     69.0 2.102e+04 5.678e-09
  5.80799     64.9 2.232e+04 7.616e-09
  5.81914     59.6 2.251e+04 7.631e-09
  5.83874     53.9 2.277e+04 6.466e-09
  5.85834     47.9 2.198e+04 4.944e-09
  5.87795     42.3 2.047e+04 3.963e-09
  5.89755     38.5 1.906e+04 3.439e-09
  5.91715     36.4 1.818e+04 3.174e-09
  5.93676     35.0 1.790e+04 2.867e-09
  5.95636     33.7 1.769e+04 2.639e-09
  5.97596     32.1 1.737e+04 2.391e-09
  5.99557     30.3 1.707e+04 2.183e-09
  6.01517     28.6 1.667e+04 1.970e-09
  6.03478     27.3 1.616e+04 1.716e-09
  6.04804     26.1 1.578e+04 1.498e-09
  6.05784     24.9 1.579e+04 1.465e-09
  6.07398     23.9 1.540e+04 1.198e-09
  6.09359     22.0 1.523e+04 1.001e-09
  6.11319     19.3 1.516e+04 8.738e-10
  6.13279     16.2 1.499e+04 7.907e-10
  6.15240     11.9 1.519e+04 8.524e-10
  6.17200      8.6 1.503e+04 9.435e-10
  6.19160      5.3 1.534e+04 1.153e-09
  6.21121      0.9 1.634e+04 1.651e-09
  6.23081     -4.7 1.774e+04 2.760e-09
  6.25041    -14.9 2.197e+04 5.699e-09
  6.27002    -28.2 2.719e+04 1.296e-08
  6.28467    -38.1 2.824e+04 2.007e-08
  6.29289    -42.8 2.846e+04 2.065e-08
  6.29779    -43.8 2.930e+04 2.314e-08
  6.30423    -67.7 6.678e+04 8.138e-09
  6.31403   -111.9 7.200e+04 2.414e-08
  6.32383   -142.0 3.602e+04 5.066e-07
  6.33363   -158.1 2.411e+04 1.547e-06
  6.34316   -168.5 2.266e+04 1.264e-06
  6.34806   -162.2 2.190e+04 1.828e-06
  6.35324   -167.9 2.197e+04 1.420e-06
  6.36304   -171.7 2.733e+04 4.369e-07
  6.37284   -174.8 3.858e+04 8.212e-08
  6.38264   -178.2 5.588e+04 1.373e-08
  6.39244   -183.1 6.904e+04 3.650e-09
  6.40224   -189.8 6.632e+04 1.575e-09
  6.41205   -196.6 3.875e+04 1.257e-09
  6.41782   -200.9 1.918e+04 1.004e-09
  6.42272   -201.9 1.423e+04 1.142e-09
  6.43165   -201.8 1.360e+04 9.453e-10
  6.44145   -201.3 1.296e+04 7.915e-10
  6.45125   -200.9 1.247e+04 6.855e-10
  6.46601   -200.2 1.198e+04 5.956e-10
  6.48566   -198.6 1.160e+04 5.398e-10
  6.50526   -197.9 1.164e+04 5.387e-10
  6.52486   -197.7 1.197e+04 5.620e-10
  6.53794   -197.9 1.278e+04 6.996e-10
  6.54774   -198.5 1.424e+04 1.054e-09
  6.56407   -198.4 1.479e+04 1.453e-09
  6.58368   -197.9 1.489e+04 1.824e-09
  6.60328   -197.2 1.472e+04 1.980e-09
  6.62288   -196.5 1.438e+04 2.000e-09
  6.64249   -195.7 1.386e+04 1.900e-09
  6.66209   -194.9 1.342e+04 1.682e-09
  6.68169   -194.2 1.296e+04 1.409e-09
  6.70130   -193.5 1.249e+04 1.154e-09
  6.72090   -192.9 1.203e+04 9.335e-10
  6.74050   -192.3 1.155e+04 7.484e-10
  6.76011   -191.4 1.112e+04 6.027e-10
  6.77798   -190.4 1.077e+04 4.967e-10
  6.78779   -191.0 1.062e+04 4.498e-10
  6.79932   -189.9 1.040e+04 3.912e-10
  6.81892   -188.8 1.038e+04 3.592e-10
  6.83852   -187.9 1.041e+04 3.506e-10
  6.85813   -187.2 1.045e+04 3.492e-10
  6.87773   -186.6 1.054e+04 3.555e-10
  6.90723   -186.0 1.062e+04 3.663e-10
  6.94584   -183.0 1.040e+04 3.652e-10
  6.96544   -181.6 9.722e+03 2.585e-10
  6.98574   -178.9 9.632e+03 2.521e-10
  7.02495   -176.1 9.580e+03 2.496e-10
  7.06416   -173.4 9.519e+03 2.489e-10
  7.10337   -170.8 9.497e+03 2.493e-10
  7.14257   -168.5 9.521e+03 2.532e-10
  7.18178   -166.6 9.578e+03 2.642e-10
  7.22099   -165.0 9.673e+03 2.861e-10
  7.25827   -163.7 9.761e+03 3.140e-10
  7.27788   -164.5 1.011e+04 3.883e-10
  7.29940   -163.1 9.917e+03 3.637e-10
  7.33861   -161.7 9.700e+03 3.222e-10
  7.37782   -160.2 9.502e+03 2.779e-10
  7.41702   -158.5 9.351e+03 2.406e-10
  7.45623   -156.7 9.262e+03 2.161e-10
  7.49544   -154.8 9.220e+03 2.054e-10
  7.53464   -152.7 9.211e+03 2.029e-10
  7.57385   -150.6 9.218e+03 2.024e-10
  7.61306   -148.3 9.231e+03 2.063e-10
  7.65227   -146.0 9.215e+03 2.111e-10
  7.69147   -143.6 9.205e+03 2.151e-10
  7.73068   -141.2 9.208e+03 2.213e-10
  7.75797   -138.7 9.256e+03 2.338e-10
  7.77758   -138.3 8.815e+03 1.386e-10
  7.80909   -135.7 8.785e+03 1.404e-10
  7.84830   -133.3 8.834e+03 1.545e-10
  7.88751   -130.9 8.961e+03 1.807e-10
  7.92672   -128.4 9.103e+03 2.161e-10
  7.96592   -125.9 9.214e+03 2.528e-10
  8.00513   -123.3 9.273e+03 2.811e-10
  8.04434   -120.6 9.286e+03 2.914e-10
  8.08355   -117.8 9.141e+03 2.911e-10
  8.12275   -114.7 8.813e+03 2.452e-10
  8.16196   -111.7 8.551e+03 1.857e-10
  8.18982   -108.6 8.238e+03 1.367e-10
  8.20942   -108.3 8.143e+03 1.252e-10
  8.23807   -105.4 7.930e+03 9.412e-11
  8.25767   -104.4 8.118e+03 1.211e-10
  8.27958   -101.5 7.936e+03 9.664e-11
  8.31879    -98.6 7.810e+03 8.118e-11
  8.35800    -95.7 7.753e+03 7.321e-11
  8.39720    -92.8 7.744e+03 7.098e-11
  8.43641    -89.9 7.750e+03 7.074e-11
  8.47562    -87.0 7.829e+03 7.363e-11
  8.51482    -84.3 7.939e+03 8.174e-11
  8.55403    -81.6 8.083e+03 9.475e-11
  8.59324    -79.1 8.327e+03 1.180e-10
  8.63245    -76.7 8.705e+03 1.669e-10
  8.67165    -74.3 9.143e+03 2.579e-10
  8.71086    -71.9 9.594e+03 3.898e-10
  8.73776    -69.4 9.997e+03 5.390e-10
  8.75737    -68.8 9.761e+03 3.996e-10
  8.78927    -66.4 1.014e+04 5.419e-10
  8.82848    -64.2 1.041e+04 6.520e-10
  8.86769    -62.1 1.048e+04 6.847e-10
  8.90690    -60.1 1.047e+04 6.646e-10
  8.94610    -58.2 1.028e+04 5.684e-10
  8.98531    -56.2 1.003e+04 4.471e-10
  9.02452    -54.2 9.776e+03 3.356e-10
  9.06372    -52.2 9.527e+03 2.504e-10
  9.10293    -50.1 9.279e+03 1.897e-10
  9.14214    -47.8 9.015e+03 1.432e-10
  9.18135    -45.5 8.718e+03 1.090e-10
  9.21786    -43.1 8.606e+03 8.834e-11
  9.23746    -42.0 8.629e+03 8.968e-11
  9.25976    -39.5 8.579e+03 6.873e-11
  9.29897    -37.2 8.556e+03 5.031e-11
  9.33817    -35.1 8.511e+03 4.092e-11
  9.37738    -33.2 8.497e+03 3.941e-11
  9.41419    -31.7 8.738e+03 4.539e-11
  9.43380    -32.4 8.856e+03 6.410e-11
  9.45580    -31.3 8.902e+03 1.222e-10
  9.49500    -29.2 9.125e+03 2.293e-10
  9.53421    -26.6 9.502e+03 3.517e-10
  9.57342    -24.3 9.718e+03 4.033e-10
  9.61262    -22.6 9.711e+03 3.962e-10
  9.65183    -20.9 9.414e+03 2.918e-10
  9.69104    -19.6 9.207e+03 2.296e-10
  9.71756    -18.2 9.072e+03 2.020e-10
  9.73716    -17.2 9.294e+03 2.407e-10
  9.76945    -15.6 9.169e+03 2.210e-10
  9.80866    -13.5 9.096e+03 2.111e-10
  9.84787    -11.3 9.091e+03 1.918e-10
  9.88707     -9.4 9.136e+03 1.729e-10
  9.92628     -8.2 9.171e+03 1.698e-10
  9.96549     -7.5 9.347e+03 2.224e-10
 10.00470     -6.5 9.934e+03 3.570e-10
 10.04390     -5.5 1.063e+04 6.119e-10
 10.08311     -4.5 1.125e+04 8.904e-10
 10.12232     -3.8 1.194e+04 1.151e-09
 10.15163     -3.3 1.213e+04 1.363e-09
 10.17113     -2.7 1.228e+04 1.506e-09
 10.19074     -2.7 1.256e+04 1.747e-09
 10.20726     -3.3 1.343e+04 2.101e-09
 10.21706     -1.4 1.269e+04 1.697e-09
 10.22994     -2.5 1.365e+04 2.096e-09
 10.24955     -3.3 1.363e+04 2.637e-09
 10.26915     -3.0 1.325e+04 3.048e-09
 10.28875     -1.8 1.314e+04 3.106e-09
 10.30836     -0.5 1.289e+04 2.887e-09
 10.32796      1.0 1.262e+04 2.299e-09
 10.34756      1.8 1.257e+04 1.618e-09
 10.36717      2.0 1.228e+04 1.019e-09
 10.38677      1.4 1.170e+04 6.198e-10
 10.40637      0.6 1.114e+04 4.427e-10
 10.42598      0.2 1.099e+04 3.843e-10
 10.44558      0.1 1.112e+04 3.779e-10
 10.45711      0.1 1.136e+04 4.900e-10
 10.46691      1.4 1.182e+04 5.703e-10
 10.48479      1.3 1.195e+04 7.210e-10
 10.50439      1.7 1.191e+04 9.978e-10
 10.52400      2.3 1.232e+04 1.264e-09
 10.54360      3.1 1.260e+04 1.644e-09
 10.56320      3.7 1.296e+04 1.926e-09
 10.58281      4.1 1.315e+04 2.174e-09
 10.60241      4.3 1.316e+04 2.206e-09
 10.62201      4.7 1.281e+04 2.164e-09
 10.64162      5.4 1.230e+04 1.888e-09
 10.65798      6.4 1.176e+04 1.628e-09
 10.66778      6.0 1.172e+04 1.793e-09
 10.68082      7.3 1.174e+04 1.499e-09
 10.69715      7.8 1.184e+04 1.005e-09
 10.70695      8.8 1.236e+04 1.298e-09
 10.72003      8.2 1.147e+04 9.684e-10
 10.73964      7.6 1.062e+04 6.055e-10
 10.75924      7.7 9.741e+03 4.658e-10
 10.77884      8.0 9.541e+03 3.140e-10
 10.79845      8.4 9.388e+03 2.879e-10
 10.82795      9.6 9.344e+03 2.465e-10
 10.86725     10.7 8.662e+03 1.503e-10
 10.90646     11.9 8.313e+03 1.093e-10
 10.94567     13.4 8.160e+03 9.414e-11
 10.98488     15.1 8.185e+03 9.215e-11
 11.02408     16.7 8.299e+03 1.088e-10
 11.06329     18.7 8.448e+03 1.405e-10
 11.10250     20.9 8.626e+03 1.764e-10
