# Columns:
#   distance along LOS (in CHIMPs)
#   peculiar velocity  (in km/s)
#   temperature (K)
#   HI number density
# pos=(168.655,3.46513,176.553), angles=(1.33949,0.0891495)
  0.00778    -45.4 1.195e+04 1.103e-09
  0.02563    -45.8 1.200e+04 1.090e-09
  0.04247    -46.5 1.215e+04 1.101e-09
  0.05255    -48.3 1.183e+04 9.563e-10
  0.05946    -49.1 1.182e+04 9.595e-10
  0.06953    -49.2 1.220e+04 1.110e-09
  0.08607    -50.0 1.214e+04 1.153e-09
  0.10622    -50.6 1.208e+04 1.203e-09
  0.12536    -51.0 1.206e+04 1.211e-09
  0.13544    -52.4 1.140e+04 9.233e-10
  0.14651    -52.6 1.116e+04 8.666e-10
  0.16665    -52.7 1.092e+04 7.455e-10
  0.18680    -53.0 1.070e+04 6.233e-10
  0.20694    -53.4 1.055e+04 5.312e-10
  0.21833    -53.9 1.046e+04 4.748e-10
  0.22840    -54.6 1.031e+04 4.219e-10
  0.24724    -54.9 1.027e+04 4.012e-10
  0.26738    -54.9 1.024e+04 3.946e-10
  0.28295    -54.8 1.019e+04 3.914e-10
  0.29302    -55.2 1.019e+04 3.981e-10
  0.30122    -55.0 1.015e+04 3.962e-10
  0.32146    -55.5 9.682e+03 2.889e-10
  0.35823    -54.7 9.370e+03 2.502e-10
  0.39852    -53.7 9.073e+03 2.131e-10
  0.43881    -52.4 8.796e+03 1.782e-10
  0.46719    -50.8 8.572e+03 1.478e-10
  0.48734    -51.1 8.452e+03 1.330e-10
  0.50663    -49.2 8.243e+03 1.116e-10
  0.52678    -49.6 8.242e+03 1.129e-10
  0.55969    -47.5 8.065e+03 9.393e-11
  0.59998    -45.3 7.938e+03 8.084e-11
  0.63297    -43.1 7.835e+03 7.333e-11
  0.65312    -43.4 7.896e+03 7.855e-11
  0.68056    -41.0 7.876e+03 7.750e-11
  0.72085    -38.7 7.871e+03 7.839e-11
  0.76114    -36.3 7.898e+03 8.268e-11
  0.79875    -33.9 7.934e+03 8.814e-11
  0.81890    -34.3 8.083e+03 1.108e-10
  0.84173    -32.0 8.143e+03 1.174e-10
  0.88202    -29.7 8.241e+03 1.260e-10
  0.92231    -27.5 8.367e+03 1.384e-10
  0.95361    -25.4 8.506e+03 1.550e-10
  0.97376    -25.5 8.608e+03 1.811e-10
  0.98468    -23.3 8.849e+03 2.193e-10
  1.00483    -24.0 9.304e+03 3.080e-10
  1.03301    -21.9 9.376e+03 3.248e-10
  1.05306    -21.7 9.375e+03 3.280e-10
  1.06737    -19.8 9.497e+03 3.649e-10
  1.07745    -20.2 9.670e+03 4.039e-10
  1.09335    -19.8 9.768e+03 4.363e-10
  1.11350    -18.5 1.008e+04 5.369e-10
  1.13364    -17.8 1.042e+04 6.271e-10
  1.15026    -17.2 1.086e+04 7.739e-10
  1.16034    -18.3 1.145e+04 1.024e-09
  1.17393    -18.2 1.198e+04 1.295e-09
  1.18698    -18.1 1.261e+04 1.697e-09
  1.19705    -18.6 1.328e+04 2.511e-09
  1.21423    -18.5 1.403e+04 3.299e-09
  1.23316    -18.1 1.469e+04 4.216e-09
  1.24323    -19.4 1.523e+04 4.796e-09
  1.25452    -18.7 1.522e+04 5.041e-09
  1.27466    -18.1 1.507e+04 5.108e-09
  1.29481    -17.7 1.463e+04 4.761e-09
  1.31495    -17.7 1.417e+04 4.243e-09
  1.32612    -18.1 1.391e+04 3.867e-09
  1.33619    -20.1 1.415e+04 3.523e-09
  1.35524    -21.1 1.436e+04 3.718e-09
  1.37539    -21.7 1.451e+04 4.065e-09
  1.39554    -21.8 1.460e+04 4.336e-09
  1.40901    -21.5 1.450e+04 4.369e-09
  1.41387    -22.6 1.420e+04 4.431e-09
  1.42054    -22.6 1.377e+04 3.734e-09
  1.43583    -21.9 1.333e+04 3.264e-09
  1.45597    -21.3 1.276e+04 2.581e-09
  1.47612    -21.2 1.201e+04 1.869e-09
  1.49190    -21.2 1.112e+04 1.299e-09
  1.50197    -22.0 1.091e+04 1.199e-09
  1.51641    -21.6 1.010e+04 8.449e-10
  1.53656    -20.4 9.439e+03 6.055e-10
  1.55670    -19.0 8.953e+03 4.364e-10
  1.57479    -18.0 8.588e+03 3.229e-10
  1.58486    -18.1 8.563e+03 3.195e-10
  1.60716    -17.0 8.265e+03 2.421e-10
  1.64755    -14.3 7.690e+03 1.542e-10
  1.66795    -11.4 7.483e+03 1.161e-10
  1.67792    -13.6 8.037e+03 1.786e-10
  1.69772    -13.1 8.458e+03 1.805e-10
  1.71787    -13.0 1.035e+04 2.022e-10
  1.73801    -14.5 1.289e+04 2.075e-10
  1.75064    -15.6 1.538e+04 2.527e-10
  1.76071    -19.7 1.552e+04 1.475e-09
  1.77830    -19.5 1.549e+04 2.358e-09
  1.79845    -18.7 1.549e+04 4.150e-09
  1.81859    -18.1 1.587e+04 6.247e-09
  1.83353    -16.9 1.632e+04 9.242e-09
  1.84360    -16.6 1.785e+04 1.616e-08
  1.85745    -15.2 1.822e+04 1.701e-08
  1.86752    -15.3 1.791e+04 1.483e-08
  1.87903    -14.3 1.799e+04 1.438e-08
  1.89918    -13.8 1.802e+04 1.370e-08
  1.91642    -13.9 1.864e+04 1.274e-08
  1.92650    -19.0 1.885e+04 5.833e-09
  1.93947    -22.1 1.711e+04 3.876e-09
  1.95961    -25.5 1.469e+04 3.074e-09
  1.97976    -27.5 1.338e+04 2.745e-09
  1.99931    -28.1 1.287e+04 2.431e-09
  2.00939    -29.3 1.281e+04 2.859e-09
  2.02005    -28.8 1.268e+04 2.706e-09
  2.04020    -28.5 1.222e+04 2.172e-09
  2.06034    -28.6 1.158e+04 1.645e-09
  2.08049    -28.7 1.082e+04 1.214e-09
  2.09101    -28.4 1.012e+04 8.725e-10
  2.09272    -27.8 1.001e+04 8.125e-10
  2.10235    -28.6 9.799e+03 7.036e-10
  2.12078    -28.5 9.409e+03 5.189e-10
  2.14092    -28.7 9.091e+03 4.042e-10
  2.16519    -28.5 8.844e+03 3.432e-10
  2.18543    -29.4 8.661e+03 3.044e-10
  2.21163    -28.0 8.378e+03 2.529e-10
  2.25192    -26.2 8.308e+03 2.354e-10
  2.29221    -24.5 8.296e+03 2.323e-10
  2.31469    -22.7 8.375e+03 2.388e-10
  2.33340    -21.8 8.393e+03 2.441e-10
  2.35121    -22.8 8.460e+03 2.488e-10
  2.37279    -21.1 8.524e+03 2.560e-10
  2.41309    -19.6 8.601e+03 2.608e-10
  2.45338    -18.4 8.766e+03 2.757e-10
  2.49367    -17.5 9.103e+03 3.296e-10
  2.51699    -17.0 9.582e+03 4.312e-10
  2.52697    -18.7 9.605e+03 4.307e-10
  2.53799    -19.1 9.798e+03 4.988e-10
  2.54806    -18.8 9.876e+03 5.172e-10
  2.56398    -18.9 1.017e+04 6.371e-10
  2.58413    -19.0 1.052e+04 7.601e-10
  2.59969    -19.0 1.075e+04 8.553e-10
  2.60976    -19.9 1.094e+04 9.926e-10
  2.62442    -19.8 1.100e+04 1.035e-09
  2.64456    -19.8 1.102e+04 1.046e-09
  2.66471    -19.6 1.099e+04 1.040e-09
  2.68258    -19.4 1.100e+04 1.027e-09
  2.69265    -20.0 1.092e+04 9.742e-10
  2.70500    -20.0 1.083e+04 9.087e-10
  2.73532    -19.9 1.098e+04 9.054e-10
  2.76167    -19.6 1.113e+04 8.910e-10
  2.78182    -19.3 1.054e+04 5.870e-10
  2.81600    -18.8 1.053e+04 5.641e-10
  2.84856    -18.2 1.056e+04 5.652e-10
  2.86870    -18.8 1.098e+04 6.770e-10
  2.89658    -18.6 1.142e+04 7.874e-10
  2.93687    -19.5 1.208e+04 1.047e-09
  2.96699    -20.4 1.308e+04 2.021e-09
  2.98496    -20.5 1.331e+04 2.398e-09
  2.99504    -20.3 1.318e+04 2.202e-09
  3.00719    -19.9 1.335e+04 2.511e-09
  3.02421    -19.5 1.342e+04 2.579e-09
  3.03429    -19.6 1.378e+04 3.131e-09
  3.04748    -19.6 1.361e+04 2.657e-09
  3.06762    -20.3 1.342e+04 2.288e-09
  3.08777    -21.3 1.318e+04 2.052e-09
  3.10710    -22.0 1.307e+04 1.976e-09
  3.11718    -22.6 1.282e+04 1.915e-09
  3.12806    -22.9 1.283e+04 1.923e-09
  3.14821    -23.0 1.283e+04 1.927e-09
  3.16835    -23.0 1.274e+04 1.836e-09
  3.18850    -23.1 1.252e+04 1.681e-09
  3.20007    -23.0 1.223e+04 1.500e-09
  3.20995    -23.2 1.167e+04 1.172e-09
  3.21853    -23.0 1.168e+04 1.166e-09
  3.22879    -22.8 1.147e+04 1.039e-09
  3.24893    -22.7 1.111e+04 8.661e-10
  3.26908    -22.3 1.085e+04 7.438e-10
  3.28296    -22.1 1.051e+04 6.080e-10
  3.29303    -22.0 1.023e+04 5.186e-10
  3.30937    -21.7 1.007e+04 4.694e-10
  3.33969    -20.6 1.013e+04 4.412e-10
  3.36604    -19.2 9.761e+03 3.499e-10
  3.38619    -18.5 9.489e+03 2.928e-10
  3.42037    -17.1 9.403e+03 2.834e-10
  3.46066    -15.4 9.385e+03 3.030e-10
  3.50095    -13.6 9.381e+03 3.235e-10
  3.53182    -11.6 9.269e+03 2.979e-10
  3.55197    -10.9 9.038e+03 2.741e-10
  3.58153     -8.8 9.017e+03 2.598e-10
  3.62182     -6.4 8.864e+03 2.217e-10
  3.65563     -4.1 8.841e+03 1.525e-10
  3.67577     -3.4 9.067e+03 2.084e-10
  3.69760     -1.8 9.046e+03 1.283e-10
  3.71775     -0.9 9.062e+03 1.935e-10
  3.74270      0.7 8.943e+03 1.327e-10
  3.78299      2.5 8.771e+03 9.544e-11
  3.82328      4.6 8.669e+03 6.984e-11
  3.86338      6.6 8.638e+03 6.173e-11
  3.90367      9.0 8.743e+03 6.443e-11
  3.94415     10.5 8.807e+03 7.374e-11
  3.98444     12.1 8.923e+03 9.863e-11
  4.02474     13.6 9.067e+03 1.391e-10
  4.04931     15.1 9.424e+03 2.125e-10
  4.06945     14.9 9.782e+03 2.875e-10
  4.10261     16.2 1.014e+04 4.202e-10
  4.12275     17.1 1.004e+04 3.929e-10
  4.14561     18.0 1.043e+04 5.307e-10
  4.18590     18.4 1.070e+04 6.552e-10
  4.21509     18.6 1.085e+04 7.558e-10
  4.23524     18.2 1.071e+04 6.997e-10
  4.26648     18.6 1.048e+04 6.358e-10
  4.30677     19.0 1.014e+04 4.954e-10
  4.34707     19.1 9.872e+03 3.700e-10
  4.38087     18.7 9.814e+03 3.137e-10
  4.40102     18.7 9.387e+03 2.355e-10
  4.42765     18.9 9.354e+03 2.463e-10
  4.46794     19.6 9.255e+03 2.625e-10
  4.50823     20.8 9.141e+03 2.622e-10
  4.54665     22.3 9.029e+03 2.431e-10
  4.56680     23.5 8.976e+03 2.383e-10
  4.56973     25.2 8.818e+03 2.052e-10
  4.58988     26.6 8.881e+03 2.260e-10
  4.62910     28.2 8.721e+03 1.880e-10
  4.66940     29.6 8.544e+03 1.550e-10
  4.70969     31.0 8.427e+03 1.422e-10
  4.73258     32.6 8.435e+03 1.449e-10
  4.75272     33.4 8.413e+03 1.412e-10
  4.79027     34.9 8.460e+03 1.541e-10
  4.83056     36.4 8.549e+03 1.790e-10
  4.87085     37.9 8.661e+03 2.043e-10
  4.89836     39.3 8.773e+03 2.190e-10
  4.91850     39.9 8.793e+03 2.181e-10
  4.95143     41.1 8.783e+03 2.130e-10
  4.99173     42.1 8.754e+03 1.993e-10
  5.01671     43.0 8.784e+03 1.957e-10
  5.03686     44.0 8.759e+03 1.958e-10
  5.06414     44.6 8.923e+03 2.111e-10
  5.08428     43.2 9.208e+03 2.205e-10
  5.10243     43.0 9.438e+03 2.480e-10
  5.12248     41.9 1.001e+04 3.436e-10
  5.14262     40.8 1.040e+04 5.298e-10
  5.15690     40.7 1.064e+04 7.715e-10
  5.16698     40.5 1.063e+04 8.218e-10
  5.18291     41.1 1.082e+04 9.527e-10
  5.20306     41.4 1.106e+04 9.439e-10
  5.22321     41.3 1.112e+04 8.907e-10
  5.23979     40.9 1.114e+04 7.818e-10
  5.24652     39.9 1.095e+04 6.466e-10
  5.25008     40.2 1.101e+04 6.673e-10
  5.26350     39.3 1.079e+04 5.888e-10
  5.28364     38.6 1.057e+04 5.310e-10
  5.30379     38.2 1.043e+04 4.891e-10
  5.32269     38.0 1.037e+04 4.592e-10
  5.33276     38.1 1.038e+04 4.676e-10
  5.34408     38.2 1.035e+04 4.408e-10
  5.36422     38.4 1.033e+04 4.156e-10
  5.38437     38.6 1.031e+04 3.903e-10
  5.40452     38.7 1.031e+04 3.627e-10
  5.41565     38.8 1.027e+04 3.385e-10
  5.42572     39.3 1.028e+04 3.312e-10
  5.44481     39.4 1.028e+04 3.137e-10
  5.46349     39.4 1.036e+04 3.208e-10
  5.47357     39.4 1.042e+04 3.375e-10
  5.48510     38.2 1.131e+04 4.175e-10
  5.49854     33.2 1.441e+04 1.057e-09
  5.50861     37.3 1.254e+04 5.419e-10
  5.52539     31.2 1.544e+04 1.852e-09
  5.54554     29.5 1.593e+04 5.305e-09
  5.56568     30.2 1.620e+04 7.477e-09
  5.58143     30.9 1.623e+04 6.817e-09
  5.59150     31.1 1.629e+04 7.864e-09
  5.60597     31.8 1.620e+04 6.158e-09
  5.62612     31.2 1.641e+04 3.005e-09
  5.64626     27.9 1.571e+04 1.106e-09
  5.66432     23.3 1.232e+04 5.082e-10
  5.67439     26.9 1.462e+04 7.410e-10
  5.68655     23.0 1.149e+04 4.229e-10
  5.71687     22.8 1.116e+04 4.070e-10
  5.74740     23.0 1.127e+04 4.609e-10
  5.76745     23.7 1.136e+04 4.169e-10
  5.79745     24.9 1.129e+04 4.985e-10
  5.83784     26.0 1.127e+04 5.583e-10
  5.87813     27.3 1.112e+04 5.103e-10
  5.91067     28.6 1.092e+04 3.847e-10
  5.92557     28.2 1.088e+04 3.475e-10
  5.93333     29.2 1.138e+04 6.015e-10
  5.95872     30.7 1.112e+04 4.678e-10
  5.99901     32.1 1.082e+04 3.196e-10
  6.03930     33.6 1.048e+04 2.061e-10
  6.07896     35.1 1.018e+04 1.334e-10
  6.09911     36.8 1.079e+04 2.925e-10
  6.11988     38.2 1.053e+04 1.633e-10
  6.16017     39.2 1.009e+04 1.157e-10
  6.20046     40.2 9.955e+03 1.162e-10
  6.24075     40.8 1.004e+04 1.452e-10
  6.26489     41.9 1.016e+04 2.123e-10
  6.28504     42.8 1.033e+04 2.157e-10
  6.32134     44.0 1.029e+04 2.743e-10
  6.35765     45.4 1.035e+04 3.000e-10
  6.37779     45.9 1.046e+04 3.332e-10
  6.40192     47.0 1.057e+04 3.704e-10
  6.43067     48.1 1.064e+04 4.177e-10
  6.45082     48.6 1.080e+04 4.307e-10
  6.48250     49.9 1.092e+04 5.247e-10
  6.52279     51.3 1.100e+04 5.704e-10
  6.56308     52.8 1.101e+04 5.619e-10
  6.59645     54.1 1.103e+04 5.192e-10
  6.61660     54.5 1.111e+04 5.449e-10
  6.64367     55.8 1.111e+04 5.180e-10
  6.68396     56.8 1.115e+04 5.326e-10
  6.72425     57.7 1.128e+04 6.171e-10
  6.76223     58.6 1.149e+04 7.788e-10
  6.78238     58.5 1.119e+04 7.319e-10
  6.80462     59.1 1.136e+04 8.566e-10
  6.82477     58.4 1.151e+04 9.061e-10
  6.84512     58.6 1.144e+04 8.896e-10
  6.88541     58.8 1.120e+04 8.001e-10
  6.92571     59.4 1.078e+04 6.092e-10
  6.94816     60.2 1.026e+04 3.901e-10
  6.96830     60.0 1.007e+04 3.251e-10
  7.00629     60.7 9.649e+03 1.794e-10
  7.04658     61.1 9.287e+03 1.080e-10
  7.08687     61.9 8.968e+03 9.656e-11
  7.11394     63.3 8.944e+03 9.804e-11
  7.13408     63.3 8.847e+03 9.467e-11
  7.16745     65.1 8.807e+03 1.000e-10
  7.20774     67.0 8.796e+03 1.120e-10
  7.24804     69.1 8.805e+03 1.247e-10
  7.27175     71.1 8.829e+03 1.299e-10
  7.28329     71.3 8.792e+03 1.223e-10
  7.29986     71.6 8.627e+03 9.227e-11
  7.32862     73.5 8.598e+03 8.791e-11
  7.36891     75.3 8.560e+03 8.252e-11
  7.40920     77.2 8.560e+03 8.211e-11
  7.44550     78.9 8.589e+03 8.455e-11
  7.46564     79.4 8.423e+03 6.328e-11
  7.48978     80.9 8.526e+03 7.383e-11
  7.53007     82.2 8.756e+03 1.071e-10
  7.57037     83.4 9.117e+03 1.801e-10
  7.61066     84.5 9.574e+03 3.078e-10
  7.63143     85.5 1.005e+04 4.576e-10
  7.65157     86.1 9.936e+03 4.303e-10
  7.69124     86.7 1.022e+04 4.975e-10
  7.71873     87.1 1.022e+04 4.815e-10
  7.73887     88.3 1.021e+04 4.750e-10
  7.77182     88.7 1.018e+04 4.361e-10
  7.79721     89.0 1.007e+04 3.417e-10
  7.81735     89.8 1.004e+04 3.438e-10
  7.85241     89.9 9.923e+03 2.678e-10
  7.89270     90.0 9.933e+03 2.500e-10
  7.93299     90.3 1.004e+04 2.621e-10
  7.96299     90.9 1.010e+04 2.665e-10
  7.98313     91.8 9.708e+03 1.780e-10
  8.01357     92.7 9.666e+03 1.612e-10
  8.05386     93.9 9.604e+03 1.315e-10
  8.09415     95.3 9.529e+03 9.569e-11
  8.12877     96.6 9.457e+03 6.551e-11
  8.14891     97.2 9.349e+03 5.894e-11
  8.16571     98.6 9.270e+03 4.523e-11
  8.18585     99.3 9.293e+03 4.795e-11
  8.21503    100.8 9.176e+03 4.133e-11
  8.25532    102.5 9.057e+03 4.037e-11
  8.29455    104.4 9.051e+03 4.050e-11
  8.31469    105.4 9.040e+03 3.876e-11
  8.33590    107.4 9.044e+03 3.906e-11
  8.37619    109.3 9.070e+03 4.053e-11
  8.41648    111.0 9.112e+03 4.519e-11
  8.45677    112.6 9.155e+03 5.561e-11
  8.48047    114.2 9.211e+03 7.616e-11
  8.50062    115.1 9.220e+03 7.304e-11
  8.53736    116.6 9.343e+03 1.083e-10
  8.57765    118.1 9.537e+03 1.649e-10
  8.61268    119.4 9.785e+03 2.409e-10
  8.63283    119.6 1.001e+04 2.775e-10
  8.64625    120.6 1.029e+04 3.736e-10
  8.66640    121.1 1.027e+04 3.079e-10
  8.69852    121.7 1.045e+04 3.563e-10
  8.73881    121.9 1.060e+04 3.834e-10
  8.77910    122.0 1.072e+04 3.980e-10
  8.81203    121.9 1.083e+04 4.117e-10
  8.83218    121.9 1.073e+04 3.602e-10
  8.85969    121.9 1.078e+04 3.983e-10
  8.89998    122.1 1.080e+04 4.346e-10
  8.94027    122.4 1.077e+04 4.504e-10
  8.97781    123.0 1.073e+04 4.563e-10
  8.99796    123.1 1.045e+04 4.115e-10
  9.02085    123.5 1.047e+04 4.193e-10
  9.05966    123.8 1.056e+04 4.407e-10
  9.07981    123.6 1.062e+04 4.597e-10
  9.10143    123.9 1.080e+04 5.141e-10
  9.14173    124.3 1.097e+04 6.137e-10
  9.16374    124.6 1.113e+04 7.187e-10
  9.18389    124.7 1.061e+04 5.029e-10
  9.22231    125.1 1.061e+04 5.283e-10
  9.26260    125.6 1.056e+04 5.200e-10
  9.30289    126.1 1.044e+04 4.917e-10
  9.32952    126.9 1.024e+04 4.433e-10
  9.34967    127.3 9.820e+03 2.633e-10
  9.38347    128.2 9.730e+03 2.596e-10
  9.42376    129.4 9.638e+03 2.553e-10
  9.46406    130.7 9.579e+03 2.495e-10
  9.49530    132.0 9.553e+03 2.425e-10
  9.51545    132.4 9.467e+03 1.962e-10
  9.52679    133.8 9.479e+03 2.127e-10
  9.54693    133.9 9.381e+03 1.986e-10
  9.58493    135.2 9.383e+03 2.017e-10
  9.62522    136.4 9.372e+03 2.000e-10
  9.66108    137.7 9.333e+03 1.907e-10
  9.68123    137.6 9.218e+03 1.652e-10
  9.70580    138.7 9.209e+03 1.623e-10
  9.74609    139.7 9.225e+03 1.632e-10
  9.78639    140.5 9.295e+03 1.678e-10
  9.82668    141.2 9.410e+03 1.838e-10
  9.86697    141.5 9.526e+03 2.586e-10
  9.90726    142.4 9.664e+03 2.839e-10
  9.94755    143.2 9.699e+03 2.843e-10
  9.97377    144.1 9.686e+03 2.706e-10
  9.99391    144.2 9.577e+03 2.612e-10
 10.01279    145.3 9.519e+03 2.318e-10
 10.03293    145.0 9.437e+03 2.101e-10
 10.06842    146.2 9.297e+03 1.536e-10
 10.10872    147.3 9.164e+03 1.131e-10
 10.14901    148.7 9.108e+03 9.905e-11
 10.17857    150.3 9.107e+03 9.983e-11
 10.19871    149.9 9.156e+03 1.111e-10
 10.22959    151.6 9.229e+03 1.196e-10
 10.26988    153.3 9.416e+03 1.351e-10
 10.31017    155.0 9.573e+03 1.597e-10
 10.34435    156.6 9.727e+03 1.898e-10
 10.36449    156.4 9.909e+03 3.071e-10
 10.39075    158.2 1.015e+04 3.602e-10
 10.42075    159.7 1.039e+04 4.201e-10
 10.44089    159.7 1.020e+04 3.769e-10
 10.46117    160.1 1.037e+04 4.308e-10
 10.48121    160.4 1.052e+04 5.062e-10
 10.50136    160.7 1.065e+04 6.061e-10
 10.52001    161.2 1.077e+04 7.097e-10
 10.53008    161.2 1.092e+04 8.138e-10
 10.54165    161.7 1.109e+04 8.972e-10
 10.56180    162.1 1.131e+04 1.002e-09
 10.58194    162.3 1.162e+04 1.150e-09
 10.60209    162.1 1.205e+04 1.375e-09
 10.61297    161.6 1.275e+04 1.759e-09
 10.62304    160.1 1.346e+04 2.159e-09
 10.64238    159.3 1.427e+04 3.115e-09
 10.65411    158.7 1.489e+04 4.385e-09
 10.66418    158.0 1.499e+04 4.486e-09
 10.68267    157.5 1.520e+04 5.341e-09
 10.69586    156.8 1.515e+04 5.304e-09
 10.70593    156.0 1.544e+04 6.170e-09
 10.72296    155.6 1.508e+04 5.386e-09
 10.74311    155.7 1.434e+04 3.861e-09
 10.76325    156.2 1.337e+04 2.338e-09
 10.79357    155.9 1.220e+04 1.109e-09
 10.83396    154.1 1.026e+04 4.826e-10
 10.86183    153.2 9.966e+03 4.569e-10
 10.87546    151.4 1.004e+04 5.120e-10
 10.88787    149.6 9.865e+03 4.672e-10
 10.91454    150.0 1.005e+04 5.118e-10
 10.95483    149.8 1.042e+04 6.082e-10
 10.99512    149.2 1.060e+04 6.450e-10
 11.02762    148.4 1.057e+04 6.230e-10
 11.04776    146.3 1.006e+04 4.366e-10
 11.07571    144.9 9.887e+03 3.673e-10
 11.11600    143.4 9.909e+03 3.641e-10
 11.15629    141.7 1.004e+04 3.910e-10
 11.19340    140.0 1.046e+04 5.207e-10
 11.21354    137.7 1.070e+04 6.343e-10
 11.23687    136.5 1.124e+04 9.398e-10
 11.27716    135.4 1.147e+04 1.043e-09
 11.31470    134.4 1.139e+04 9.742e-10
 11.33485    134.7 1.096e+04 7.938e-10
 11.35774    134.1 1.071e+04 6.305e-10
 11.37932    133.7 1.028e+04 4.274e-10
 11.39947    132.4 9.767e+03 3.010e-10
 11.43833    132.0 9.605e+03 2.657e-10
 11.47862    131.5 9.708e+03 2.794e-10
 11.51891    131.0 1.005e+04 3.493e-10
 11.54510    131.0 1.043e+04 4.750e-10
 11.56525    131.6 1.048e+04 4.982e-10
 11.58932    132.2 1.055e+04 5.351e-10
 11.60937    132.0 1.072e+04 5.865e-10
 11.63969    131.5 1.081e+04 5.973e-10
 11.68007    132.3 1.059e+04 5.072e-10
 11.71088    133.8 1.022e+04 3.704e-10
 11.73103    134.5 1.012e+04 3.347e-10
 11.76066    136.2 9.806e+03 2.291e-10
 11.78183    137.9 9.628e+03 1.628e-10
 11.80197    139.4 9.675e+03 1.882e-10
 11.84124    141.2 9.585e+03 1.444e-10
 11.87666    143.1 9.560e+03 1.213e-10
 11.89681    143.9 9.540e+03 1.447e-10
 11.92182    146.1 9.551e+03 1.423e-10
 11.96211    148.4 9.564e+03 1.395e-10
 12.00240    150.7 9.568e+03 1.333e-10
 12.04244    152.9 9.572e+03 1.233e-10
 12.06259    153.9 9.801e+03 1.870e-10
 12.08299    155.9 9.815e+03 1.697e-10
 12.12328    157.7 9.778e+03 1.505e-10
 12.16357    159.2 9.646e+03 1.325e-10
 12.20386    160.6 9.419e+03 1.210e-10
 12.22837    162.0 9.337e+03 1.209e-10
 12.23317    162.4 9.664e+03 1.971e-10
 12.24895    163.1 9.371e+03 1.702e-10
 12.28444    164.7 9.346e+03 1.719e-10
 12.32473    166.4 9.531e+03 1.957e-10
 12.36503    168.1 9.995e+03 2.600e-10
 12.39405    167.5 1.055e+04 4.007e-10
 12.40403    166.8 1.095e+04 6.121e-10
 12.41519    166.7 1.151e+04 9.887e-10
 12.43534    166.9 1.216e+04 1.565e-09
 12.45210    167.4 1.283e+04 2.340e-09
 12.46217    167.8 1.237e+04 1.791e-09
 12.47563    168.0 1.304e+04 2.576e-09
