# Columns:
#   distance along LOS (in CHIMPs)
#   peculiar velocity  (in km/s)
#   temperature (K)
#   HI number density
# pos=(156.022,82.5831,206.746), angles=(0.241787,3.0669)
  0.00052    -70.4 9.320e+03 1.108e-10
  0.00801    -68.7 9.321e+03 1.150e-10
  0.02813    -67.9 9.406e+03 1.327e-10
  0.06139    -66.4 9.504e+03 1.570e-10
  0.10163    -65.0 9.645e+03 1.908e-10
  0.14186    -63.7 9.814e+03 2.357e-10
  0.17028    -62.5 1.002e+04 2.921e-10
  0.19039    -61.7 1.034e+04 4.105e-10
  0.22232    -60.8 1.060e+04 4.979e-10
  0.26256    -60.4 1.094e+04 6.069e-10
  0.30279    -60.4 1.151e+04 8.011e-10
  0.33244    -61.5 1.222e+04 1.146e-09
  0.34240    -61.1 1.229e+04 1.205e-09
  0.35289    -61.7 1.271e+04 1.494e-09
  0.36495    -62.7 1.352e+04 2.185e-09
  0.37501    -63.2 1.356e+04 2.138e-09
  0.39312    -64.3 1.495e+04 3.735e-09
  0.41323    -65.3 1.645e+04 6.356e-09
  0.42354    -66.8 1.785e+04 9.464e-09
  0.43360    -66.6 1.876e+04 1.108e-08
  0.45347    -69.5 1.994e+04 1.595e-08
  0.47358    -72.7 2.029e+04 1.845e-08
  0.48862    -75.2 2.053e+04 2.114e-08
  0.49863    -76.5 2.044e+04 2.088e-08
  0.50457    -77.9 2.017e+04 1.986e-08
  0.50960    -78.0 2.087e+04 2.453e-08
  0.51875    -79.2 2.026e+04 2.169e-08
  0.52881    -80.0 1.955e+04 1.794e-08
  0.53886    -80.4 1.913e+04 1.538e-08
  0.54514    -81.3 1.835e+04 1.194e-08
  0.55017    -81.2 1.871e+04 1.352e-08
  0.55898    -81.7 1.812e+04 1.076e-08
  0.57412    -82.4 1.729e+04 7.820e-09
  0.58580    -83.0 1.620e+04 4.967e-09
  0.59586    -82.8 1.618e+04 4.835e-09
  0.61440    -84.0 1.472e+04 2.749e-09
  0.63452    -84.5 1.399e+04 1.942e-09
  0.65463    -84.6 1.350e+04 1.528e-09
  0.66693    -84.6 1.327e+04 1.343e-09
  0.67699    -84.9 1.322e+04 1.302e-09
  0.69486    -84.5 1.317e+04 1.280e-09
  0.71498    -84.1 1.318e+04 1.284e-09
  0.73510    -83.9 1.328e+04 1.331e-09
  0.74807    -83.8 1.337e+04 1.387e-09
  0.75813    -83.8 1.339e+04 1.421e-09
  0.77533    -83.8 1.346e+04 1.456e-09
  0.79545    -83.9 1.355e+04 1.496e-09
  0.81556    -84.5 1.368e+04 1.562e-09
  0.82920    -85.1 1.388e+04 1.685e-09
  0.83926    -85.1 1.403e+04 1.885e-09
  0.85580    -85.7 1.423e+04 2.095e-09
  0.87591    -86.3 1.439e+04 2.313e-09
  0.89603    -86.7 1.446e+04 2.452e-09
  0.91033    -87.0 1.445e+04 2.491e-09
  0.92039    -86.6 1.450e+04 2.683e-09
  0.93626    -86.7 1.425e+04 2.371e-09
  0.95638    -86.7 1.391e+04 1.969e-09
  0.97649    -86.6 1.356e+04 1.547e-09
  0.99146    -86.6 1.316e+04 1.184e-09
  1.00152    -86.5 1.307e+04 1.094e-09
  1.01673    -86.5 1.264e+04 8.657e-10
  1.03684    -86.1 1.228e+04 7.480e-10
  1.05696    -85.4 1.214e+04 7.177e-10
  1.07260    -84.6 1.213e+04 7.164e-10
  1.08266    -84.5 1.201e+04 7.191e-10
  1.09719    -84.2 1.218e+04 7.460e-10
  1.11731    -84.1 1.251e+04 8.922e-10
  1.13743    -84.3 1.299e+04 1.185e-09
  1.15373    -85.3 1.365e+04 1.686e-09
  1.16379    -84.6 1.350e+04 1.652e-09
  1.17766    -85.4 1.425e+04 2.397e-09
  1.19777    -86.3 1.503e+04 3.426e-09
  1.21789    -87.1 1.595e+04 4.688e-09
  1.23486    -87.8 1.675e+04 6.267e-09
  1.24492    -87.3 1.671e+04 6.263e-09
  1.25812    -88.1 1.733e+04 8.010e-09
  1.27824    -88.9 1.780e+04 9.707e-09
  1.29836    -89.6 1.805e+04 1.094e-08
  1.31599    -90.3 1.808e+04 1.137e-08
  1.32605    -89.8 1.809e+04 1.150e-08
  1.33859    -90.2 1.794e+04 1.140e-08
  1.35871    -90.2 1.748e+04 1.022e-08
  1.37882    -90.1 1.684e+04 8.308e-09
  1.39713    -89.9 1.602e+04 6.217e-09
  1.40719    -89.2 1.596e+04 6.053e-09
  1.41905    -88.8 1.506e+04 4.325e-09
  1.43917    -88.3 1.418e+04 3.013e-09
  1.45467    -87.9 1.339e+04 2.146e-09
  1.46473    -88.2 1.333e+04 2.014e-09
  1.47826    -88.0 1.269e+04 1.539e-09
  1.48832    -87.3 1.265e+04 1.522e-09
  1.50968    -86.6 1.222e+04 1.283e-09
  1.55001    -84.5 1.172e+04 1.066e-09
  1.59024    -82.7 1.145e+04 9.600e-10
  1.63047    -81.5 1.135e+04 9.125e-10
  1.67071    -79.0 1.118e+04 8.477e-10
  1.71094    -78.1 1.101e+04 7.706e-10
  1.75117    -77.2 1.080e+04 6.971e-10
  1.79140    -76.4 1.063e+04 6.543e-10
  1.81304    -75.5 1.058e+04 6.470e-10
  1.83316    -73.2 1.035e+04 5.781e-10
  1.87187    -72.3 1.035e+04 5.797e-10
  1.91210    -71.3 1.042e+04 6.086e-10
  1.95233    -70.4 1.048e+04 6.487e-10
  1.97531    -69.7 1.053e+04 6.874e-10
  1.99542    -67.3 1.036e+04 6.438e-10
  2.03280    -66.7 1.072e+04 7.519e-10
  2.05634    -67.3 1.122e+04 8.698e-10
  2.06630    -66.0 1.114e+04 8.623e-10
  2.08290    -66.5 1.181e+04 1.002e-09
  2.10301    -66.0 1.179e+04 1.121e-09
  2.12313    -68.6 1.475e+04 1.845e-09
  2.13738    -72.6 1.929e+04 4.569e-09
  2.14744    -68.9 1.787e+04 3.005e-09
  2.16336    -73.1 2.165e+04 8.031e-09
  2.18348    -76.9 2.305e+04 1.621e-08
  2.19852    -79.3 2.336e+04 2.258e-08
  2.20853    -80.8 2.357e+04 2.427e-08
  2.21841    -82.5 2.391e+04 2.428e-08
  2.22344    -81.3 2.392e+04 3.102e-08
  2.22864    -83.8 2.490e+04 2.846e-08
  2.23870    -88.1 2.745e+04 1.536e-08
  2.24876    -95.4 2.753e+04 4.996e-09
  2.25882   -104.8 2.069e+04 1.415e-09
  2.26401   -111.4 1.336e+04 8.583e-10
  2.26904   -108.8 1.787e+04 1.017e-09
  2.27893   -113.1 1.205e+04 7.782e-10
  2.28899   -114.6 1.077e+04 7.141e-10
  2.29959   -116.4 1.004e+04 6.327e-10
  2.30970   -115.3 1.047e+04 6.726e-10
  2.32429   -116.9 9.652e+03 5.836e-10
  2.34441   -118.1 9.344e+03 5.063e-10
  2.36453   -118.7 9.275e+03 4.848e-10
  2.38078   -119.3 9.266e+03 4.810e-10
  2.39083   -118.6 9.275e+03 4.837e-10
  2.40476   -119.4 9.312e+03 4.877e-10
  2.42487   -120.5 9.597e+03 5.464e-10
  2.44499   -121.7 9.993e+03 6.531e-10
  2.46191   -123.1 1.039e+04 7.808e-10
  2.47197   -122.6 1.045e+04 8.105e-10
  2.48522   -124.1 1.079e+04 9.449e-10
  2.50534   -125.6 1.101e+04 1.048e-09
  2.52546   -127.0 1.111e+04 1.111e-09
  2.54304   -128.3 1.114e+04 1.136e-09
  2.55191   -128.1 1.122e+04 1.167e-09
  2.55444   -128.1 1.129e+04 1.186e-09
  2.56569   -129.2 1.124e+04 1.172e-09
  2.58581   -130.1 1.112e+04 1.124e-09
  2.60592   -130.8 1.098e+04 1.062e-09
  2.62417   -131.3 1.080e+04 9.917e-10
  2.63423   -131.5 1.077e+04 9.675e-10
  2.64616   -131.8 1.057e+04 8.887e-10
  2.66627   -132.0 1.036e+04 8.064e-10
  2.68639   -132.1 1.013e+04 7.208e-10
  2.70531   -132.0 9.900e+03 6.363e-10
  2.71536   -132.3 9.913e+03 6.364e-10
  2.72662   -132.0 9.708e+03 5.654e-10
  2.74674   -131.8 9.541e+03 5.079e-10
  2.76685   -131.6 9.408e+03 4.643e-10
  2.78644   -131.3 9.312e+03 4.349e-10
  2.79650   -131.6 9.440e+03 4.645e-10
  2.80709   -131.2 9.411e+03 4.545e-10
  2.82720   -130.7 9.406e+03 4.525e-10
  2.84732   -130.3 9.487e+03 4.668e-10
  2.86744   -129.9 9.635e+03 5.020e-10
  2.87763   -129.5 9.827e+03 5.565e-10
  2.88769   -129.9 1.015e+04 6.723e-10
  2.90767   -129.3 1.033e+04 7.513e-10
  2.92778   -128.7 1.051e+04 8.335e-10
  2.94790   -128.1 1.067e+04 9.120e-10
  2.95876   -127.4 1.080e+04 9.784e-10
  2.96882   -127.6 1.102e+04 1.127e-09
  2.98813   -126.8 1.105e+04 1.143e-09
  3.00825   -126.1 1.105e+04 1.140e-09
  3.02837   -125.3 1.089e+04 1.041e-09
  3.03989   -124.5 1.069e+04 9.152e-10
  3.04995   -124.4 1.070e+04 9.059e-10
  3.06860   -123.6 1.050e+04 7.701e-10
  3.08872   -122.8 1.033e+04 6.300e-10
  3.10883   -122.3 1.017e+04 5.049e-10
  3.12103   -121.9 1.005e+04 4.190e-10
  3.13118   -122.6 9.986e+03 3.799e-10
  3.15932   -121.2 9.786e+03 3.214e-10
  3.19955   -119.0 9.526e+03 2.628e-10
  3.23978   -116.7 9.418e+03 2.299e-10
  3.27343   -114.3 9.403e+03 2.206e-10
  3.29354   -113.7 9.408e+03 2.177e-10
  3.32025   -111.2 9.501e+03 2.220e-10
  3.36048   -108.7 9.538e+03 2.242e-10
  3.40072   -106.3 9.587e+03 2.195e-10
  3.43569   -103.8 9.509e+03 2.045e-10
  3.45581   -103.1 9.573e+03 2.213e-10
  3.48118   -100.6 9.425e+03 1.958e-10
  3.52141    -97.9 9.252e+03 1.671e-10
  3.56165    -95.1 9.120e+03 1.441e-10
  3.59796    -92.3 9.055e+03 1.300e-10
  3.61807    -91.6 9.075e+03 1.398e-10
  3.63430    -88.8 9.049e+03 1.283e-10
  3.65441    -89.3 8.938e+03 1.151e-10
  3.68235    -86.6 8.940e+03 1.144e-10
  3.72258    -84.1 9.024e+03 1.221e-10
  3.76022    -81.9 9.215e+03 1.436e-10
  3.78034    -80.9 9.089e+03 1.375e-10
  3.80304    -78.7 9.194e+03 1.551e-10
  3.84328    -76.6 9.336e+03 1.802e-10
  3.88351    -74.7 9.523e+03 2.108e-10
  3.92249    -72.9 9.710e+03 2.472e-10
  3.94260    -71.3 9.682e+03 2.331e-10
  3.96397    -69.1 9.904e+03 2.774e-10
  4.00421    -67.0 1.008e+04 3.237e-10
  4.03428    -65.6 1.012e+04 3.487e-10
  4.05430    -65.2 1.004e+04 3.629e-10
  4.07442    -64.4 1.003e+04 3.924e-10
  4.09454    -63.8 1.013e+04 4.290e-10
  4.11465    -62.8 1.076e+04 5.787e-10
  4.13477    -62.6 1.137e+04 7.098e-10
  4.15489    -62.6 1.208e+04 9.176e-10
  4.17500    -63.0 1.282e+04 1.253e-09
  4.18581    -63.5 1.353e+04 1.775e-09
  4.19586    -63.7 1.482e+04 2.873e-09
  4.21523    -64.0 1.550e+04 4.108e-09
  4.23535    -64.1 1.604e+04 5.459e-09
  4.25547    -64.2 1.640e+04 6.502e-09
  4.26694    -64.6 1.651e+04 6.772e-09
  4.27700    -64.5 1.759e+04 9.628e-09
  4.29062    -64.4 1.726e+04 8.562e-09
  4.30063    -64.8 1.720e+04 8.428e-09
  4.30741    -65.0 1.700e+04 7.889e-09
  4.31244    -65.3 1.744e+04 9.337e-09
  4.32075    -65.6 1.714e+04 8.270e-09
  4.33081    -66.1 1.678e+04 7.166e-09
  4.34086    -66.6 1.638e+04 6.273e-09
  4.34797    -67.1 1.600e+04 5.641e-09
  4.35808    -68.0 1.615e+04 6.058e-09
  4.37617    -68.5 1.563e+04 5.316e-09
  4.39628    -69.0 1.512e+04 4.884e-09
  4.41640    -69.2 1.486e+04 4.573e-09
  4.42920    -69.3 1.483e+04 4.396e-09
  4.43926    -69.9 1.514e+04 4.950e-09
  4.45663    -69.9 1.519e+04 4.888e-09
  4.47675    -70.1 1.521e+04 4.811e-09
  4.49686    -70.0 1.517e+04 4.600e-09
  4.51034    -69.8 1.492e+04 4.131e-09
  4.52039    -70.4 1.541e+04 4.795e-09
  4.53710    -70.4 1.514e+04 4.189e-09
  4.55721    -70.2 1.474e+04 3.551e-09
  4.57733    -70.1 1.437e+04 3.080e-09
  4.59147    -70.1 1.424e+04 2.865e-09
  4.60153    -71.1 1.446e+04 3.026e-09
  4.61756    -70.9 1.437e+04 2.897e-09
  4.63768    -70.7 1.436e+04 2.874e-09
  4.65780    -70.5 1.443e+04 2.922e-09
  4.67260    -70.2 1.468e+04 3.288e-09
  4.68266    -70.8 1.487e+04 3.497e-09
  4.69803    -70.1 1.520e+04 4.003e-09
  4.71814    -69.3 1.569e+04 4.774e-09
  4.73388    -68.7 1.635e+04 5.790e-09
  4.74393    -69.8 1.641e+04 5.739e-09
  4.75373    -69.6 1.709e+04 6.834e-09
  4.76379    -70.4 1.690e+04 6.038e-09
  4.77849    -70.4 1.754e+04 7.158e-09
  4.79861    -70.8 1.810e+04 8.481e-09
  4.81873    -71.2 1.848e+04 9.777e-09
  4.83487    -71.6 1.869e+04 1.072e-08
  4.84492    -71.6 1.819e+04 8.585e-09
  4.85896    -72.1 1.837e+04 9.568e-09
  4.87908    -72.5 1.843e+04 9.993e-09
  4.89919    -72.8 1.830e+04 9.746e-09
  4.91600    -73.1 1.802e+04 8.897e-09
  4.92606    -73.1 1.905e+04 1.040e-08
  4.93942    -73.1 1.909e+04 1.021e-08
  4.95954    -73.0 1.882e+04 9.455e-09
  4.97966    -72.8 1.849e+04 8.748e-09
  4.99713    -72.6 1.812e+04 8.068e-09
  5.00719    -72.7 2.098e+04 1.286e-08
  5.01989    -72.4 2.081e+04 1.210e-08
  5.04001    -72.1 2.036e+04 1.113e-08
  5.06012    -71.7 2.026e+04 1.047e-08
  5.07826    -71.2 2.000e+04 9.846e-09
  5.08832    -71.5 2.287e+04 1.641e-08
  5.10036    -70.9 2.294e+04 1.537e-08
  5.11539    -70.3 2.233e+04 1.235e-08
  5.12376    -69.9 2.232e+04 1.178e-08
  5.12879    -70.1 2.370e+04 1.624e-08
  5.13546    -69.5 2.404e+04 1.608e-08
  5.14552    -69.1 2.415e+04 1.695e-08
  5.15558    -68.5 2.429e+04 1.784e-08
  5.16433    -67.8 2.433e+04 1.839e-08
  5.16936    -67.9 2.508e+04 3.246e-08
  5.17570    -67.0 2.514e+04 3.569e-08
  5.18575    -66.0 2.522e+04 3.811e-08
  5.19581    -65.2 2.527e+04 3.906e-08
  5.20489    -64.6 2.521e+04 3.850e-08
  5.20992    -64.0 2.516e+04 7.127e-08
  5.21593    -63.6 2.526e+04 7.231e-08
  5.22599    -63.1 2.524e+04 7.099e-08
  5.23604    -62.4 2.519e+04 6.966e-08
  5.24546    -61.5 2.520e+04 6.900e-08
  5.25049    -60.3 2.443e+04 1.096e-07
  5.25616    -59.1 2.467e+04 1.241e-07
  5.26622    -58.1 2.496e+04 1.382e-07
  5.27628    -57.4 2.524e+04 1.466e-07
  5.28367    -56.8 2.534e+04 1.516e-07
  5.28839    -56.4 2.553e+04 1.101e-07
  5.29106    -54.0 2.461e+04 2.094e-07
  5.29639    -53.2 2.475e+04 2.554e-07
  5.30645    -53.2 2.466e+04 3.051e-07
  5.31651    -53.8 2.418e+04 3.578e-07
  5.32657    -54.3 2.402e+04 3.715e-07
  5.33409    -52.0 2.381e+04 7.041e-07
  5.33909    -51.9 2.384e+04 6.833e-07
  5.34412    -52.6 2.506e+04 4.794e-07
  5.34915    -54.5 2.663e+04 3.024e-07
  5.35186    -58.6 2.749e+04 1.723e-07
  5.35437    -56.6 2.512e+04 5.925e-07
  5.35921    -61.3 2.517e+04 4.216e-07
  5.36424    -65.8 2.555e+04 2.601e-07
  5.36927    -69.9 2.664e+04 1.166e-07
  5.37214    -72.8 2.621e+04 8.560e-08
  5.37465    -74.5 2.620e+04 1.394e-07
  5.37932    -75.8 2.609e+04 1.020e-07
  5.38435    -76.5 2.603e+04 9.507e-08
  5.38938    -76.8 2.608e+04 9.758e-08
  5.39695    -77.6 2.588e+04 1.021e-07
  5.40703    -76.8 2.511e+04 7.151e-08
  5.41275    -76.3 2.421e+04 3.748e-08
  5.41778    -77.8 2.616e+04 7.277e-08
  5.42715    -77.6 2.655e+04 3.230e-08
  5.43721    -78.3 2.496e+04 1.896e-08
  5.44727    -79.3 2.223e+04 1.300e-08
  5.45332    -80.1 1.996e+04 9.470e-09
  5.45835    -81.1 2.283e+04 1.316e-08
  5.46738    -81.8 2.125e+04 9.913e-09
  5.47744    -82.3 2.035e+04 8.056e-09
  5.48750    -82.8 2.012e+04 7.108e-09
  5.49389    -83.3 2.008e+04 6.846e-09
  5.49892    -86.6 2.626e+04 1.300e-08
  5.50762    -87.8 2.675e+04 1.327e-08
  5.51767    -89.3 2.722e+04 1.393e-08
  5.52773    -90.6 2.776e+04 1.482e-08
  5.53445    -91.9 2.835e+04 1.583e-08
  5.53948    -95.1 2.777e+04 1.910e-08
  5.54785    -95.6 2.766e+04 1.775e-08
  5.56298    -95.1 2.769e+04 1.694e-08
  5.57512    -95.9 2.841e+04 1.665e-08
  5.58518   -101.6 2.770e+04 1.539e-08
  5.60327   -101.7 2.898e+04 1.477e-08
  5.61563    -99.2 2.947e+04 1.825e-08
  5.62061   -101.0 2.880e+04 1.351e-08
  5.62831   -100.3 2.891e+04 1.463e-08
  5.63837   -100.1 2.896e+04 1.572e-08
  5.64843   -100.0 2.907e+04 1.898e-08
  5.65615   -100.4 2.893e+04 2.468e-08
  5.66118   -100.9 2.993e+04 8.935e-09
  5.66855   -101.0 3.010e+04 9.876e-09
  5.67861   -102.2 2.931e+04 1.525e-08
  5.68866   -103.4 2.876e+04 1.936e-08
  5.69672   -105.4 2.766e+04 2.603e-08
  5.70175   -104.8 3.118e+04 4.584e-09
  5.70878   -106.6 3.005e+04 5.414e-09
  5.71884   -108.9 2.849e+04 6.306e-09
  5.72890   -111.1 2.681e+04 8.253e-09
  5.73728   -113.2 2.511e+04 1.108e-08
  5.74739   -115.4 2.559e+04 1.350e-09
  5.76420   -118.1 2.306e+04 3.110e-09
  5.78431   -119.4 2.188e+04 6.819e-09
  5.79935   -119.3 2.103e+04 5.701e-09
  5.80936   -119.3 2.107e+04 7.574e-09
  5.81842   -119.5 2.113e+04 9.806e-09
  5.82757   -120.9 1.962e+04 3.524e-09
  5.83365   -119.5 1.942e+04 2.000e-09
  5.84466   -119.7 1.974e+04 4.184e-09
  5.86478   -119.4 2.006e+04 6.290e-09
  5.88490   -119.2 2.025e+04 7.711e-09
  5.89965   -119.1 2.022e+04 8.158e-09
  5.90971   -119.1 1.693e+04 3.468e-09
  5.92513   -118.9 1.680e+04 3.818e-09
  5.94525   -118.5 1.660e+04 3.894e-09
  5.96536   -118.0 1.639e+04 3.827e-09
  5.98078   -117.3 1.622e+04 3.706e-09
  5.99084   -117.5 1.353e+04 2.311e-09
  6.00559   -116.8 1.361e+04 2.341e-09
  6.02571   -116.2 1.368e+04 2.386e-09
  6.04583   -115.6 1.375e+04 2.457e-09
  6.06191   -115.0 1.385e+04 2.559e-09
  6.07197   -114.9 1.340e+04 2.282e-09
  6.08606   -114.2 1.383e+04 2.577e-09
  6.10618   -113.6 1.414e+04 2.912e-09
  6.12629   -112.9 1.433e+04 3.203e-09
  6.14304   -112.2 1.441e+04 3.432e-09
  6.15310   -111.7 1.470e+04 3.730e-09
  6.16653   -110.9 1.488e+04 4.101e-09
  6.18664   -110.1 1.494e+04 4.301e-09
  6.20676   -109.3 1.495e+04 4.350e-09
  6.22418   -108.3 1.474e+04 4.264e-09
  6.23424   -107.9 1.490e+04 4.269e-09
  6.24699   -106.8 1.462e+04 3.774e-09
  6.26711   -105.7 1.431e+04 3.246e-09
  6.28722   -104.7 1.399e+04 2.669e-09
  6.30531   -103.9 1.356e+04 2.106e-09
  6.31537   -104.0 1.358e+04 2.100e-09
  6.32746   -103.5 1.310e+04 1.647e-09
  6.34757   -103.0 1.260e+04 1.335e-09
  6.37648   -102.1 1.215e+04 1.112e-09
  6.39660   -101.3 1.217e+04 1.154e-09
  6.40792    -99.7 1.192e+04 1.052e-09
  6.42804    -99.1 1.189e+04 1.034e-09
  6.44816    -98.1 1.189e+04 1.024e-09
  6.46757    -97.8 1.208e+04 1.068e-09
  6.47763    -98.4 1.280e+04 1.389e-09
  6.48839    -98.5 1.328e+04 1.734e-09
  6.50850    -98.6 1.370e+04 2.133e-09
  6.52862    -98.9 1.406e+04 2.503e-09
  6.54871    -99.7 1.433e+04 2.769e-09
  6.56882   -102.6 1.543e+04 4.193e-09
  6.58897   -104.4 1.538e+04 4.071e-09
  6.60909   -106.3 1.524e+04 3.979e-09
  6.62920   -108.3 1.513e+04 4.010e-09
  6.63990   -109.9 1.497e+04 4.064e-09
  6.64996   -111.1 1.464e+04 3.828e-09
  6.66944   -112.2 1.420e+04 3.470e-09
  6.68955   -112.7 1.370e+04 2.991e-09
  6.70967   -113.0 1.318e+04 2.412e-09
  6.72103   -113.4 1.265e+04 1.877e-09
  6.73109   -114.2 1.236e+04 1.642e-09
  6.74990   -114.4 1.196e+04 1.374e-09
  6.77002   -114.4 1.164e+04 1.176e-09
  6.79013   -114.1 1.137e+04 1.048e-09
  6.80216   -113.5 1.121e+04 9.798e-10
  6.81222   -113.5 1.117e+04 9.582e-10
  6.83037   -112.8 1.111e+04 9.172e-10
  6.85048   -112.1 1.106e+04 8.773e-10
  6.87060   -111.4 1.098e+04 8.346e-10
  6.88330   -110.7 1.088e+04 7.844e-10
  6.89335   -110.6 1.073e+04 6.658e-10
  6.91083   -110.0 1.065e+04 6.432e-10
  6.94110   -108.8 1.055e+04 6.246e-10
  6.98143   -106.6 1.019e+04 5.167e-10
  7.02167   -104.4 9.849e+03 4.122e-10
  7.04576   -102.6 9.564e+03 3.351e-10
  7.06587   -102.5 9.464e+03 3.204e-10
  7.10213   -100.6 9.217e+03 2.683e-10
  7.14237    -98.5 9.001e+03 2.255e-10
  7.18260    -96.2 8.843e+03 1.919e-10
  7.20802    -93.9 8.761e+03 1.701e-10
  7.22814    -93.9 8.990e+03 2.144e-10
  7.26306    -91.8 8.986e+03 2.098e-10
  7.30330    -89.7 8.997e+03 2.089e-10
  7.34353    -87.5 9.013e+03 2.111e-10
  7.37029    -85.5 9.061e+03 2.167e-10
  7.39040    -85.9 9.381e+03 2.947e-10
  7.42400    -83.9 9.458e+03 3.110e-10
  7.46423    -81.9 9.549e+03 3.355e-10
  7.50446    -79.8 9.650e+03 3.648e-10
  7.53255    -77.6 9.775e+03 3.947e-10
  7.55267    -78.2 9.988e+03 4.551e-10
  7.57477    -76.2 1.000e+04 4.524e-10
  7.59479    -75.9 1.007e+04 4.699e-10
  7.61349    -74.8 1.022e+04 5.009e-10
  7.62355    -75.7 1.033e+04 5.574e-10
  7.63502    -75.0 1.041e+04 5.869e-10
  7.65514    -74.4 1.045e+04 6.109e-10
  7.67526    -73.6 1.047e+04 6.177e-10
  7.69462    -72.9 1.049e+04 6.177e-10
  7.70468    -73.5 1.064e+04 6.741e-10
  7.71549    -72.9 1.067e+04 6.809e-10
  7.73560    -72.3 1.068e+04 6.858e-10
  7.75572    -71.8 1.069e+04 6.915e-10
  7.77575    -71.2 1.068e+04 7.002e-10
  7.79587    -70.8 1.068e+04 7.283e-10
  7.81607    -69.9 1.064e+04 6.960e-10
  7.83619    -69.0 1.060e+04 6.401e-10
  7.85630    -68.2 1.054e+04 5.635e-10
  7.86694    -67.6 1.048e+04 4.880e-10
  7.87700    -67.9 1.035e+04 4.399e-10
  7.90669    -67.4 1.018e+04 3.696e-10
  7.94702    -66.4 9.985e+03 3.288e-10
  7.98726    -65.1 9.828e+03 3.062e-10
  8.01328    -63.8 9.762e+03 3.006e-10
  8.02525    -64.9 9.981e+03 3.520e-10
  8.03946    -65.2 1.000e+04 3.596e-10
  8.06772    -64.5 1.007e+04 3.859e-10
  8.10795    -63.7 1.030e+04 4.442e-10
  8.13803    -63.4 1.037e+04 4.796e-10
  8.15805    -63.6 1.045e+04 5.215e-10
  8.17817    -63.6 1.050e+04 5.552e-10
  8.19147    -63.6 1.053e+04 5.799e-10
  8.20153    -64.0 1.070e+04 6.672e-10
  8.21840    -64.1 1.073e+04 6.832e-10
  8.23851    -64.2 1.078e+04 6.974e-10
  8.25863    -64.4 1.083e+04 7.174e-10
  8.27261    -64.7 1.088e+04 7.455e-10
  8.28266    -65.3 1.099e+04 8.098e-10
  8.30902    -65.0 1.090e+04 7.755e-10
  8.34388    -64.5 1.093e+04 7.854e-10
  8.36399    -66.4 1.152e+04 1.040e-09
  8.38958    -65.9 1.139e+04 9.968e-10
  8.42982    -65.3 1.129e+04 9.683e-10
  8.47005    -64.3 1.120e+04 9.494e-10
  8.50614    -63.3 1.121e+04 9.637e-10
  8.52626    -64.7 1.153e+04 1.127e-09
  8.55051    -63.4 1.138e+04 1.005e-09
  8.59075    -62.2 1.123e+04 8.421e-10
  8.63098    -61.1 1.100e+04 6.219e-10
  8.66841    -60.2 1.070e+04 4.249e-10
  8.68852    -62.3 1.041e+04 3.459e-10
  8.71145    -62.0 1.014e+04 2.807e-10
  8.75168    -62.3 1.004e+04 2.555e-10
