# Columns:
#   distance along LOS (in CHIMPs)
#   peculiar velocity  (in km/s)
#   temperature (K)
#   HI number density
# pos=(217.63,255.469,135.063), angles=(1.72341,1.61642)
  0.00257     34.7 2.075e+04 1.060e-08
  0.01153     33.5 2.107e+04 6.264e-09
  0.02142     35.2 2.166e+04 7.224e-09
  0.03482     33.5 2.264e+04 3.963e-09
  0.05460     33.2 2.283e+04 2.103e-09
  0.06475     33.0 2.237e+04 9.277e-10
  0.07464     36.8 2.436e+04 5.827e-09
  0.09416     36.0 2.665e+04 1.934e-09
  0.11395     31.7 2.756e+04 4.421e-10
  0.13373     26.1 1.697e+04 4.624e-10
  0.15351     22.0 1.211e+04 6.312e-10
  0.17329     19.6 1.128e+04 9.021e-10
  0.18833     18.8 1.167e+04 1.270e-09
  0.19822     19.3 1.261e+04 1.386e-09
  0.21285     18.0 1.249e+04 1.669e-09
  0.23264     13.6 1.429e+04 2.427e-09
  0.25242      8.5 1.653e+04 4.579e-09
  0.27220      5.7 1.677e+04 6.818e-09
  0.29198      4.2 1.641e+04 6.547e-09
  0.31176      2.8 1.584e+04 5.380e-09
  0.32180      0.4 1.541e+04 3.227e-09
  0.33169     -2.1 1.474e+04 2.162e-09
  0.35132     -7.7 1.242e+04 1.000e-09
  0.37111    -11.2 1.052e+04 6.221e-10
  0.39089    -11.5 1.002e+04 5.035e-10
  0.41067    -10.7 9.757e+03 3.937e-10
  0.43045    -10.7 9.727e+03 3.593e-10
  0.44585     -8.5 9.048e+03 2.447e-10
  0.46573     -9.6 9.245e+03 2.425e-10
  0.49988     -8.2 8.858e+03 1.863e-10
  0.53944     -6.3 8.867e+03 1.843e-10
  0.56916     -4.2 8.958e+03 2.073e-10
  0.58894     -4.5 8.947e+03 1.961e-10
  0.61857     -2.2 9.171e+03 2.547e-10
  0.65813      0.4 9.537e+03 3.279e-10
  0.69770      2.9 9.785e+03 4.064e-10
  0.73726      4.6 1.046e+04 5.607e-10
  0.76683      2.9 1.266e+04 1.236e-09
  0.78652      2.8 1.337e+04 1.756e-09
  0.80630      2.7 1.488e+04 3.078e-09
  0.82602      3.7 1.559e+04 4.404e-09
  0.84580      4.3 1.770e+04 1.082e-08
  0.86564      5.1 1.726e+04 9.235e-09
  0.87998      5.3 1.660e+04 6.932e-09
  0.88987      4.9 1.601e+04 5.956e-09
  0.90521      4.7 1.548e+04 4.763e-09
  0.92499      4.0 1.498e+04 3.832e-09
  0.94477      3.1 1.452e+04 3.438e-09
  0.95949      2.6 1.424e+04 3.093e-09
  0.96939      1.4 1.400e+04 2.469e-09
  0.98433      1.3 1.352e+04 2.239e-09
  1.00411      1.7 1.293e+04 1.939e-09
  1.02390      2.5 1.238e+04 1.621e-09
  1.04368      3.6 1.174e+04 1.247e-09
  1.06346      4.7 1.120e+04 9.213e-10
  1.08308      6.3 1.069e+04 6.358e-10
  1.09297      6.1 1.066e+04 6.083e-10
  1.10302      6.2 1.037e+04 4.263e-10
  1.13279      7.4 9.968e+03 2.958e-10
  1.17245      9.6 9.337e+03 1.734e-10
  1.21202     11.9 8.936e+03 1.186e-10
  1.25158     14.4 8.718e+03 1.030e-10
  1.29114     17.2 8.636e+03 9.939e-11
  1.31440     20.1 8.633e+03 9.754e-11
  1.33391     20.4 8.551e+03 8.874e-11
  1.35022     20.6 8.484e+03 7.302e-11
  1.37027     23.5 8.501e+03 7.354e-11
  1.40983     26.1 8.558e+03 7.625e-11
  1.44939     28.6 8.657e+03 8.416e-11
  1.48896     30.8 8.776e+03 9.897e-11
  1.52852     32.9 8.900e+03 1.215e-10
  1.56808     35.0 9.039e+03 1.522e-10
  1.59738     36.9 9.223e+03 1.904e-10
  1.61717     37.2 9.165e+03 1.759e-10
  1.64721     38.9 9.360e+03 2.119e-10
  1.68677     40.6 9.546e+03 2.490e-10
  1.72634     42.1 9.720e+03 2.835e-10
  1.76590     43.6 9.847e+03 2.933e-10
  1.80546     45.0 9.846e+03 2.896e-10
  1.84455     46.6 9.811e+03 2.718e-10
  1.86433     47.2 9.589e+03 2.234e-10
  1.88459     48.9 9.537e+03 1.951e-10
  1.92415     50.6 9.481e+03 1.632e-10
  1.96371     52.4 9.435e+03 1.344e-10
  2.00328     54.2 9.402e+03 1.113e-10
  2.04284     56.1 9.384e+03 9.526e-11
  2.08240     58.0 9.371e+03 8.549e-11
  2.11150     59.9 9.389e+03 8.088e-11
  2.13128     60.6 9.302e+03 6.399e-11
  2.16153     62.6 9.299e+03 6.410e-11
  2.18284     64.6 9.300e+03 6.486e-11
  2.20262     65.0 9.225e+03 5.814e-11
  2.24065     67.1 9.240e+03 6.025e-11
  2.28022     69.1 9.273e+03 6.371e-11
  2.31978     71.0 9.330e+03 6.958e-11
  2.35866     72.8 9.422e+03 8.042e-11
  2.37844     73.5 9.306e+03 7.112e-11
  2.39891     75.2 9.419e+03 8.660e-11
  2.43847     76.8 9.609e+03 1.152e-10
  2.47803     78.4 9.895e+03 1.665e-10
  2.51760     80.0 1.023e+04 2.453e-10
  2.55716     81.5 1.053e+04 3.376e-10
  2.59672     82.9 1.069e+04 4.031e-10
  2.62561     84.1 1.069e+04 4.162e-10
  2.64539     85.0 1.063e+04 3.908e-10
  2.67585     86.2 1.067e+04 4.322e-10
  2.71541     87.4 1.077e+04 5.041e-10
  2.75497     88.5 1.108e+04 6.416e-10
  2.79454     89.6 1.156e+04 8.693e-10
  2.83410     90.4 1.189e+04 1.078e-09
  2.87277     90.9 1.190e+04 1.083e-09
  2.89255     91.4 1.257e+04 1.676e-09
  2.91323     91.8 1.234e+04 1.511e-09
  2.95279     92.5 1.169e+04 1.067e-09
  2.99235     93.4 1.085e+04 6.330e-10
  3.03151     94.1 1.000e+04 3.580e-10
  3.05129     94.9 1.058e+04 6.037e-10
  3.07148     95.8 1.000e+04 4.075e-10
  3.11104     96.5 9.635e+03 3.109e-10
  3.13972     97.3 9.437e+03 2.782e-10
  3.15950     97.9 9.428e+03 2.790e-10
  3.19017     98.7 9.379e+03 2.779e-10
  3.22973     99.4 9.366e+03 2.828e-10
  3.26929    100.0 9.374e+03 2.981e-10
  3.30886    100.1 9.402e+03 3.204e-10
  3.34842    100.0 9.455e+03 3.539e-10
  3.38688     99.5 9.581e+03 4.058e-10
  3.40666     99.3 9.524e+03 3.802e-10
  3.42755     98.6 9.732e+03 4.572e-10
  3.46711     97.6 1.002e+04 5.666e-10
  3.50667     96.7 1.033e+04 6.970e-10
  3.54624     96.0 1.059e+04 7.875e-10
  3.58580     95.9 1.060e+04 7.812e-10
  3.62536     95.8 1.052e+04 7.319e-10
  3.65383     96.2 1.036e+04 6.153e-10
  3.67361     95.8 1.013e+04 5.005e-10
  3.70449     96.4 1.008e+04 4.418e-10
  3.74405     97.2 1.015e+04 4.449e-10
  3.77362     97.4 1.028e+04 4.633e-10
  3.78711     97.1 1.051e+04 5.084e-10
  3.79700     96.0 1.050e+04 5.195e-10
  3.81309     95.3 1.073e+04 6.552e-10
  3.83287     94.8 1.099e+04 8.686e-10
  3.85265     94.7 1.128e+04 1.166e-09
  3.87243     94.5 1.173e+04 1.551e-09
  3.89222     94.0 1.251e+04 2.024e-09
  3.90965     92.8 1.361e+04 2.594e-09
  3.91823     90.4 1.512e+04 4.188e-09
  3.92058     88.6 1.563e+04 5.037e-09
  3.93178     86.8 1.600e+04 6.109e-09
  3.95156     85.0 1.590e+04 6.166e-09
  3.97134     83.1 1.568e+04 5.785e-09
  3.99112     80.9 1.534e+04 4.856e-09
  4.01091     78.4 1.490e+04 3.990e-09
  4.03069     75.8 1.428e+04 3.201e-09
  4.04416     73.6 1.355e+04 2.604e-09
  4.05405     72.1 1.286e+04 2.103e-09
  4.07025     70.6 1.237e+04 1.813e-09
  4.09003     69.5 1.214e+04 1.583e-09
  4.10981     68.3 1.202e+04 1.364e-09
  4.12959     67.0 1.176e+04 1.124e-09
  4.14938     65.8 1.134e+04 9.079e-10
  4.16775     64.9 1.084e+04 7.612e-10
  4.17764     64.3 1.073e+04 7.544e-10
  4.18894     64.0 1.047e+04 6.758e-10
  4.20872     64.0 1.027e+04 6.128e-10
  4.22850     64.2 1.012e+04 5.599e-10
  4.24828     64.7 1.000e+04 5.076e-10
  4.26807     65.1 9.919e+03 4.574e-10
  4.29784     65.8 9.808e+03 4.027e-10
  4.33750     67.2 9.775e+03 3.672e-10
  4.37706     68.9 9.775e+03 3.509e-10
  4.41511     70.7 9.821e+03 3.518e-10
  4.43489     69.0 9.934e+03 3.520e-10
  4.44620     70.0 9.879e+03 3.455e-10
  4.46588     70.3 9.982e+03 3.482e-10
  4.48566     70.1 1.029e+04 3.823e-10
  4.50544     69.8 1.075e+04 4.851e-10
  4.52522     69.5 1.117e+04 6.313e-10
  4.54501     69.3 1.154e+04 7.931e-10
  4.55827     69.1 1.186e+04 9.436e-10
  4.56816     67.0 1.240e+04 1.269e-09
  4.58457     66.3 1.251e+04 1.358e-09
  4.60435     65.3 1.260e+04 1.420e-09
  4.62413     64.1 1.272e+04 1.512e-09
  4.64391     62.8 1.309e+04 1.720e-09
  4.66370     61.4 1.371e+04 2.129e-09
  4.68186     60.1 1.454e+04 2.854e-09
  4.69175     58.9 1.441e+04 2.842e-09
  4.70326     57.4 1.562e+04 4.104e-09
  4.72304     56.5 1.675e+04 6.534e-09
  4.73783     56.6 1.744e+04 7.864e-09
  4.74767     55.9 1.841e+04 1.005e-08
  4.75344     54.4 1.958e+04 1.426e-08
  4.75839     53.7 1.918e+04 1.421e-08
  4.76745     52.2 1.958e+04 2.091e-08
  4.77734     51.9 1.972e+04 2.978e-08
  4.78295     52.0 2.003e+04 4.104e-08
  4.78789     52.1 1.995e+04 3.314e-08
  4.79712     52.4 2.041e+04 4.610e-08
  4.80701     52.5 2.092e+04 5.058e-08
  4.81523     52.4 2.092e+04 4.829e-08
  4.82018     52.4 1.995e+04 3.455e-08
  4.82680     52.5 1.992e+04 2.999e-08
  4.83669     52.6 1.970e+04 2.299e-08
  4.84658     52.5 1.940e+04 1.695e-08
  4.86146     51.9 1.952e+04 1.093e-08
  4.88129     48.7 1.979e+04 4.334e-09
  4.90107     42.3 1.788e+04 1.809e-09
  4.92086     36.7 1.339e+04 1.269e-09
  4.93891     35.0 1.219e+04 1.291e-09
  4.94880     34.2 1.259e+04 1.629e-09
  4.96042     34.1 1.248e+04 1.648e-09
  4.98020     34.0 1.249e+04 1.694e-09
  4.99998     34.1 1.244e+04 1.634e-09
  5.01976     34.2 1.225e+04 1.500e-09
  5.03954     34.5 1.195e+04 1.317e-09
  5.05933     34.7 1.166e+04 1.150e-09
  5.07239     35.1 1.138e+04 9.597e-10
  5.08228     34.2 1.126e+04 8.774e-10
  5.09889     34.1 1.110e+04 7.869e-10
  5.12866     35.0 1.082e+04 6.799e-10
  5.16832     36.1 1.049e+04 5.515e-10
  5.19607     36.4 1.016e+04 4.393e-10
  5.21585     35.6 1.006e+04 4.071e-10
  5.24745     37.0 9.710e+03 3.291e-10
  5.28701     38.6 9.531e+03 2.771e-10
  5.32657     40.2 9.514e+03 2.435e-10
  5.36613     41.7 9.680e+03 2.411e-10
  5.40570     43.2 9.973e+03 2.685e-10
  5.44333     44.6 1.035e+04 3.430e-10
  5.46311     43.4 1.053e+04 3.853e-10
  5.47484     44.0 1.070e+04 4.663e-10
  5.49452     44.3 1.087e+04 5.732e-10
  5.51430     44.9 1.101e+04 6.651e-10
  5.53408     45.4 1.108e+04 6.841e-10
  5.55386     46.0 1.107e+04 6.681e-10
  5.57365     46.4 1.103e+04 6.144e-10
  5.58650     46.4 1.089e+04 4.892e-10
  5.59639     46.0 1.081e+04 4.325e-10
  5.61321     45.8 1.072e+04 3.875e-10
  5.63675     46.4 1.046e+04 3.027e-10
  5.65653     45.5 1.054e+04 3.040e-10
  5.68254     46.3 1.020e+04 2.339e-10
  5.71027     47.1 9.749e+03 1.897e-10
  5.73006     46.9 9.722e+03 1.864e-10
  5.76177     48.1 9.695e+03 1.872e-10
  5.80133     49.3 9.772e+03 1.976e-10
  5.84089     50.3 1.001e+04 2.333e-10
  5.88045     50.9 1.025e+04 2.928e-10
  5.92002     51.3 1.062e+04 3.860e-10
  5.94959     51.6 1.079e+04 4.333e-10
  5.96714     51.5 1.087e+04 4.568e-10
  5.97703     51.0 1.112e+04 5.176e-10
  5.98906     49.4 1.168e+04 6.103e-10
  6.00884     43.9 1.382e+04 1.077e-09
  6.02862     36.8 1.668e+04 3.388e-09
  6.04840     32.5 1.757e+04 8.257e-09
  6.06818     30.2 1.730e+04 9.529e-09
  6.08077     29.5 1.677e+04 8.384e-09
  6.09066     29.3 1.680e+04 8.813e-09
  6.10061     29.2 1.570e+04 5.068e-09
  6.11050     28.6 1.595e+04 4.904e-09
  6.12753     25.7 1.455e+04 1.505e-09
  6.14731     17.7 1.110e+04 3.596e-10
  6.16709     15.6 1.029e+04 3.019e-10
  6.19686     13.9 8.772e+03 1.752e-10
  6.22439     13.9 8.429e+03 1.549e-10
  6.24417     14.0 8.420e+03 1.550e-10
  6.27608     14.6 8.315e+03 1.477e-10
  6.31565     15.3 8.264e+03 1.446e-10
  6.35521     16.0 8.282e+03 1.463e-10
  6.39477     16.1 8.379e+03 1.579e-10
  6.43434     16.0 8.677e+03 1.998e-10
  6.47155     15.7 9.144e+03 2.890e-10
  6.49133     15.8 9.160e+03 2.939e-10
  6.50530     15.5 9.594e+03 4.165e-10
  6.52508     16.9 9.722e+03 4.360e-10
  6.54304     16.5 9.996e+03 5.401e-10
  6.56272     16.1 1.004e+04 5.835e-10
  6.58250     16.0 9.998e+03 5.663e-10
  6.60228     15.7 9.857e+03 5.073e-10
  6.61472     15.5 9.654e+03 4.299e-10
  6.62461     15.9 9.611e+03 4.200e-10
  6.64185     15.8 9.572e+03 4.099e-10
  6.67162     15.3 9.443e+03 3.661e-10
  6.71128     15.0 9.420e+03 3.573e-10
  6.73840     14.5 9.422e+03 3.480e-10
  6.75818     14.7 9.396e+03 3.410e-10
  6.78042     13.8 9.514e+03 3.893e-10
  6.80010     13.3 9.632e+03 4.735e-10
  6.81988     13.2 9.821e+03 5.911e-10
  6.83966     13.3 1.001e+04 6.795e-10
  6.85944     13.3 1.023e+04 7.318e-10
  6.87178     13.1 1.052e+04 7.891e-10
  6.88167     13.5 1.028e+04 6.911e-10
  6.89901     12.7 1.066e+04 7.912e-10
  6.91879     11.3 1.143e+04 1.005e-09
  6.93857      9.7 1.238e+04 1.410e-09
  6.94921      8.6 1.297e+04 1.921e-09
  6.95911     10.4 1.269e+04 1.636e-09
  6.97813      9.1 1.342e+04 2.262e-09
  6.99536      6.8 1.502e+04 3.322e-09
  7.00525      6.7 1.550e+04 3.848e-09
  7.01770      0.5 1.914e+04 7.987e-09
  7.03248     -5.4 2.071e+04 1.184e-08
  7.04233     -8.7 2.115e+04 1.616e-08
  7.05222    -10.6 2.097e+04 1.672e-08
  7.06200    -12.6 2.034e+04 1.576e-08
  7.06694    -12.9 2.077e+04 2.095e-08
  7.07200    -13.1 2.001e+04 1.860e-08
  7.08189    -13.3 1.954e+04 1.463e-08
  7.09677    -12.7 1.914e+04 1.063e-08
  7.11660    -15.2 1.888e+04 2.299e-09
  7.14637    -28.0 1.218e+04 3.114e-10
  7.18603    -31.7 9.389e+03 2.334e-10
  7.22560    -31.7 9.386e+03 2.452e-10
  7.25261    -31.9 9.478e+03 2.891e-10
  7.27239    -30.9 9.318e+03 2.627e-10
  7.30472    -30.9 9.317e+03 3.020e-10
  7.34429    -30.5 9.410e+03 3.452e-10
  7.37374    -30.4 9.594e+03 3.639e-10
  7.39352    -30.5 9.309e+03 3.094e-10
  7.42341    -30.6 9.299e+03 3.123e-10
  7.46298    -30.9 9.314e+03 3.339e-10
  7.49977    -30.4 9.248e+03 3.699e-10
  7.51956    -29.7 9.096e+03 3.291e-10
  7.54210    -28.5 8.879e+03 3.016e-10
  7.58166    -26.7 8.649e+03 2.109e-10
  7.62123    -25.6 8.545e+03 1.255e-10
  7.66079    -25.3 8.371e+03 9.961e-11
  7.70035    -24.3 8.259e+03 1.106e-10
  7.73992    -22.4 8.242e+03 1.252e-10
  7.76672    -20.4 8.309e+03 1.264e-10
  7.78650    -19.6 8.232e+03 1.061e-10
  7.81904    -17.6 8.266e+03 9.958e-11
  7.85861    -15.8 8.311e+03 8.501e-11
  7.89817    -14.5 8.296e+03 7.266e-11
  7.93773    -13.1 8.209e+03 6.572e-11
  7.97730    -11.4 8.097e+03 6.029e-11
  8.01389     -9.4 7.999e+03 5.234e-11
  8.03367     -8.6 8.007e+03 5.209e-11
  8.05642     -6.6 7.951e+03 4.185e-11
  8.09598     -4.7 7.956e+03 3.225e-11
  8.13555     -3.2 7.964e+03 2.551e-11
  8.17511     -1.5 7.886e+03 2.348e-11
  8.21467      0.4 7.873e+03 2.364e-11
  8.24219      2.4 7.894e+03 2.487e-11
  8.26197      2.4 7.896e+03 2.823e-11
  8.28083      4.5 7.942e+03 3.210e-11
  8.30061      5.0 7.958e+03 2.975e-11
  8.33336      7.1 8.023e+03 3.344e-11
  8.37293      9.2 8.104e+03 3.781e-11
  8.41249     11.1 8.180e+03 4.398e-11
  8.45205     13.1 8.253e+03 5.257e-11
  8.49161     15.1 8.323e+03 6.329e-11
  8.52800     17.0 8.395e+03 7.558e-11
  8.54778     17.6 8.343e+03 6.365e-11
  8.57074     19.5 8.399e+03 7.358e-11
  8.61030     21.5 8.471e+03 8.446e-11
  8.64987     23.4 8.561e+03 9.590e-11
  8.68943     25.3 8.672e+03 1.056e-10
  8.72899     27.1 8.769e+03 1.163e-10
  8.76856     28.8 8.880e+03 1.273e-10
  8.79494     30.6 8.974e+03 1.350e-10
  8.81472     31.6 8.857e+03 1.130e-10
  8.84768     33.3 8.957e+03 1.169e-10
  8.88724     34.9 9.062e+03 1.192e-10
  8.92681     36.5 9.158e+03 1.210e-10
  8.96637     38.0 9.244e+03 1.235e-10
  9.00593     39.5 9.331e+03 1.271e-10
  9.04211     40.9 9.425e+03 1.318e-10
  9.06189     41.9 9.406e+03 1.301e-10
  9.08506     43.3 9.512e+03 1.367e-10
  9.11064     44.7 9.617e+03 1.451e-10
  9.13042     44.5 9.545e+03 1.401e-10
  9.16419     45.9 9.743e+03 1.703e-10
  9.20375     47.2 1.001e+04 2.210e-10
  9.24331     48.5 1.029e+04 2.895e-10
  9.28288     49.7 1.053e+04 3.671e-10
  9.30905     50.9 1.071e+04 4.467e-10
  9.32884     51.3 1.093e+04 5.594e-10
  9.36200     52.5 1.112e+04 6.773e-10
  9.40156     53.6 1.147e+04 8.678e-10
  9.44113     54.9 1.199e+04 1.162e-09
  9.48069     56.0 1.242e+04 1.434e-09
  9.52025     56.9 1.267e+04 1.555e-09
  9.55622     57.8 1.265e+04 1.515e-09
  9.57600     58.4 1.268e+04 1.526e-09
  9.59938     59.7 1.252e+04 1.377e-09
  9.63894     61.2 1.217e+04 1.113e-09
  9.67851     62.4 1.180e+04 8.923e-10
  9.69949     62.8 1.143e+04 7.517e-10
  9.70928     63.1 1.134e+04 7.014e-10
  9.72776     63.6 1.111e+04 6.308e-10
  9.74755     64.1 1.111e+04 6.316e-10
  9.76733     64.6 1.117e+04 6.509e-10
  9.78711     65.0 1.132e+04 7.055e-10
  9.80689     65.4 1.158e+04 8.024e-10
  9.82297     65.6 1.189e+04 9.477e-10
  9.83286     65.6 1.191e+04 9.398e-10
  9.84645     65.8 1.235e+04 1.123e-09
  9.86623     65.8 1.295e+04 1.388e-09
  9.88602     65.6 1.369e+04 1.742e-09
  9.90580     65.2 1.460e+04 2.248e-09
  9.92558     64.7 1.558e+04 2.989e-09
  9.94536     64.3 1.632e+04 3.954e-09
  9.95644     64.2 1.665e+04 5.033e-09
  9.96633     64.0 1.651e+04 5.740e-09
  9.97889     64.5 1.650e+04 6.647e-09
  9.98878     65.8 1.490e+04 2.451e-09
 10.00471     65.8 1.504e+04 2.675e-09
 10.02449     66.0 1.509e+04 2.746e-09
 10.04427     66.4 1.487e+04 2.775e-09
 10.06405     67.0 1.453e+04 2.801e-09
 10.08003     67.5 1.437e+04 2.869e-09
 10.08992     67.8 1.388e+04 2.681e-09
 10.10361     68.3 1.382e+04 2.727e-09
 10.12339     68.9 1.377e+04 2.799e-09
 10.14318     69.5 1.374e+04 2.801e-09
 10.16296     70.2 1.367e+04 2.739e-09
 10.18274     71.0 1.352e+04 2.540e-09
 10.20252     71.9 1.330e+04 2.243e-09
 10.21350     72.8 1.305e+04 1.928e-09
 10.22339     73.0 1.274e+04 1.718e-09
 10.24208     74.0 1.259e+04 1.549e-09
 10.26187     74.9 1.248e+04 1.420e-09
 10.28165     75.7 1.240e+04 1.331e-09
 10.30143     76.5 1.236e+04 1.302e-09
 10.32121     77.4 1.239e+04 1.318e-09
 10.33708     78.1 1.246e+04 1.364e-09
 10.34697     78.6 1.246e+04 1.553e-09
 10.36077     79.3 1.261e+04 1.696e-09
 10.38055     80.1 1.279e+04 1.895e-09
 10.40034     80.8 1.298e+04 2.140e-09
 10.41311     81.5 1.315e+04 2.388e-09
 10.42300     81.4 1.257e+04 1.593e-09
 10.43990     82.1 1.268e+04 1.764e-09
 10.45968     82.7 1.278e+04 1.858e-09
 10.47055     83.2 1.283e+04 1.870e-09
 10.48045     83.6 1.338e+04 2.529e-09
 10.49924     83.9 1.340e+04 2.528e-09
 10.51902     84.0 1.341e+04 2.518e-09
 10.53881     84.0 1.342e+04 2.518e-09
 10.55859     84.0 1.346e+04 2.552e-09
 10.57837     83.8 1.351e+04 2.627e-09
 10.59414     83.5 1.354e+04 2.674e-09
 10.60403     84.1 1.391e+04 3.056e-09
 10.61793     84.1 1.375e+04 2.798e-09
 10.63771     84.1 1.353e+04 2.507e-09
 10.65750     84.2 1.333e+04 2.125e-09
 10.67728     84.3 1.316e+04 1.755e-09
 10.69706     84.1 1.299e+04 1.475e-09
 10.71684     83.9 1.291e+04 1.404e-09
 10.72761     83.3 1.303e+04 1.449e-09
 10.73750     83.9 1.206e+04 9.063e-10
 10.75640     83.4 1.223e+04 9.771e-10
 10.77618     82.1 1.301e+04 1.338e-09
 10.79597     80.4 1.457e+04 2.500e-09
 10.81575     79.1 1.611e+04 5.227e-09
 10.83553     78.8 1.730e+04 9.841e-09
 10.84734     79.0 1.813e+04 1.372e-08
 10.85311     79.1 1.799e+04 1.347e-08
 10.86108     80.0 1.716e+04 9.759e-09
 10.87509     80.3 1.792e+04 1.331e-08
 10.89487     80.5 1.801e+04 1.322e-08
 10.91466     80.7 1.774e+04 1.170e-08
 10.93444     81.0 1.713e+04 8.218e-09
 10.95422     81.3 1.612e+04 4.291e-09
 10.97400     81.0 1.469e+04 1.836e-09
 10.98467     79.7 1.277e+04 7.321e-10
 10.99456     82.0 1.456e+04 1.887e-09
 11.02355     79.2 1.204e+04 5.131e-10
 11.06321     78.1 1.056e+04 3.134e-10
 11.09855     78.5 1.033e+04 2.889e-10
 11.11833     81.3 1.070e+04 3.852e-10
 11.14234     81.5 1.023e+04 2.963e-10
 11.18190     82.4 1.010e+04 2.702e-10
 11.22146     84.0 9.945e+03 2.591e-10
 11.26103     85.9 9.829e+03 2.548e-10
 11.30059     88.2 9.812e+03 2.578e-10
 11.34015     90.5 9.822e+03 2.733e-10
 11.36550     92.7 9.968e+03 3.128e-10
 11.38528     94.1 9.940e+03 2.925e-10
 11.41928     96.0 1.015e+04 3.416e-10
 11.45884     97.8 1.045e+04 4.104e-10
 11.48842     98.5 1.069e+04 4.866e-10
 11.49878     99.1 1.094e+04 5.658e-10
 11.50867     99.7 1.086e+04 5.403e-10
 11.52788    100.3 1.121e+04 6.460e-10
 11.54766    100.3 1.161e+04 8.139e-10
 11.56745    100.2 1.210e+04 1.087e-09
 11.58723    100.1 1.266e+04 1.547e-09
 11.60701    100.2 1.331e+04 2.257e-09
 11.62236    100.5 1.397e+04 3.167e-09
 11.63225    100.8 1.395e+04 3.228e-09
 11.64657    101.2 1.457e+04 4.025e-09
 11.66635    101.2 1.487e+04 4.163e-09
 11.68613    101.0 1.487e+04 4.090e-09
 11.70589    100.5 1.475e+04 3.776e-09
 11.72567     99.4 1.415e+04 2.619e-09
 11.74548     98.5 1.413e+04 2.593e-09
 11.75583     97.5 1.418e+04 2.687e-09
 11.76572     97.7 1.397e+04 2.701e-09
 11.78504     96.7 1.436e+04 3.177e-09
 11.80482     95.7 1.466e+04 3.653e-09
 11.82461     94.6 1.467e+04 3.675e-09
 11.84439     93.4 1.453e+04 3.471e-09
