# Columns:
#   distance along LOS (in CHIMPs)
#   peculiar velocity  (in km/s)
#   temperature (K)
#   HI number density
# pos=(146.883,88.1976,10.2804), angles=(1.55584,3.53486)
  0.00076      6.7 1.005e+04 4.246e-10
  0.01209      7.6 1.012e+04 4.264e-10
  0.04391      9.3 1.026e+04 4.084e-10
  0.07306     11.7 1.011e+04 3.895e-10
  0.09420     14.1 1.004e+04 3.881e-10
  0.12859     16.3 1.006e+04 3.769e-10
  0.16632     18.5 9.981e+03 3.420e-10
  0.18737     20.8 1.025e+04 4.058e-10
  0.20242     22.2 1.025e+04 3.763e-10
  0.22334     22.9 1.016e+04 3.491e-10
  0.23391     23.6 1.051e+04 4.275e-10
  0.25538     24.8 1.021e+04 3.331e-10
  0.28074     26.9 9.983e+03 2.908e-10
  0.29122     28.3 1.058e+04 3.799e-10
  0.30816     28.9 1.035e+04 3.343e-10
  0.32718     30.1 1.006e+04 2.910e-10
  0.33775     31.1 1.059e+04 3.615e-10
  0.35045     31.7 1.019e+04 3.033e-10
  0.37391     33.0 9.798e+03 2.556e-10
  0.39506     35.2 9.855e+03 2.472e-10
  0.42457     37.3 9.749e+03 2.171e-10
  0.46696     39.7 9.592e+03 1.929e-10
  0.48843     42.1 9.475e+03 1.766e-10
  0.50957     44.0 9.488e+03 1.685e-10
  0.55155     46.4 9.365e+03 1.579e-10
  0.58169     48.6 9.278e+03 1.583e-10
  0.60284     50.4 9.398e+03 1.557e-10
  0.63614     52.7 9.457e+03 1.677e-10
  0.67496     55.0 9.633e+03 2.045e-10
  0.69601     56.6 9.754e+03 2.266e-10
  0.70997     57.4 9.903e+03 2.539e-10
  0.73111     57.9 1.013e+04 3.185e-10
  0.74255     58.1 1.042e+04 4.228e-10
  0.75312     58.7 1.051e+04 5.249e-10
  0.77341     59.0 1.106e+04 7.314e-10
  0.78918     59.3 1.164e+04 1.010e-09
  0.79976     60.0 1.210e+04 1.362e-09
  0.81570     60.0 1.281e+04 1.869e-09
  0.83582     60.0 1.329e+04 2.381e-09
  0.84639     60.8 1.373e+04 3.126e-09
  0.85800     61.0 1.402e+04 3.624e-09
  0.87915     61.1 1.386e+04 3.367e-09
  0.89303     61.0 1.358e+04 2.837e-09
  0.90360     62.3 1.406e+04 3.755e-09
  0.92144     62.0 1.365e+04 2.841e-09
  0.93966     60.5 1.344e+04 2.058e-09
  0.95023     62.4 1.372e+04 2.530e-09
  0.96374     59.8 1.319e+04 1.761e-09
  0.98107     56.8 1.260e+04 1.332e-09
  0.99164     54.6 1.191e+04 1.092e-09
  0.99687     53.2 1.145e+04 9.873e-10
  1.00744     54.3 1.129e+04 9.707e-10
  1.02718     53.5 1.102e+04 8.752e-10
  1.04350     52.8 1.059e+04 7.585e-10
  1.05408     53.8 1.077e+04 7.759e-10
  1.06948     52.5 1.038e+04 6.518e-10
  1.09014     50.9 9.955e+03 5.820e-10
  1.10071     51.4 1.051e+04 6.531e-10
  1.11177     49.3 1.036e+04 6.502e-10
  1.13292     46.4 1.057e+04 7.250e-10
  1.14735     43.1 1.147e+04 1.058e-09
  1.15792     41.2 1.329e+04 1.633e-09
  1.17522     38.8 1.364e+04 2.301e-09
  1.19398     37.5 1.367e+04 2.850e-09
  1.20455     36.9 1.448e+04 3.793e-09
  1.21751     35.8 1.423e+04 3.681e-09
  1.23866     34.1 1.396e+04 3.379e-09
  1.25119     32.0 1.373e+04 3.024e-09
  1.26176     32.2 1.409e+04 3.168e-09
  1.28096     29.8 1.343e+04 2.549e-09
  1.29782     27.9 1.269e+04 2.085e-09
  1.30840     27.7 1.233e+04 1.753e-09
  1.32325     26.7 1.155e+04 1.382e-09
  1.34440     26.4 1.069e+04 8.413e-10
  1.36555     26.2 1.060e+04 7.857e-10
  1.39119     25.1 9.435e+03 4.308e-10
  1.41243     24.7 8.904e+03 3.016e-10
  1.43976     24.8 8.073e+03 2.142e-10
  1.48206     25.7 7.801e+03 1.897e-10
  1.50570     27.2 7.905e+03 1.933e-10
  1.52685     27.5 7.986e+03 2.231e-10
  1.56665     29.6 8.142e+03 2.440e-10
  1.59897     32.3 8.466e+03 2.719e-10
  1.62012     31.8 8.822e+03 3.382e-10
  1.64057     33.9 8.694e+03 3.290e-10
  1.65598     35.0 8.681e+03 3.303e-10
  1.66656     34.9 8.797e+03 3.535e-10
  1.68277     35.9 8.937e+03 3.830e-10
  1.70262     36.9 9.135e+03 4.280e-10
  1.71319     36.5 9.549e+03 5.424e-10
  1.72506     37.4 9.731e+03 5.936e-10
  1.74621     38.5 1.001e+04 6.728e-10
  1.75983     39.4 1.068e+04 8.373e-10
  1.77040     38.7 1.087e+04 1.009e-09
  1.78851     39.6 1.147e+04 1.262e-09
  1.80646     40.0 1.352e+04 1.904e-09
  1.81703     39.9 1.192e+04 1.696e-09
  1.83080     40.4 1.354e+04 2.360e-09
  1.85195     40.7 1.586e+04 3.802e-09
  1.86367     41.3 1.754e+04 6.303e-09
  1.87424     41.9 1.468e+04 3.608e-09
  1.89425     42.5 1.651e+04 5.715e-09
  1.91030     43.4 1.769e+04 8.751e-09
  1.92088     43.8 1.530e+04 3.954e-09
  1.93654     44.6 1.655e+04 5.673e-09
  1.95694     45.5 1.722e+04 7.573e-09
  1.96751     45.4 1.482e+04 2.689e-09
  1.97884     45.8 1.618e+04 3.919e-09
  1.99998     45.9 1.710e+04 5.999e-09
  2.01415     45.9 1.773e+04 9.066e-09
  2.02472     44.5 1.644e+04 3.569e-09
  2.04228     44.2 1.755e+04 7.635e-09
  2.06078     43.9 1.843e+04 1.447e-08
  2.07135     43.7 1.827e+04 5.149e-09
  2.08458     43.7 1.922e+04 9.887e-09
  2.10572     43.5 1.948e+04 1.311e-08
  2.11799     42.6 1.965e+04 1.305e-08
  2.12856     41.5 1.635e+04 3.501e-09
  2.14802     39.4 1.592e+04 3.677e-09
  2.16462     36.7 1.589e+04 3.699e-09
  2.17520     34.7 1.359e+04 2.256e-09
  2.19032     32.5 1.412e+04 3.043e-09
  2.21126     31.4 1.419e+04 3.857e-09
  2.22183     31.2 1.482e+04 4.779e-09
  2.23261     31.4 1.512e+04 6.239e-09
  2.25376     32.1 1.502e+04 6.453e-09
  2.26846     33.0 1.492e+04 5.668e-09
  2.27904     33.6 1.526e+04 7.085e-09
  2.28941     34.8 1.477e+04 5.377e-09
  2.29998     34.1 1.445e+04 3.857e-09
  2.31510     34.5 1.386e+04 2.238e-09
  2.32567     35.7 1.387e+04 2.866e-09
  2.33835     35.2 1.327e+04 1.591e-09
  2.37017     34.9 1.245e+04 9.118e-10
  2.40856     36.0 1.161e+04 7.278e-10
  2.42971     37.1 1.123e+04 5.724e-10
  2.45486     38.9 1.128e+04 5.440e-10
  2.49715     41.2 1.135e+04 5.649e-10
  2.52298     43.4 1.134e+04 5.579e-10
  2.54413     44.1 1.091e+04 4.606e-10
  2.58175     46.3 1.080e+04 4.330e-10
  2.61625     48.4 1.060e+04 3.950e-10
  2.63740     49.7 1.051e+04 4.284e-10
  2.66634     51.9 1.036e+04 3.915e-10
  2.70863     54.3 1.032e+04 3.680e-10
  2.73066     56.7 1.033e+04 3.491e-10
  2.75181     58.0 1.020e+04 3.502e-10
  2.79322     60.4 1.009e+04 3.013e-10
  2.82393     62.8 1.005e+04 2.715e-10
  2.84508     63.7 9.919e+03 2.434e-10
  2.87782     65.7 9.823e+03 2.231e-10
  2.91720     68.0 9.823e+03 2.279e-10
  2.93835     68.7 9.593e+03 2.195e-10
  2.96241     70.7 9.635e+03 2.288e-10
  3.00470     72.4 9.898e+03 2.631e-10
  3.03152     72.9 1.003e+04 2.871e-10
  3.04200     73.6 9.910e+03 2.968e-10
  3.05738     73.6 1.007e+04 3.275e-10
  3.07806     73.7 1.025e+04 3.736e-10
  3.08863     73.9 1.030e+04 4.065e-10
  3.09967     74.1 1.045e+04 4.800e-10
  3.12082     74.2 1.059e+04 5.469e-10
  3.13526     74.1 1.076e+04 5.898e-10
  3.14584     74.8 1.089e+04 6.903e-10
  3.16312     74.2 1.115e+04 7.370e-10
  3.18190     73.0 1.145e+04 8.145e-10
  3.19247     73.8 1.157e+04 9.055e-10
  3.20541     72.4 1.192e+04 1.010e-09
  3.22656     70.9 1.233e+04 1.212e-09
  3.23911     69.6 1.268e+04 1.514e-09
  3.24968     70.1 1.278e+04 1.475e-09
  3.26886     68.7 1.306e+04 1.852e-09
  3.28574     67.8 1.319e+04 2.062e-09
  3.29632     67.6 1.348e+04 2.412e-09
  3.31115     67.1 1.344e+04 2.413e-09
  3.33230     66.9 1.323e+04 2.242e-09
  3.35345     67.4 1.302e+04 2.159e-09
  3.37460     67.3 1.243e+04 1.349e-09
  3.38958     66.6 1.201e+04 1.040e-09
  3.40016     67.1 1.205e+04 1.083e-09
  3.42574     66.4 1.116e+04 6.294e-10
  3.44699     67.7 1.082e+04 5.274e-10
  3.46996     66.7 9.596e+03 2.491e-10
  3.51225     66.8 9.224e+03 1.881e-10
  3.54026     67.6 9.120e+03 1.840e-10
  3.56140     68.4 8.841e+03 1.245e-10
  3.59684     69.7 8.827e+03 1.234e-10
  3.63352     71.0 8.831e+03 1.266e-10
  3.65467     72.1 8.622e+03 1.120e-10
  3.68144     73.4 8.616e+03 1.089e-10
  3.72373     74.7 8.623e+03 1.115e-10
  3.74794     75.9 8.662e+03 1.205e-10
  3.76909     76.9 8.572e+03 1.131e-10
  3.80832     78.0 8.585e+03 1.228e-10
  3.84121     79.0 8.665e+03 1.396e-10
  3.86236     80.0 8.715e+03 1.465e-10
  3.89291     80.8 8.860e+03 1.790e-10
  3.93448     81.5 9.149e+03 2.503e-10
  3.95563     82.6 9.189e+03 2.535e-10
  3.97751     83.3 9.596e+03 3.662e-10
  4.01980     84.1 1.003e+04 5.179e-10
  4.04889     84.6 1.026e+04 6.058e-10
  4.07004     85.3 1.026e+04 5.960e-10
  4.10439     85.6 1.029e+04 6.068e-10
  4.14216     86.0 1.018e+04 5.665e-10
  4.16331     86.6 1.022e+04 5.820e-10
  4.18898     87.1 1.005e+04 5.226e-10
  4.23128     87.6 9.895e+03 4.683e-10
  4.25658     88.1 9.910e+03 4.643e-10
  4.27773     88.3 1.026e+04 5.535e-10
  4.31587     88.5 1.039e+04 5.898e-10
  4.34985     88.9 1.046e+04 6.229e-10
  4.37100     88.5 1.081e+04 7.317e-10
  4.40046     88.7 1.088e+04 7.672e-10
  4.44276     88.9 1.092e+04 7.782e-10
  4.46426     89.2 1.089e+04 7.692e-10
  4.48541     87.7 1.123e+04 8.920e-10
  4.52735     88.0 1.110e+04 8.710e-10
  4.55753     88.4 1.100e+04 8.402e-10
  4.57868     86.7 1.130e+04 8.981e-10
  4.60127     86.7 1.119e+04 8.830e-10
  4.61455     86.6 1.116e+04 8.789e-10
  4.62512     85.4 1.124e+04 9.195e-10
  4.64347     85.4 1.121e+04 9.113e-10
  4.66118     85.4 1.120e+04 9.060e-10
  4.67175     84.0 1.183e+04 1.159e-09
  4.68576     84.1 1.194e+04 1.219e-09
  4.70691     84.5 1.205e+04 1.272e-09
  4.71839     84.9 1.217e+04 1.291e-09
  4.72896     82.1 1.423e+04 2.403e-09
  4.74921     82.6 1.460e+04 2.648e-09
  4.76502     82.9 1.503e+04 2.959e-09
  4.77560     81.9 1.528e+04 4.824e-09
  4.79150     82.8 1.541e+04 5.392e-09
  4.81166     83.5 1.566e+04 6.245e-09
  4.82223     83.5 1.545e+04 5.731e-09
  4.83380     84.7 1.574e+04 6.583e-09
  4.85495     85.9 1.615e+04 7.971e-09
  4.86886     87.3 1.690e+04 1.079e-08
  4.87944     85.4 1.862e+04 6.763e-09
  4.89552     87.0 1.973e+04 8.581e-09
  4.90610     86.8 2.027e+04 8.106e-09
  4.91550     87.9 2.088e+04 1.073e-08
  4.92607     83.1 2.152e+04 2.633e-09
  4.93954     84.4 2.219e+04 3.112e-09
  4.96069     85.0 2.281e+04 3.978e-09
  4.97271     85.5 2.396e+04 6.051e-09
  4.98328     81.6 1.389e+04 1.625e-09
  5.00298     82.8 1.603e+04 2.308e-09
  5.01879     82.9 1.583e+04 2.819e-09
  5.02453     83.0 1.564e+04 3.068e-09
  5.02987     81.6 1.260e+04 1.573e-09
  5.03994     81.5 1.337e+04 1.967e-09
  5.04785     81.2 1.404e+04 2.355e-09
  5.05314     81.2 1.397e+04 2.139e-09
  5.06104     80.7 1.476e+04 2.480e-09
  5.07117     80.1 1.576e+04 3.081e-09
  5.07650     78.0 1.295e+04 1.480e-09
  5.08224     76.7 1.464e+04 2.220e-09
  5.09276     74.9 1.703e+04 3.475e-09
  5.09977     72.6 1.998e+04 6.194e-09
  5.10506     71.9 1.708e+04 3.801e-09
  5.11391     69.4 1.912e+04 6.668e-09
  5.12309     67.3 2.009e+04 1.149e-08
  5.12837     66.2 1.894e+04 6.599e-09
  5.13506     64.1 1.997e+04 1.037e-08
  5.14563     62.4 2.114e+04 1.407e-08
  5.15169     58.2 2.627e+04 2.135e-08
  5.15698     56.4 2.043e+04 1.169e-08
  5.16678     51.2 2.542e+04 1.549e-08
  5.17501     47.5 3.507e+04 2.127e-08
  5.18029     45.1 1.974e+04 9.475e-09
  5.18793     41.0 2.064e+04 8.778e-09
  5.19832     38.7 2.068e+04 7.798e-09
  5.20361     38.6 1.803e+04 7.632e-09
  5.21441     36.0 1.912e+04 6.441e-09
  5.22703     33.4 1.898e+04 5.390e-09
  5.23760     32.5 1.484e+04 3.548e-09
  5.25676     30.2 1.479e+04 2.807e-09
  5.27366     28.9 1.565e+04 2.922e-09
  5.28423     27.9 1.333e+04 1.829e-09
  5.29905     27.3 1.350e+04 1.868e-09
  5.32020     26.9 1.411e+04 2.068e-09
  5.34135     26.6 1.337e+04 1.748e-09
  5.36249     26.5 1.372e+04 1.931e-09
  5.37750     26.7 1.405e+04 2.117e-09
  5.38808     26.8 1.360e+04 1.584e-09
  5.40479     27.1 1.380e+04 1.615e-09
  5.42414     27.5 1.376e+04 1.590e-09
  5.43471     26.9 1.343e+04 1.316e-09
  5.44709     27.4 1.342e+04 1.270e-09
  5.46823     28.1 1.335e+04 1.168e-09
  5.48135     28.8 1.327e+04 1.044e-09
  5.49192     28.1 1.313e+04 1.034e-09
  5.51053     28.7 1.303e+04 9.117e-10
  5.52798     29.2 1.290e+04 8.252e-10
  5.53855     28.8 1.267e+04 8.860e-10
  5.55283     29.4 1.266e+04 8.821e-10
  5.57397     30.0 1.272e+04 9.021e-10
  5.58519     30.4 1.280e+04 9.691e-10
  5.59576     30.2 1.279e+04 1.001e-09
  5.61627     30.7 1.291e+04 1.131e-09
  5.63182     31.4 1.309e+04 1.331e-09
  5.64240     31.2 1.283e+04 1.285e-09
  5.65856     31.8 1.307e+04 1.543e-09
  5.67846     32.5 1.321e+04 1.810e-09
  5.68903     32.4 1.275e+04 1.357e-09
  5.70086     33.2 1.292e+04 1.584e-09
  5.72201     33.7 1.308e+04 1.662e-09
  5.73567     34.1 1.309e+04 1.649e-09
  5.74624     33.9 1.253e+04 1.140e-09
  5.76430     34.2 1.254e+04 1.136e-09
  5.78230     34.4 1.254e+04 1.108e-09
  5.79287     34.3 1.209e+04 7.833e-10
  5.80660     34.5 1.212e+04 8.088e-10
  5.82775     34.7 1.219e+04 8.424e-10
  5.83951     34.8 1.234e+04 8.982e-10
  5.85008     35.2 1.195e+04 6.976e-10
  5.87004     35.2 1.220e+04 7.898e-10
  5.88614     35.2 1.252e+04 9.326e-10
  5.89672     35.8 1.208e+04 7.249e-10
  5.91234     35.7 1.248e+04 8.949e-10
  5.93278     35.4 1.299e+04 1.179e-09
  5.94335     36.3 1.247e+04 8.671e-10
  5.95463     36.0 1.309e+04 1.183e-09
  5.97578     35.6 1.379e+04 1.713e-09
  5.98998     35.2 1.441e+04 2.452e-09
  6.00056     36.2 1.374e+04 1.597e-09
  6.01808     35.8 1.422e+04 2.150e-09
  6.03662     35.3 1.453e+04 2.562e-09
  6.04719     35.9 1.421e+04 1.992e-09
  6.06037     34.5 1.482e+04 2.596e-09
  6.08152     32.7 1.544e+04 3.447e-09
  6.09383     30.8 1.555e+04 3.987e-09
  6.10440     31.3 1.613e+04 5.297e-09
  6.12382     30.1 1.601e+04 5.335e-09
  6.14046     29.4 1.542e+04 4.709e-09
  6.15104     30.4 1.613e+04 5.949e-09
  6.16611     30.2 1.504e+04 3.893e-09
  6.18710     28.8 1.373e+04 2.107e-09
  6.19767     29.9 1.401e+04 2.239e-09
  6.20387     27.4 1.215e+04 9.967e-10
  6.21444     26.9 1.175e+04 8.111e-10
  6.22956     25.4 1.094e+04 6.240e-10
  6.24430     25.4 1.059e+04 5.544e-10
  6.25488     25.5 1.044e+04 5.102e-10
  6.27185     25.4 1.026e+04 4.734e-10
  6.29094     25.3 1.028e+04 4.784e-10
  6.30151     25.4 1.017e+04 4.490e-10
  6.31415     25.3 1.035e+04 5.040e-10
  6.33530     25.1 1.053e+04 5.874e-10
  6.34815     25.2 1.066e+04 6.742e-10
  6.35872     25.6 1.061e+04 6.778e-10
  6.37759     25.9 1.059e+04 6.770e-10
  6.39478     26.2 1.053e+04 6.474e-10
  6.40545     26.8 1.041e+04 5.015e-10
  6.43066     26.7 1.023e+04 3.930e-10
  6.47295     26.1 9.912e+03 2.762e-10
  6.49882     25.5 9.815e+03 2.595e-10
  6.51997     26.8 9.505e+03 2.042e-10
  6.55754     26.1 9.761e+03 2.311e-10
  6.59209     25.2 1.036e+04 3.422e-10
  6.61323     26.6 1.011e+04 2.906e-10
  6.63146     25.9 1.042e+04 4.095e-10
  6.64910     25.8 1.062e+04 5.492e-10
  6.65967     26.6 1.042e+04 4.588e-10
  6.67366     26.9 1.056e+04 5.413e-10
  6.69481     27.1 1.072e+04 5.792e-10
  6.70631     27.2 1.073e+04 5.724e-10
  6.71688     27.6 1.045e+04 4.893e-10
  6.73711     27.5 1.043e+04 4.720e-10
  6.75294     27.5 1.032e+04 4.177e-10
  6.76352     27.8 1.026e+04 4.070e-10
  6.77940     27.7 1.022e+04 3.938e-10
  6.79967     27.6 1.016e+04 3.893e-10
  6.82092     29.9 1.024e+04 3.966e-10
  6.85361     30.1 1.027e+04 4.121e-10
  6.88524     30.6 1.025e+04 4.346e-10
  6.90342     30.7 1.026e+04 4.435e-10
  6.91409     32.5 1.050e+04 4.872e-10
  6.93821     33.2 1.065e+04 5.564e-10
  6.98050     33.9 1.078e+04 6.092e-10
  7.00746     34.5 1.091e+04 6.685e-10
  7.02860     36.4 1.124e+04 8.013e-10
  7.06509     37.3 1.129e+04 8.744e-10
  7.10073     38.4 1.106e+04 8.270e-10
  7.12187     40.2 1.148e+04 9.263e-10
  7.14968     41.7 1.114e+04 8.231e-10
  7.19198     43.5 1.064e+04 5.876e-10
  7.21514     45.0 1.030e+04 3.717e-10
  7.23629     46.6 1.071e+04 6.184e-10
  7.27657     48.1 1.039e+04 4.445e-10
  7.30841     49.4 1.020e+04 3.127e-10
  7.32956     51.7 1.064e+04 5.996e-10
  7.36116     53.0 1.032e+04 4.487e-10
  7.40168     54.2 1.030e+04 4.310e-10
  7.42283     57.0 1.088e+04 6.803e-10
  7.44575     58.3 1.108e+04 7.195e-10
  7.46936     58.6 1.113e+04 7.250e-10
  7.47984     58.9 1.124e+04 7.726e-10
  7.49843     59.0 1.150e+04 8.840e-10
  7.51221     59.0 1.185e+04 1.078e-09
  7.51911     59.1 1.170e+04 9.992e-10
  7.52647     60.0 1.190e+04 1.219e-09
  7.54072     60.3 1.224e+04 1.526e-09
  7.56187     60.8 1.269e+04 1.710e-09
  7.57311     61.2 1.290e+04 1.694e-09
  7.58368     62.2 1.334e+04 2.409e-09
  7.60417     62.5 1.353e+04 2.307e-09
  7.61974     62.5 1.356e+04 1.974e-09
  7.63032     63.8 1.414e+04 2.996e-09
  7.64646     63.3 1.438e+04 2.307e-09
  7.66638     62.0 1.400e+04 1.375e-09
  7.67695     64.2 1.496e+04 2.619e-09
  7.68876     63.8 1.426e+04 1.404e-09
  7.70991     62.9 1.356e+04 7.875e-10
  7.72368     59.6 1.227e+04 3.998e-10
  7.73426     62.9 1.374e+04 5.654e-10
  7.75220     60.7 1.271e+04 2.561e-10
  7.78402     61.1 1.462e+04 2.256e-10
  7.81705     54.6 1.071e+04 9.094e-11
  7.83820     61.8 1.918e+04 9.384e-11
  7.86871     52.1 9.751e+03 6.488e-11
  7.91032     52.0 9.344e+03 6.300e-11
  7.93146     52.1 9.449e+03 6.620e-11
  7.95330     53.2 9.448e+03 6.877e-11
  7.99560     54.3 9.633e+03 8.741e-11
  8.02473     55.2 9.884e+03 1.492e-10
  8.04588     55.8 1.006e+04 1.592e-10
  8.08019     57.1 1.044e+04 3.083e-10
  8.11800     58.5 1.084e+04 4.874e-10
  8.13915     59.3 1.147e+04 6.738e-10
  8.16478     60.2 1.147e+04 6.831e-10
  8.20708     61.2 1.133e+04 5.938e-10
  8.23242     62.0 1.112e+04 4.192e-10
  8.25357     62.7 1.158e+04 6.044e-10
  8.29167     63.2 1.127e+04 4.505e-10
  8.32569     63.7 1.114e+04 4.283e-10
  8.34683     64.6 1.148e+04 5.676e-10
  8.37626     65.3 1.135e+04 5.425e-10
  8.41856     66.2 1.126e+04 5.268e-10
  8.44010     67.5 1.109e+04 4.568e-10
  8.46125     68.3 1.112e+04 4.432e-10
  8.50315     69.7 1.095e+04 3.302e-10
  8.53337     70.7 1.086e+04 2.432e-10
  8.55452     71.8 1.083e+04 2.194e-10
  8.58774     72.8 1.067e+04 1.906e-10
  8.62664     74.0 1.063e+04 1.915e-10
  8.64779     75.2 1.062e+04 1.579e-10
  8.67233     76.5 1.061e+04 1.616e-10
  8.71463     77.7 1.066e+04 1.732e-10
  8.74106     78.7 1.080e+04 1.963e-10
  8.76220     79.9 1.075e+04 1.574e-10
  8.79922     80.7 1.089e+04 1.873e-10
  8.83433     81.0 1.108e+04 2.279e-10
  8.85547     82.5 1.093e+04 1.920e-10
  8.88381     82.7 1.109e+04 2.462e-10
  8.92610     82.9 1.126e+04 3.164e-10
  8.94874     82.9 1.147e+04 4.032e-10
  8.96989     84.5 1.134e+04 4.040e-10
  9.01070     84.3 1.164e+04 5.412e-10
  9.04201     84.0 1.204e+04 7.426e-10
  9.06316     85.5 1.186e+04 7.349e-10
  9.09529     85.0 1.220e+04 9.120e-10
  9.13528     84.0 1.221e+04 9.162e-10
  9.15643     85.4 1.184e+04 7.889e-10
  9.17988     85.1 1.165e+04 7.044e-10
  9.22217     85.4 1.133e+04 5.131e-10
  9.24970     85.7 1.104e+04 3.261e-10
  9.27084     86.7 1.085e+04 3.028e-10
  9.30677     87.0 1.073e+04 2.153e-10
  9.34296     87.4 1.066e+04 1.684e-10
  9.36411     88.5 1.060e+04 1.795e-10
  9.39136     89.0 1.059e+04 1.523e-10
  9.43365     89.6 1.056e+04 1.342e-10
  9.45738     90.3 1.050e+04 1.154e-10
  9.47853     91.1 1.047e+04 1.164e-10
  9.51824     91.7 1.042e+04 9.433e-11
  9.55065     92.2 1.032e+04 7.766e-11
  9.57180     93.0 1.026e+04 7.906e-11
  9.60284     93.6 1.014e+04 7.139e-11
  9.64392     94.4 1.013e+04 7.205e-11
  9.66507     95.1 1.006e+04 6.493e-11
  9.68743     95.5 1.010e+04 6.683e-11
  9.72972     95.2 1.025e+04 7.570e-11
  9.75833     93.9 1.056e+04 1.293e-10
  9.77948     94.2 1.047e+04 1.104e-10
  9.81431     92.9 1.094e+04 2.983e-10
  9.85160     91.8 1.153e+04 6.337e-10
  9.87275     92.5 1.125e+04 5.355e-10
  9.89891     91.3 1.165e+04 6.954e-10
  9.94120     89.8 1.167e+04 6.686e-10
  9.96602     88.3 1.153e+04 5.447e-10
  9.98717     89.3 1.145e+04 5.678e-10
 10.02579     88.1 1.115e+04 4.420e-10
 10.05929     87.9 1.078e+04 3.107e-10
 10.08044     89.0 1.088e+04 3.835e-10
 10.10794     89.2 1.056e+04 2.530e-10
 10.12909     88.9 1.056e+04 2.380e-10
 10.15256     89.5 1.032e+04 1.430e-10
 10.19485     91.4 1.023e+04 1.103e-10
 10.23727     92.1 1.015e+04 6.850e-11
 10.26697     93.1 9.867e+03 5.820e-11
 10.28812     94.3 9.912e+03 6.898e-11
 10.32186     95.6 9.804e+03 6.792e-11
 10.36024     97.3 9.799e+03 6.828e-11
 10.38139     98.3 9.812e+03 8.462e-11
 10.40646    100.0 9.828e+03 8.710e-11
