# Columns:
#   distance along LOS (in CHIMPs)
#   peculiar velocity  (in km/s)
#   temperature (K)
#   HI number density
# pos=(48.5543,214.867,178.555), angles=(1.66716,1.37327)
  0.01088    183.9 1.067e+04 7.792e-10
  0.04177    186.0 1.092e+04 9.100e-10
  0.07584    187.8 1.114e+04 1.016e-09
  0.09585    188.3 1.120e+04 1.020e-09
  0.12182    189.9 1.123e+04 1.031e-09
  0.14938    191.3 1.119e+04 1.003e-09
  0.16939    191.7 1.118e+04 1.007e-09
  0.20187    193.1 1.109e+04 9.536e-10
  0.24189    194.5 1.084e+04 8.377e-10
  0.28191    196.0 1.049e+04 6.873e-10
  0.32193    197.7 1.010e+04 5.362e-10
  0.34942    199.4 9.721e+03 4.066e-10
  0.36943    199.7 9.780e+03 4.514e-10
  0.40198    201.4 9.527e+03 3.741e-10
  0.44200    203.2 9.315e+03 3.081e-10
  0.47894    204.9 9.151e+03 2.559e-10
  0.49895    206.0 9.226e+03 2.741e-10
  0.52205    207.7 9.160e+03 2.439e-10
  0.54946    209.3 9.121e+03 2.194e-10
  0.56948    209.5 9.354e+03 2.842e-10
  0.60209    210.9 9.356e+03 2.664e-10
  0.64212    212.2 9.355e+03 2.493e-10
  0.68214    213.3 9.344e+03 2.345e-10
  0.72216    214.3 9.340e+03 2.228e-10
  0.74951    215.4 9.347e+03 2.130e-10
  0.76952    215.2 9.577e+03 2.723e-10
  0.80221    216.2 9.530e+03 2.477e-10
  0.84223    217.2 9.493e+03 2.270e-10
  0.88205    218.2 9.465e+03 2.074e-10
  0.90206    218.8 9.388e+03 1.876e-10
  0.92228    219.8 9.387e+03 1.737e-10
  0.94955    220.8 9.370e+03 1.553e-10
  0.96957    220.4 9.326e+03 1.625e-10
  1.00232    221.4 9.250e+03 1.348e-10
  1.04235    222.5 9.183e+03 1.066e-10
  1.08237    223.6 9.133e+03 8.141e-11
  1.12239    224.7 9.092e+03 6.349e-11
  1.14960    225.8 9.056e+03 5.760e-11
  1.16961    226.0 9.073e+03 6.340e-11
  1.20244    227.2 9.085e+03 6.266e-11
  1.24246    228.5 9.095e+03 6.295e-11
  1.28248    229.7 9.142e+03 6.469e-11
  1.30516    230.9 9.208e+03 6.799e-11
  1.32517    230.9 9.278e+03 7.544e-11
  1.34964    231.9 9.334e+03 7.963e-11
  1.36965    232.0 9.422e+03 9.075e-11
  1.40255    233.0 9.475e+03 9.671e-11
  1.44257    234.0 9.511e+03 1.029e-10
  1.48260    235.1 9.546e+03 1.098e-10
  1.52262    236.2 9.603e+03 1.200e-10
  1.54969    237.3 9.705e+03 1.380e-10
  1.56970    237.2 1.002e+04 1.990e-10
  1.60267    238.3 1.038e+04 2.630e-10
  1.64269    239.1 1.087e+04 3.803e-10
  1.68271    239.7 1.148e+04 5.824e-10
  1.70827    239.7 1.203e+04 8.699e-10
  1.72828    239.3 1.242e+04 1.023e-09
  1.74973    239.3 1.272e+04 1.213e-09
  1.75964    238.7 1.259e+04 1.141e-09
  1.77257    238.6 1.261e+04 1.144e-09
  1.79258    238.2 1.260e+04 1.134e-09
  1.81259    238.0 1.258e+04 1.122e-09
  1.83260    237.7 1.250e+04 1.064e-09
  1.84956    237.5 1.240e+04 1.012e-09
  1.85956    237.6 1.235e+04 9.815e-10
  1.87262    237.5 1.220e+04 9.080e-10
  1.89264    237.5 1.200e+04 8.190e-10
  1.90962    237.5 1.179e+04 7.320e-10
  1.91963    237.5 1.177e+04 7.175e-10
  1.93266    237.6 1.159e+04 6.561e-10
  1.94958    237.8 1.137e+04 5.852e-10
  1.95959    238.2 1.138e+04 5.811e-10
  1.97268    238.6 1.117e+04 5.236e-10
  1.99269    238.9 1.099e+04 4.780e-10
  2.01270    239.6 1.082e+04 4.353e-10
  2.04282    240.8 1.071e+04 4.006e-10
  2.08294    242.4 1.052e+04 3.614e-10
  2.11137    244.3 1.031e+04 3.182e-10
  2.13138    244.0 1.083e+04 4.328e-10
  2.14982    245.9 1.070e+04 4.029e-10
  2.16983    246.5 1.102e+04 4.786e-10
  2.20301    248.6 1.091e+04 4.525e-10
  2.24303    250.6 1.082e+04 4.252e-10
  2.28305    252.7 1.071e+04 3.951e-10
  2.32308    254.8 1.060e+04 3.623e-10
  2.34987    257.0 1.048e+04 3.282e-10
  2.36988    257.5 1.069e+04 3.357e-10
  2.40312    259.7 1.050e+04 2.969e-10
  2.44315    261.9 1.032e+04 2.631e-10
  2.48317    264.2 1.016e+04 2.385e-10
  2.51448    266.5 9.986e+03 2.271e-10
  2.53449    266.0 1.018e+04 2.285e-10
  2.54991    268.5 1.017e+04 2.297e-10
  2.56992    269.1 1.026e+04 2.248e-10
  2.60324    271.7 1.026e+04 2.297e-10
  2.64326    274.2 1.030e+04 2.438e-10
  2.68328    276.6 1.042e+04 2.669e-10
  2.72331    278.8 1.059e+04 2.971e-10
  2.74995    280.7 1.076e+04 3.278e-10
  2.76997    281.1 1.085e+04 3.162e-10
  2.80335    282.5 1.093e+04 3.381e-10
  2.84337    283.8 1.089e+04 3.500e-10
  2.87329    285.1 1.084e+04 3.616e-10
  2.89321    287.2 1.089e+04 3.962e-10
  2.91322    289.0 1.110e+04 4.604e-10
  2.92739    290.4 1.136e+04 5.429e-10
  2.93740    290.3 1.169e+04 6.232e-10
  2.94980    291.2 1.191e+04 7.071e-10
  2.95981    291.2 1.179e+04 6.562e-10
  2.97325    292.1 1.201e+04 7.443e-10
  2.99326    293.0 1.222e+04 8.356e-10
  3.01328    293.7 1.244e+04 9.347e-10
  3.03329    294.2 1.267e+04 1.051e-09
  3.04983    294.4 1.294e+04 1.191e-09
  3.05983    294.3 1.301e+04 1.183e-09
  3.07331    294.3 1.333e+04 1.350e-09
  3.09332    294.1 1.371e+04 1.562e-09
  3.11333    293.7 1.413e+04 1.830e-09
  3.12894    293.1 1.456e+04 2.147e-09
  3.13895    292.3 1.510e+04 2.481e-09
  3.14985    291.7 1.540e+04 2.809e-09
  3.15985    291.6 1.521e+04 2.724e-09
  3.17337    290.9 1.523e+04 2.762e-09
  3.19338    290.2 1.519e+04 2.722e-09
  3.21339    289.4 1.509e+04 2.594e-09
  3.23340    288.5 1.497e+04 2.424e-09
  3.24987    287.5 1.483e+04 2.238e-09
  3.25988    287.5 1.446e+04 1.901e-09
  3.27342    286.4 1.434e+04 1.751e-09
  3.29344    285.3 1.415e+04 1.587e-09
  3.31345    284.1 1.386e+04 1.400e-09
  3.33049    282.9 1.346e+04 1.195e-09
  3.34050    282.5 1.321e+04 1.109e-09
  3.34989    281.2 1.284e+04 9.564e-10
  3.35990    281.7 1.285e+04 9.870e-10
  3.37348    280.3 1.249e+04 8.799e-10
  3.39349    278.9 1.236e+04 8.653e-10
  3.41350    277.5 1.237e+04 8.729e-10
  3.43352    275.9 1.247e+04 9.264e-10
  3.44992    274.1 1.279e+04 1.080e-09
  3.45992    274.3 1.298e+04 1.181e-09
  3.47354    272.3 1.351e+04 1.483e-09
  3.49355    270.3 1.406e+04 1.859e-09
  3.51356    268.4 1.450e+04 2.229e-09
  3.53205    266.4 1.481e+04 2.507e-09
  3.54205    265.6 1.517e+04 2.811e-09
  3.54994    263.6 1.530e+04 2.880e-09
  3.55994    263.5 1.534e+04 2.868e-09
  3.57360    261.3 1.532e+04 2.812e-09
  3.59361    258.8 1.535e+04 2.760e-09
  3.61362    256.2 1.535e+04 2.688e-09
  3.63363    253.5 1.527e+04 2.566e-09
  3.64996    250.8 1.505e+04 2.338e-09
  3.65997    250.4 1.454e+04 1.901e-09
  3.67365    247.8 1.415e+04 1.622e-09
  3.69366    245.3 1.362e+04 1.276e-09
  3.71368    242.8 1.303e+04 9.562e-10
  3.73360    240.2 1.244e+04 7.712e-10
  3.74989    238.4 1.198e+04 6.634e-10
  3.75999    239.0 1.182e+04 6.137e-10
  3.77371    237.4 1.180e+04 6.164e-10
  3.79372    236.4 1.181e+04 6.460e-10
  3.81373    236.0 1.199e+04 7.492e-10
  3.83374    236.0 1.232e+04 9.241e-10
  3.85000    236.2 1.269e+04 1.150e-09
  3.86001    236.2 1.243e+04 9.588e-10
  3.87377    236.0 1.298e+04 1.220e-09
  3.89378    235.2 1.395e+04 1.731e-09
  3.91379    233.8 1.524e+04 2.559e-09
  3.93380    231.7 1.698e+04 4.170e-09
  3.94516    230.0 1.871e+04 7.156e-09
  3.95011    229.0 1.901e+04 7.304e-09
  3.95493    228.4 1.975e+04 9.340e-09
  3.95994    225.9 2.114e+04 1.208e-08
  3.96872    224.7 2.216e+04 1.556e-08
  3.97873    224.0 2.282e+04 1.774e-08
  3.98873    222.6 2.334e+04 1.889e-08
  3.99874    221.8 2.346e+04 1.894e-08
  4.01380    218.9 2.364e+04 1.823e-08
  4.03386    216.6 2.315e+04 1.289e-08
  4.05005    214.4 2.188e+04 7.143e-09
  4.06005    207.7 2.056e+04 4.043e-09
  4.07388    204.0 1.727e+04 1.978e-09
  4.09389    200.8 1.422e+04 1.152e-09
  4.11390    198.9 1.295e+04 7.419e-10
  4.13392    197.7 1.253e+04 4.902e-10
  4.14671    196.4 1.195e+04 3.416e-10
  4.15286    195.0 1.283e+04 5.060e-10
  4.16008    193.4 1.347e+04 6.791e-10
  4.17394    192.1 1.279e+04 5.690e-10
  4.19395    191.2 1.254e+04 5.613e-10
  4.21396    190.7 1.254e+04 5.671e-10
  4.23397    190.4 1.262e+04 6.098e-10
  4.25009    190.1 1.301e+04 7.594e-10
  4.26010    189.9 1.350e+04 9.305e-10
  4.27400    189.8 1.412e+04 1.224e-09
  4.29401    189.9 1.495e+04 1.709e-09
  4.31402    190.0 1.596e+04 2.421e-09
  4.33403    190.0 1.701e+04 3.354e-09
  4.34826    189.8 1.789e+04 4.316e-09
  4.35434    189.3 1.782e+04 4.088e-09
  4.36012    188.4 1.643e+04 3.177e-09
  4.37405    187.4 1.639e+04 3.073e-09
  4.39406    186.2 1.614e+04 2.700e-09
  4.41408    184.5 1.550e+04 2.144e-09
  4.43409    182.2 1.454e+04 1.574e-09
  4.45014    179.5 1.332e+04 1.094e-09
  4.46014    179.1 1.285e+04 8.939e-10
  4.47411    176.5 1.234e+04 7.092e-10
  4.49412    174.1 1.198e+04 6.304e-10
  4.51413    172.4 1.213e+04 6.419e-10
  4.53414    170.2 1.342e+04 7.260e-10
  4.54981    166.7 1.697e+04 1.124e-09
  4.55582    168.5 1.673e+04 1.144e-09
  4.56017    172.7 1.231e+04 6.558e-10
  4.57417    170.3 1.474e+04 8.784e-10
  4.59418    166.7 1.845e+04 1.746e-09
  4.61419    163.2 2.022e+04 3.987e-09
  4.63420    160.6 2.100e+04 7.665e-09
  4.65018    159.0 2.176e+04 1.153e-08
  4.66019    162.6 1.971e+04 5.776e-09
  4.67422    161.0 2.062e+04 9.152e-09
  4.69424    159.9 2.232e+04 9.988e-09
  4.71425    158.6 2.264e+04 9.621e-09
  4.73426    157.1 2.310e+04 8.249e-09
  4.75021    155.3 2.266e+04 6.042e-09
  4.75730    159.9 2.201e+04 7.475e-09
  4.76137    161.3 2.235e+04 8.420e-09
  4.77428    159.6 2.301e+04 6.340e-09
  4.79429    157.4 2.215e+04 4.286e-09
  4.81430    155.0 1.970e+04 2.992e-09
  4.83432    153.0 1.728e+04 2.329e-09
  4.85023    151.6 1.596e+04 1.856e-09
  4.86023    155.2 1.790e+04 2.076e-09
  4.87434    153.1 1.592e+04 1.606e-09
  4.89435    151.5 1.486e+04 1.346e-09
  4.91436    150.3 1.452e+04 1.191e-09
  4.93437    149.1 1.462e+04 1.136e-09
  4.95025    147.8 1.467e+04 1.143e-09
  4.95879    149.5 1.478e+04 1.265e-09
  4.96292    150.0 1.483e+04 1.263e-09
  4.97440    148.3 1.529e+04 1.426e-09
  4.99441    146.4 1.592e+04 1.681e-09
  5.01442    144.4 1.640e+04 1.956e-09
  5.03443    142.6 1.662e+04 2.170e-09
  5.05027    140.9 1.671e+04 2.305e-09
  5.06028    142.4 1.806e+04 3.760e-09
  5.07445    140.2 1.841e+04 4.210e-09
  5.09446    136.5 1.973e+04 5.074e-09
  5.11448    131.7 2.151e+04 6.669e-09
  5.12944    129.4 2.232e+04 8.697e-09
  5.13939    127.8 2.271e+04 1.050e-08
  5.14940    126.4 2.307e+04 1.263e-08
  5.15520    125.2 2.345e+04 1.539e-08
  5.16017    126.4 2.405e+04 1.506e-08
  5.16938    124.3 2.490e+04 2.088e-08
  5.17941    122.9 2.494e+04 2.417e-08
  5.18942    121.6 2.478e+04 2.446e-08
  5.19943    120.9 2.419e+04 2.391e-08
  5.20521    120.3 2.370e+04 2.240e-08
  5.21021    121.1 2.453e+04 2.258e-08
  5.21944    119.0 2.539e+04 2.267e-08
  5.22944    114.5 3.146e+04 2.274e-08
  5.23692    110.8 3.612e+04 2.513e-08
  5.24190    103.2 4.690e+04 3.105e-08
  5.24690     91.9 4.673e+04 9.159e-08
  5.25191     83.0 3.200e+04 6.591e-07
  5.25517     76.2 2.377e+04 2.415e-06
  5.25767     80.8 2.538e+04 1.954e-06
  5.26191     75.0 2.135e+04 3.872e-06
  5.26510     71.0 2.130e+04 3.098e-06
  5.26760     65.3 2.474e+04 1.066e-06
  5.27192     62.7 3.383e+04 2.527e-07
  5.27692     59.5 4.890e+04 4.168e-08
  5.28018     57.8 5.054e+04 3.013e-08
  5.28268     59.4 5.388e+04 3.126e-08
  5.28945     53.8 6.295e+04 1.059e-08
  5.29948     44.9 6.407e+04 3.880e-09
  5.30523     31.6 4.049e+04 2.868e-09
  5.31024     37.9 6.131e+04 3.068e-09
  5.31949     24.7 3.040e+04 3.057e-09
  5.32950     19.6 2.310e+04 3.619e-09
  5.33951     18.5 2.432e+04 4.163e-09
  5.34951     16.6 2.501e+04 5.700e-09
  5.35524     15.8 2.559e+04 6.818e-09
  5.36025     14.3 2.572e+04 8.603e-09
  5.36593     13.3 2.539e+04 1.145e-08
  5.37093     10.2 2.368e+04 1.187e-08
  5.37953      9.8 2.416e+04 1.388e-08
  5.38953      9.1 2.371e+04 1.826e-08
  5.39954      9.0 2.391e+04 2.164e-08
  5.40526      8.9 2.337e+04 2.701e-08
  5.41026      8.2 2.381e+04 3.306e-08
  5.41955      7.9 2.384e+04 3.501e-08
  5.42956      7.7 2.431e+04 3.749e-08
  5.43956      7.2 2.471e+04 3.931e-08
  5.44957      6.4 2.530e+04 3.891e-08
  5.45527      5.5 2.580e+04 3.556e-08
  5.46027      3.8 2.632e+04 3.012e-08
  5.46670      2.3 2.712e+04 2.597e-08
  5.47171     -0.5 2.657e+04 1.575e-08
  5.47959     -1.4 2.600e+04 1.384e-08
  5.48959     -2.4 2.537e+04 1.192e-08
  5.49960     -2.8 2.466e+04 1.078e-08
  5.50528     -4.1 2.378e+04 9.491e-09
  5.51028     -5.7 2.326e+04 8.665e-09
  5.51961     -6.5 2.240e+04 8.009e-09
  5.52961     -7.0 2.206e+04 7.861e-09
  5.53962     -7.1 2.221e+04 8.161e-09
  5.54963     -7.5 2.285e+04 8.954e-09
  5.55529     -7.3 2.309e+04 9.144e-09
  5.56034     -7.4 2.374e+04 1.006e-08
  5.56758     -7.3 2.396e+04 1.130e-08
  5.57758    -10.8 2.153e+04 9.737e-09
  5.59475    -10.8 2.117e+04 1.142e-08
  5.61476    -10.1 2.113e+04 1.273e-08
  5.63477     -8.7 2.115e+04 1.347e-08
  5.65041     -7.4 2.116e+04 1.366e-08
  5.66041     -8.0 2.110e+04 1.274e-08
  5.67480     -7.0 2.101e+04 1.112e-08
  5.69481     -6.5 2.079e+04 9.177e-09
  5.71482     -6.6 2.052e+04 8.196e-09
  5.73483     -7.5 2.060e+04 8.217e-09
  5.75043     -8.8 2.080e+04 9.369e-09
  5.76043     -9.6 2.056e+04 9.183e-09
  5.76913    -10.0 2.117e+04 1.230e-08
  5.77914    -11.5 2.137e+04 1.355e-08
  5.79486    -10.6 2.177e+04 1.924e-08
  5.81488     -9.9 2.217e+04 2.373e-08
  5.83489    -10.6 2.176e+04 2.340e-08
  5.85045     -9.2 2.106e+04 1.632e-08
  5.86046     -9.6 2.112e+04 1.485e-08
  5.87491     -9.1 2.070e+04 9.372e-09
  5.89492    -10.6 1.946e+04 5.887e-09
  5.91493    -13.4 1.734e+04 3.771e-09
  5.93494    -14.7 1.650e+04 3.206e-09
  5.95047    -15.8 1.618e+04 2.994e-09
  5.96048    -16.3 1.605e+04 2.865e-09
  5.97068    -16.6 1.608e+04 2.897e-09
  5.98069    -18.2 1.603e+04 3.133e-09
  5.99498    -18.9 1.581e+04 3.221e-09
  6.01499    -19.0 1.611e+04 3.592e-09
  6.03500    -19.1 1.644e+04 3.801e-09
  6.05049    -21.3 1.660e+04 3.854e-09
  6.06050    -21.3 1.626e+04 3.558e-09
  6.07502    -24.1 1.645e+04 3.681e-09
  6.09504    -28.6 1.805e+04 4.972e-09
  6.11505    -34.0 1.939e+04 7.259e-09
  6.13506    -39.1 1.983e+04 9.268e-09
  6.15002    -43.3 1.954e+04 9.530e-09
  6.15542    -43.6 1.957e+04 9.544e-09
  6.16043    -43.7 1.994e+04 1.043e-08
  6.16998    -46.8 1.924e+04 9.854e-09
  6.17714    -48.1 1.897e+04 8.695e-09
  6.18214    -48.1 1.866e+04 8.252e-09
  6.18999    -50.3 1.826e+04 6.903e-09
  6.20000    -52.4 1.813e+04 5.866e-09
  6.20543    -54.9 1.766e+04 4.972e-09
  6.21044    -54.8 1.813e+04 5.658e-09
  6.22001    -57.0 1.767e+04 4.932e-09
  6.23507    -60.5 1.665e+04 3.967e-09
  6.25054    -65.0 1.564e+04 3.319e-09
  6.26055    -66.0 1.643e+04 4.209e-09
  6.27514    -68.3 1.613e+04 4.012e-09
  6.29515    -69.3 1.615e+04 4.029e-09
  6.31516    -70.1 1.627e+04 4.123e-09
  6.33517    -70.6 1.641e+04 4.176e-09
  6.35056    -71.0 1.669e+04 4.318e-09
  6.36057    -72.2 1.778e+04 5.665e-09
  6.37379    -72.6 1.806e+04 6.001e-09
  6.38379    -73.0 1.826e+04 6.165e-09
  6.39521    -73.4 1.828e+04 6.556e-09
  6.41522    -73.4 1.817e+04 6.969e-09
  6.43523    -72.6 1.809e+04 7.342e-09
  6.45058    -71.8 1.809e+04 7.530e-09
  6.46059    -72.1 1.844e+04 8.637e-09
  6.47525    -71.2 1.809e+04 7.657e-09
  6.49526    -70.5 1.756e+04 6.196e-09
  6.51528    -70.1 1.682e+04 4.781e-09
  6.53529    -69.9 1.590e+04 3.661e-09
  6.55061    -69.6 1.488e+04 2.863e-09
  6.56061    -69.5 1.494e+04 2.805e-09
  6.57531    -67.9 1.400e+04 2.224e-09
  6.59532    -66.7 1.329e+04 1.767e-09
  6.61533    -64.8 1.285e+04 1.435e-09
  6.63534    -63.4 1.249e+04 1.141e-09
  6.65063    -62.6 1.205e+04 8.835e-10
  6.66063    -62.7 1.212e+04 9.024e-10
  6.67537    -62.1 1.161e+04 7.227e-10
  6.69538    -61.4 1.122e+04 6.381e-10
  6.71539    -60.3 1.108e+04 6.184e-10
  6.73540    -59.0 1.106e+04 6.179e-10
  6.75065    -57.6 1.110e+04 6.437e-10
  6.76066    -57.2 1.145e+04 7.684e-10
  6.77542    -55.8 1.153e+04 7.952e-10
  6.78690    -54.6 1.162e+04 8.264e-10
  6.79690    -55.6 1.158e+04 9.432e-10
  6.81545    -54.4 1.161e+04 9.712e-10
  6.83546    -53.1 1.160e+04 9.886e-10
  6.85067    -51.8 1.159e+04 9.967e-10
  6.86068    -51.4 1.173e+04 1.087e-09
  6.87548    -50.0 1.165e+04 1.055e-09
  6.89549    -48.6 1.152e+04 9.975e-10
  6.91550    -47.2 1.133e+04 9.234e-10
  6.93552    -45.7 1.116e+04 8.426e-10
  6.95070    -44.5 1.103e+04 7.665e-10
  6.96070    -43.9 1.110e+04 7.835e-10
  6.97554    -42.9 1.103e+04 7.185e-10
  6.98845    -42.1 1.098e+04 6.805e-10
  6.99845    -43.4 1.099e+04 6.759e-10
  7.01556    -43.0 1.099e+04 6.661e-10
  7.03557    -42.9 1.111e+04 6.728e-10
  7.05072    -42.7 1.137e+04 7.244e-10
  7.06072    -42.4 1.169e+04 8.391e-10
  7.07560    -42.1 1.200e+04 9.591e-10
  7.09561    -41.8 1.226e+04 1.083e-09
  7.11562    -41.4 1.242e+04 1.177e-09
  7.13563    -40.9 1.245e+04 1.222e-09
  7.15074    -40.4 1.238e+04 1.215e-09
  7.16075    -39.4 1.276e+04 1.433e-09
  7.17565    -38.8 1.249e+04 1.297e-09
  7.19000    -38.5 1.214e+04 1.103e-09
  7.20001    -40.0 1.203e+04 1.052e-09
  7.21568    -40.1 1.149e+04 7.921e-10
  7.23569    -41.0 1.113e+04 6.144e-10
  7.25076    -42.8 1.113e+04 5.687e-10
  7.26077    -42.4 1.102e+04 5.471e-10
  7.27571    -45.7 1.165e+04 5.675e-10
  7.29572    -50.1 1.273e+04 8.310e-10
  7.31573    -52.9 1.322e+04 1.365e-09
  7.33574    -54.2 1.370e+04 2.064e-09
  7.35078    -56.0 1.514e+04 2.973e-09
  7.36079    -56.1 1.562e+04 3.362e-09
  7.37577    -60.9 1.858e+04 5.534e-09
  7.39073    -66.7 2.024e+04 7.791e-09
  7.39646    -67.5 2.045e+04 8.063e-09
  7.40151    -68.3 2.047e+04 8.354e-09
  7.41074    -73.4 2.088e+04 1.061e-08
  7.42069    -76.4 2.102e+04 1.122e-08
  7.43070    -80.7 2.048e+04 1.140e-08
  7.44071    -83.5 1.977e+04 1.062e-08
  7.45071    -86.4 1.898e+04 8.735e-09
  7.46071    -88.5 1.902e+04 7.924e-09
  7.47072    -91.6 1.849e+04 5.570e-09
  7.48073    -94.8 1.783e+04 4.050e-09
  7.49579    -98.3 1.681e+04 3.016e-09
  7.51585   -104.9 1.449e+04 1.710e-09
  7.53586   -109.8 1.250e+04 1.075e-09
  7.55083   -110.8 1.192e+04 9.316e-10
  7.56083   -111.2 1.218e+04 1.032e-09
  7.57588   -111.3 1.197e+04 9.698e-10
  7.59310   -111.3 1.183e+04 9.275e-10
  7.60311   -109.4 1.176e+04 9.206e-10
  7.61590   -109.3 1.163e+04 8.832e-10
  7.63592   -108.9 1.153e+04 8.481e-10
  7.65085   -108.4 1.142e+04 8.107e-10
  7.66086   -108.8 1.151e+04 8.368e-10
  7.67594   -108.2 1.139e+04 7.987e-10
  7.69595   -107.5 1.126e+04 7.565e-10
  7.71596   -106.8 1.109e+04 7.071e-10
  7.73597   -106.0 1.089e+04 6.518e-10
  7.75087   -105.2 1.066e+04 5.903e-10
  7.76088   -105.4 1.082e+04 6.477e-10
  7.77600   -104.5 1.060e+04 5.821e-10
  7.79466   -103.6 1.038e+04 5.164e-10
  7.80466   -102.9 1.028e+04 4.908e-10
  7.81602   -101.9 1.000e+04 4.175e-10
  7.83603   -100.9 9.786e+03 3.615e-10
  7.85090    -99.8 9.728e+03 3.333e-10
  7.86090   -100.5 9.827e+03 3.814e-10
  7.87605    -99.5 9.772e+03 3.572e-10
  7.89606    -98.7 9.835e+03 3.507e-10
  7.91608    -98.1 9.952e+03 3.520e-10
  7.93609    -97.7 9.999e+03 3.539e-10
  7.95092    -97.2 1.005e+04 3.588e-10
  7.96092    -97.1 9.957e+03 3.744e-10
  7.97611    -96.4 9.985e+03 3.699e-10
  7.99612    -95.7 1.004e+04 3.685e-10
  8.01613    -94.6 1.012e+04 3.557e-10
  8.03614    -93.9 1.018e+04 3.581e-10
  8.05094    -93.9 1.018e+04 3.583e-10
  8.06095    -93.3 1.017e+04 3.601e-10
  8.07617    -93.0 1.018e+04 3.639e-10
  8.09618    -92.7 1.018e+04 3.715e-10
  8.11619    -92.7 1.021e+04 4.201e-10
  8.13620    -92.6 1.056e+04 5.209e-10
  8.15096    -92.4 1.104e+04 6.872e-10
  8.16097    -91.2 1.106e+04 6.826e-10
  8.17622    -90.9 1.155e+04 9.118e-10
  8.19624    -90.2 1.203e+04 1.193e-09
  8.20777    -89.4 1.250e+04 1.495e-09
  8.21777    -89.4 1.214e+04 1.241e-09
  8.23626    -88.7 1.258e+04 1.514e-09
  8.25099    -88.1 1.298e+04 1.767e-09
  8.26099    -87.6 1.323e+04 1.911e-09
  8.27628    -87.1 1.356e+04 2.151e-09
  8.29629    -86.7 1.378e+04 2.295e-09
  8.31630    -86.3 1.390e+04 2.337e-09
  8.33631    -86.0 1.402e+04 2.371e-09
  8.35101    -85.7 1.411e+04 2.343e-09
  8.36101    -84.9 1.399e+04 2.219e-09
  8.37634    -84.7 1.397e+04 1.989e-09
  8.39635    -84.8 1.398e+04 1.737e-09
  8.40932    -85.3 1.408e+04 1.513e-09
  8.41932    -85.4 1.558e+04 3.165e-09
  8.43637    -86.3 1.638e+04 3.487e-09
  8.45103    -87.5 1.722e+04 3.828e-09
  8.46104    -88.1 1.715e+04 3.015e-09
