# Columns:
#   distance along LOS (in CHIMPs)
#   peculiar velocity  (in km/s)
#   temperature (K)
#   HI number density
# pos=(17.0289,10.7221,16.1149), angles=(1.25308,3.10267)
  0.00257   -265.0 1.091e+04 2.843e-10
  0.02572   -264.3 1.082e+04 2.462e-10
  0.05712   -263.4 1.077e+04 2.120e-10
  0.07770   -263.3 1.075e+04 2.147e-10
  0.10295   -262.5 1.071e+04 1.817e-10
  0.12352   -261.9 1.061e+04 1.730e-10
  0.14918   -261.1 1.059e+04 1.490e-10
  0.18137   -260.4 1.058e+04 1.330e-10
  0.20194   -260.1 1.049e+04 1.214e-10
  0.23148   -259.4 1.051e+04 1.172e-10
  0.27263   -258.8 1.053e+04 1.166e-10
  0.30562   -258.5 1.071e+04 1.246e-10
  0.32619   -258.5 1.072e+04 1.223e-10
  0.35494   -258.5 1.091e+04 1.455e-10
  0.39609   -258.7 1.106e+04 1.734e-10
  0.42986   -259.0 1.118e+04 2.030e-10
  0.45044   -259.2 1.118e+04 1.916e-10
  0.47839   -259.5 1.121e+04 2.120e-10
  0.51954   -259.8 1.116e+04 2.341e-10
  0.55411   -259.9 1.108e+04 2.661e-10
  0.57469   -259.7 1.096e+04 2.162e-10
  0.60185   -259.5 1.088e+04 2.460e-10
  0.64300   -259.3 1.096e+04 2.980e-10
  0.67836   -259.2 1.120e+04 3.767e-10
  0.69893   -258.8 1.103e+04 2.898e-10
  0.72530   -258.8 1.138e+04 3.837e-10
  0.76645   -258.9 1.175e+04 5.149e-10
  0.80261   -259.7 1.205e+04 6.590e-10
  0.82318   -259.2 1.189e+04 5.584e-10
  0.84876   -260.4 1.203e+04 6.943e-10
  0.88991   -261.9 1.198e+04 7.536e-10
  0.92685   -263.3 1.190e+04 7.578e-10
  0.94743   -262.6 1.179e+04 6.987e-10
  0.97221   -263.7 1.142e+04 6.660e-10
  1.01336   -264.5 1.097e+04 5.092e-10
  1.05110   -265.1 1.063e+04 3.629e-10
  1.07168   -264.0 1.058e+04 3.441e-10
  1.09567   -264.4 1.037e+04 2.523e-10
  1.13682   -264.7 1.023e+04 2.110e-10
  1.16635   -264.8 1.011e+04 1.974e-10
  1.18430   -264.3 1.012e+04 2.039e-10
  1.19593   -263.1 1.010e+04 1.833e-10
  1.21912   -263.2 9.995e+03 1.742e-10
  1.26027   -263.1 9.899e+03 1.679e-10
  1.29960   -262.9 9.797e+03 1.586e-10
  1.32017   -261.5 9.808e+03 1.520e-10
  1.34258   -261.2 9.700e+03 1.424e-10
  1.38373   -260.8 9.575e+03 1.266e-10
  1.42384   -260.1 9.453e+03 1.083e-10
  1.44442   -258.6 9.503e+03 1.148e-10
  1.46603   -257.8 9.412e+03 9.866e-11
  1.50718   -256.9 9.333e+03 8.527e-11
  1.54809   -255.9 9.268e+03 7.572e-11
  1.56867   -254.4 9.354e+03 8.377e-11
  1.58949   -253.5 9.312e+03 7.693e-11
  1.63064   -252.6 9.287e+03 7.247e-11
  1.67179   -251.8 9.270e+03 6.985e-11
  1.69292   -251.0 9.257e+03 6.885e-11
  1.71349   -249.5 9.321e+03 7.525e-11
  1.75409   -248.8 9.286e+03 7.266e-11
  1.79525   -248.0 9.268e+03 7.186e-11
  1.81716   -247.2 9.261e+03 7.497e-11
  1.83774   -245.6 9.293e+03 7.378e-11
  1.87755   -244.8 9.246e+03 7.602e-11
  1.91870   -243.9 9.254e+03 7.866e-11
  1.94141   -242.9 9.207e+03 8.451e-11
  1.96199   -241.4 9.262e+03 7.985e-11
  2.00101   -240.4 9.218e+03 8.553e-11
  2.04216   -239.3 9.227e+03 9.157e-11
  2.06566   -238.3 9.279e+03 9.790e-11
  2.08624   -237.1 9.316e+03 9.382e-11
  2.12446   -236.2 9.408e+03 1.031e-10
  2.16561   -235.5 9.517e+03 1.178e-10
  2.18991   -235.0 9.638e+03 1.459e-10
  2.21048   -234.1 9.677e+03 1.505e-10
  2.22975   -233.6 9.829e+03 2.047e-10
  2.25032   -234.4 9.984e+03 2.844e-10
  2.28907   -233.8 1.014e+04 3.641e-10
  2.31415   -233.3 1.027e+04 4.264e-10
  2.33473   -232.8 1.027e+04 4.304e-10
  2.37137   -232.5 1.032e+04 4.566e-10
  2.41252   -232.2 1.033e+04 4.602e-10
  2.43840   -231.8 1.025e+04 4.441e-10
  2.45898   -231.2 1.024e+04 4.461e-10
  2.49483   -230.6 1.012e+04 3.906e-10
  2.53598   -229.8 9.986e+03 3.222e-10
  2.56265   -228.9 9.838e+03 2.570e-10
  2.58323   -228.5 9.796e+03 2.549e-10
  2.61828   -227.4 9.621e+03 1.990e-10
  2.65943   -226.2 9.452e+03 1.591e-10
  2.68690   -224.9 9.334e+03 1.359e-10
  2.70747   -224.5 9.326e+03 1.357e-10
  2.74174   -223.1 9.287e+03 1.260e-10
  2.78289   -221.7 9.282e+03 1.236e-10
  2.81115   -220.4 9.285e+03 1.233e-10
  2.83172   -220.1 9.288e+03 1.235e-10
  2.86519   -218.9 9.348e+03 1.243e-10
  2.90634   -217.7 9.418e+03 1.306e-10
  2.93539   -216.4 9.467e+03 1.411e-10
  2.95597   -216.3 9.564e+03 1.492e-10
  2.98865   -214.9 9.602e+03 1.652e-10
  3.02980   -213.3 9.634e+03 1.809e-10
  3.05964   -211.6 9.672e+03 1.931e-10
  3.08022   -211.6 9.661e+03 2.199e-10
  3.11210   -209.9 9.677e+03 2.249e-10
  3.15325   -208.4 9.730e+03 2.348e-10
  3.18389   -207.1 9.892e+03 2.661e-10
  3.20446   -207.1 9.859e+03 2.780e-10
  3.23556   -205.9 1.019e+04 3.472e-10
  3.27257   -204.9 1.054e+04 4.712e-10
  3.29315   -204.8 1.065e+04 4.674e-10
  3.30814   -204.6 1.113e+04 6.937e-10
  3.32871   -205.1 1.065e+04 6.010e-10
  3.35901   -206.5 1.186e+04 1.111e-09
  3.38045   -207.5 1.269e+04 1.812e-09
  3.39064   -208.7 1.290e+04 1.838e-09
  3.41026   -210.0 1.438e+04 3.313e-09
  3.43083   -211.0 1.591e+04 6.078e-09
  3.44248   -211.9 1.720e+04 9.981e-09
  3.45276   -213.5 1.680e+04 9.247e-09
  3.47198   -215.2 1.708e+04 1.052e-08
  3.49256   -217.1 1.702e+04 1.057e-08
  3.50460   -218.3 1.625e+04 8.034e-09
  3.51489   -219.7 1.508e+04 5.366e-09
  3.53371   -220.8 1.389e+04 3.031e-09
  3.55429   -222.3 1.262e+04 1.588e-09
  3.56672   -223.6 1.161e+04 8.929e-10
  3.57701   -223.9 1.111e+04 7.754e-10
  3.59544   -224.0 1.066e+04 5.281e-10
  3.61601   -223.8 1.041e+04 4.036e-10
  3.64698   -222.5 1.030e+04 3.482e-10
  3.68088   -222.0 1.032e+04 3.417e-10
  3.70146   -222.0 1.021e+04 3.304e-10
  3.72938   -221.3 1.019e+04 3.293e-10
  3.77053   -220.7 1.037e+04 3.974e-10
  3.80513   -220.0 1.081e+04 5.783e-10
  3.82570   -220.0 1.084e+04 6.446e-10
  3.85283   -219.5 1.124e+04 8.362e-10
  3.89398   -219.1 1.139e+04 8.853e-10
  3.92475   -218.8 1.145e+04 8.003e-10
  3.93947   -218.7 1.127e+04 6.081e-10
  3.94985   -219.0 1.147e+04 8.285e-10
  3.96590   -218.6 1.114e+04 4.709e-10
  3.98638   -218.6 1.082e+04 3.366e-10
  4.00159   -218.5 1.063e+04 2.853e-10
  4.01188   -218.4 1.072e+04 2.980e-10
  4.02753   -218.1 1.058e+04 2.711e-10
  4.05353   -218.1 1.055e+04 2.511e-10
  4.07410   -217.2 1.064e+04 2.408e-10
  4.09964   -216.9 1.081e+04 2.239e-10
  4.14089   -215.6 1.054e+04 1.856e-10
  4.17787   -214.5 1.036e+04 1.695e-10
  4.19845   -215.0 1.117e+04 2.157e-10
  4.22320   -215.0 1.118e+04 1.949e-10
  4.26435   -215.8 1.181e+04 2.425e-10
  4.30212   -216.4 1.233e+04 4.896e-10
  4.32269   -217.9 1.302e+04 1.200e-09
  4.33587   -217.4 1.264e+04 1.221e-09
  4.35645   -214.7 1.254e+04 6.965e-10
  4.38780   -214.5 1.258e+04 1.101e-09
  4.42637   -214.2 1.249e+04 1.456e-09
  4.44694   -215.0 1.268e+04 1.838e-09
  4.47011   -214.1 1.263e+04 1.879e-09
  4.51126   -213.4 1.259e+04 1.883e-09
  4.55061   -212.7 1.251e+04 1.806e-09
  4.57119   -213.1 1.276e+04 2.051e-09
  4.59356   -212.5 1.274e+04 1.939e-09
  4.63471   -212.1 1.261e+04 1.644e-09
  4.67486   -211.7 1.227e+04 1.245e-09
  4.69544   -212.0 1.265e+04 1.525e-09
  4.71702   -211.3 1.216e+04 1.116e-09
  4.75817   -210.2 1.163e+04 7.875e-10
  4.79911   -208.6 1.122e+04 5.761e-10
  4.81969   -208.5 1.146e+04 7.308e-10
  4.84047   -206.4 1.114e+04 5.743e-10
  4.88162   -204.2 1.101e+04 4.896e-10
  4.92278   -202.0 1.094e+04 4.412e-10
  4.94393   -199.6 1.091e+04 4.160e-10
  4.96451   -199.2 1.090e+04 4.052e-10
  5.00508   -196.8 1.087e+04 3.703e-10
  5.04623   -194.4 1.084e+04 3.440e-10
  5.06818   -192.1 1.083e+04 3.217e-10
  5.08876   -191.5 1.075e+04 2.693e-10
  5.12853   -189.0 1.074e+04 2.462e-10
  5.16969   -186.6 1.075e+04 2.276e-10
  5.19243   -184.0 1.077e+04 2.142e-10
  5.21300   -183.2 1.067e+04 1.842e-10
  5.25199   -180.6 1.071e+04 1.789e-10
  5.29314   -178.0 1.073e+04 1.783e-10
  5.31668   -175.6 1.080e+04 1.783e-10
  5.33725   -174.8 1.068e+04 1.633e-10
  5.37545   -172.6 1.100e+04 1.806e-10
  5.39937   -170.7 1.108e+04 2.360e-10
  5.41995   -170.0 1.132e+04 3.600e-10
  5.44092   -168.2 1.144e+04 4.476e-10
  5.46150   -167.4 1.135e+04 4.036e-10
  5.49890   -165.7 1.148e+04 5.009e-10
  5.54005   -164.2 1.159e+04 5.920e-10
  5.56517   -162.9 1.167e+04 6.509e-10
  5.58575   -161.7 1.162e+04 6.116e-10
  5.62236   -160.2 1.165e+04 6.248e-10
  5.66351   -159.0 1.161e+04 6.096e-10
  5.68942   -157.9 1.151e+04 5.491e-10
  5.71000   -156.6 1.147e+04 5.163e-10
  5.74581   -155.0 1.140e+04 4.598e-10
  5.78696   -153.1 1.143e+04 4.252e-10
  5.81367   -151.4 1.146e+04 4.155e-10
  5.83424   -150.3 1.145e+04 4.158e-10
  5.86927   -148.7 1.151e+04 4.253e-10
  5.91042   -147.3 1.160e+04 4.481e-10
  5.93791   -145.9 1.167e+04 4.937e-10
  5.95849   -145.0 1.166e+04 5.098e-10
  5.99272   -143.6 1.169e+04 5.553e-10
  6.02349   -142.2 1.165e+04 6.326e-10
  6.04396   -141.2 1.170e+04 6.828e-10
  6.06197   -140.4 1.177e+04 7.236e-10
  6.07226   -140.0 1.169e+04 7.093e-10
  6.08512   -139.1 1.172e+04 7.317e-10
  6.11608   -138.1 1.170e+04 7.339e-10
  6.14694   -136.4 1.164e+04 7.518e-10
  6.16742   -135.9 1.162e+04 7.656e-10
  6.18622   -135.0 1.158e+04 7.890e-10
  6.19650   -134.4 1.152e+04 7.501e-10
  6.20857   -133.6 1.150e+04 7.557e-10
  6.22915   -132.9 1.146e+04 7.585e-10
  6.24834   -132.3 1.123e+04 7.484e-10
  6.25863   -131.8 1.129e+04 7.142e-10
  6.27030   -130.8 1.105e+04 7.193e-10
  6.29088   -129.7 1.099e+04 6.542e-10
  6.31056   -128.7 1.087e+04 5.517e-10
  6.33123   -127.8 1.088e+04 5.948e-10
  6.36309   -126.3 1.065e+04 4.885e-10
  6.40424   -124.2 1.033e+04 3.597e-10
  6.43491   -122.0 1.006e+04 2.533e-10
  6.45229   -120.8 1.012e+04 2.965e-10
  6.46277   -121.0 1.044e+04 4.134e-10
  6.48654   -118.5 1.015e+04 3.013e-10
  6.52769   -116.1 9.937e+03 2.258e-10
  6.55915   -113.6 9.744e+03 1.790e-10
  6.57973   -112.7 9.845e+03 1.932e-10
  6.61000   -110.2 9.717e+03 1.627e-10
  6.65115   -107.6 9.616e+03 1.483e-10
  6.68340   -104.9 9.573e+03 1.435e-10
  6.70398   -104.2 9.703e+03 1.603e-10
  6.73345   -101.5 9.687e+03 1.573e-10
  6.77460    -98.8 9.689e+03 1.568e-10
  6.80765    -96.4 9.763e+03 1.582e-10
  6.82822    -96.1 9.881e+03 1.875e-10
  6.85691    -94.3 1.012e+04 2.256e-10
  6.89806    -92.8 1.036e+04 3.501e-10
  6.93190    -91.3 1.075e+04 6.011e-10
  6.95247    -90.9 1.071e+04 5.639e-10
  6.98036    -89.5 1.108e+04 7.936e-10
  7.02151    -88.6 1.142e+04 1.004e-09
  7.05614    -88.2 1.170e+04 1.144e-09
  7.07672    -87.8 1.139e+04 8.438e-10
  7.10382    -87.7 1.167e+04 9.476e-10
  7.14497    -87.7 1.199e+04 1.091e-09
  7.17573    -87.2 1.223e+04 1.197e-09
  7.19048    -87.0 1.228e+04 1.236e-09
  7.20087    -86.9 1.223e+04 1.171e-09
  7.21689    -86.7 1.237e+04 1.290e-09
  7.23736    -86.3 1.240e+04 1.312e-09
  7.25261    -86.1 1.235e+04 1.318e-09
  7.26290    -85.8 1.244e+04 1.332e-09
  7.27852    -85.3 1.232e+04 1.291e-09
  7.29909    -85.1 1.206e+04 1.140e-09
  7.31473    -84.8 1.174e+04 9.403e-10
  7.32502    -84.4 1.193e+04 1.044e-09
  7.34024    -83.9 1.152e+04 8.312e-10
  7.36082    -83.1 1.132e+04 6.535e-10
  7.39178    -82.4 1.135e+04 5.311e-10
  7.42889    -81.9 1.128e+04 4.698e-10
  7.44946    -81.0 1.135e+04 5.270e-10
  7.47418    -80.1 1.116e+04 4.529e-10
  7.50560    -78.9 1.099e+04 3.807e-10
  7.52617    -79.3 1.100e+04 4.041e-10
  7.55314    -78.2 1.102e+04 3.668e-10
  7.57371    -77.9 1.116e+04 4.068e-10
  7.59764    -76.9 1.120e+04 3.774e-10
  7.63879    -76.1 1.133e+04 3.883e-10
  7.67738    -75.2 1.148e+04 4.376e-10
  7.69796    -74.6 1.141e+04 3.645e-10
  7.72109    -73.6 1.147e+04 3.789e-10
  7.76224    -72.5 1.149e+04 3.925e-10
  7.80163    -71.5 1.146e+04 3.858e-10
  7.82221    -70.6 1.120e+04 2.600e-10
  7.84455    -69.5 1.120e+04 2.439e-10
  7.88570    -68.7 1.133e+04 2.307e-10
  7.92588    -68.0 1.140e+04 2.306e-10
  7.94645    -67.5 1.156e+04 2.732e-10
  7.96800    -66.9 1.159e+04 3.546e-10
  8.00915    -66.2 1.159e+04 4.549e-10
  8.05013    -65.4 1.165e+04 5.343e-10
  8.09128    -63.6 1.172e+04 7.836e-10
  8.13261    -62.7 1.156e+04 6.050e-10
  8.17376    -62.0 1.140e+04 4.927e-10
  8.19495    -61.3 1.132e+04 4.618e-10
  8.21553    -60.8 1.114e+04 3.858e-10
  8.25606    -60.1 1.122e+04 4.138e-10
  8.29722    -59.4 1.146e+04 5.280e-10
  8.31920    -58.6 1.162e+04 6.111e-10
  8.33977    -57.8 1.144e+04 5.421e-10
  8.37952    -57.2 1.147e+04 5.325e-10
  8.42067    -56.9 1.145e+04 4.446e-10
  8.44345    -57.0 1.145e+04 4.098e-10
  8.46402    -56.3 1.141e+04 2.904e-10
  8.50297    -56.6 1.148e+04 3.089e-10
  8.54413    -56.7 1.151e+04 4.953e-10
  8.56769    -56.0 1.155e+04 7.430e-10
  8.57199    -55.8 1.136e+04 5.133e-10
  8.58957    -56.1 1.137e+04 7.038e-10
  8.62643    -55.3 1.154e+04 7.860e-10
  8.66758    -55.0 1.168e+04 7.549e-10
  8.69194    -55.1 1.180e+04 6.103e-10
  8.71252    -54.6 1.168e+04 5.346e-10
  8.74988    -55.2 1.182e+04 4.909e-10
  8.79104    -56.5 1.193e+04 5.115e-10
  8.81619    -58.1 1.208e+04 7.793e-10
  8.83676    -57.3 1.191e+04 5.526e-10
  8.87334    -58.7 1.209e+04 8.537e-10
  8.91449    -59.4 1.226e+04 1.096e-09
  8.94044    -59.8 1.225e+04 1.118e-09
  8.96101    -59.2 1.188e+04 8.024e-10
  8.99680    -59.0 1.163e+04 6.240e-10
  9.03795    -58.4 1.137e+04 3.963e-10
  9.06468    -58.0 1.113e+04 3.033e-10
  9.08526    -57.1 1.107e+04 2.550e-10
  9.12025    -56.2 1.103e+04 2.371e-10
  9.16140    -55.3 1.106e+04 2.421e-10
  9.18893    -54.4 1.107e+04 3.019e-10
  9.20951    -53.4 1.106e+04 2.944e-10
  9.24371    -52.1 1.106e+04 3.824e-10
  9.28486    -50.6 1.108e+04 4.375e-10
  9.31318    -49.2 1.105e+04 4.439e-10
  9.33376    -48.1 1.107e+04 4.233e-10
  9.36716    -46.5 1.089e+04 3.828e-10
  9.40831    -44.7 1.078e+04 2.748e-10
  9.43743    -43.1 1.070e+04 1.895e-10
  9.45800    -42.2 1.068e+04 1.889e-10
  9.49062    -40.5 1.057e+04 1.374e-10
  9.53177    -38.6 1.049e+04 1.015e-10
  9.56168    -36.5 1.050e+04 7.377e-11
  9.58225    -35.7 1.045e+04 8.188e-11
  9.61182    -33.6 1.050e+04 6.179e-11
  9.63240    -33.7 1.047e+04 7.638e-11
  9.65522    -31.7 1.044e+04 6.821e-11
  9.68592    -29.7 1.045e+04 6.745e-11
  9.70650    -28.9 1.043e+04 7.919e-11
  9.73753    -26.8 1.047e+04 8.165e-11
  9.77868    -24.7 1.036e+04 1.040e-10
  9.81017    -22.4 1.034e+04 1.310e-10
  9.83075    -21.1 1.045e+04 1.146e-10
  9.86098    -18.8 1.052e+04 1.262e-10
  9.90213    -16.8 1.068e+04 1.450e-10
  9.93442    -14.8 1.080e+04 1.708e-10
  9.95499    -14.5 1.100e+04 1.454e-10
  9.98444    -12.2 1.088e+04 1.922e-10
 10.02559     -9.9 1.090e+04 2.036e-10
 10.05867     -7.7 1.080e+04 1.828e-10
 10.07924     -7.3 1.085e+04 2.207e-10
 10.10789     -5.5 1.091e+04 1.984e-10
 10.14904     -4.3 1.109e+04 2.242e-10
 10.18291     -3.9 1.141e+04 3.232e-10
 10.20349     -3.6 1.167e+04 4.608e-10
 10.23135     -2.2 1.185e+04 8.743e-10
 10.27250     -0.3 1.206e+04 1.241e-09
 10.30716      1.7 1.190e+04 1.095e-09
 10.32774      2.0 1.177e+04 1.084e-09
 10.35480      4.1 1.127e+04 6.241e-10
 10.39595      5.4 1.118e+04 3.264e-10
 10.43141      5.9 1.117e+04 2.107e-10
 10.45199      6.6 1.101e+04 1.723e-10
 10.47826      8.2 1.093e+04 1.679e-10
 10.51941      9.8 1.108e+04 1.839e-10
 10.55566     11.0 1.126e+04 2.495e-10
 10.57623     11.9 1.114e+04 2.333e-10
 10.60171     13.2 1.117e+04 4.393e-10
 10.64286     15.2 1.140e+04 8.505e-10
 10.67522     17.2 1.176e+04 1.096e-09
 10.69168     17.2 1.162e+04 7.766e-10
 10.70048     18.2 1.174e+04 7.842e-10
 10.72517     19.6 1.187e+04 8.098e-10
 10.76632     20.9 1.176e+04 7.324e-10
 10.80415     21.8 1.164e+04 5.626e-10
 10.82473     22.4 1.194e+04 6.744e-10
 10.84862     22.9 1.206e+04 5.748e-10
 10.88977     23.0 1.218e+04 5.911e-10
 10.92840     23.4 1.227e+04 6.869e-10
 10.94898     22.9 1.206e+04 6.640e-10
 10.97208     23.7 1.178e+04 7.266e-10
 11.01323     25.0 1.167e+04 6.811e-10
 11.05265     26.5 1.149e+04 5.468e-10
 11.07322     26.4 1.150e+04 3.844e-10
 11.09553     27.7 1.148e+04 2.716e-10
 11.13668     28.6 1.152e+04 1.907e-10
 11.17690     29.5 1.129e+04 1.515e-10
 11.19747     29.3 1.151e+04 1.626e-10
 11.21899     30.8 1.143e+04 1.660e-10
 11.26014     32.3 1.127e+04 1.869e-10
 11.30114     33.8 1.103e+04 2.485e-10
 11.34230     36.0 1.076e+04 4.412e-10
 11.38359     38.1 1.083e+04 4.752e-10
 11.42475     40.0 1.083e+04 4.598e-10
 11.44597     41.9 1.077e+04 4.133e-10
 11.46654     41.8 1.044e+04 3.663e-10
 11.50705     43.5 1.032e+04 3.079e-10
 11.54820     45.3 1.020e+04 2.541e-10
 11.57021     47.2 1.013e+04 2.076e-10
 11.59079     47.3 9.896e+03 2.093e-10
 11.63050     49.2 9.851e+03 1.881e-10
 11.67166     51.1 9.803e+03 1.741e-10
 11.69446     53.1 9.802e+03 1.736e-10
 11.71504     53.5 9.734e+03 1.991e-10
 11.73862     55.4 9.760e+03 2.070e-10
 11.75920     55.4 9.485e+03 1.200e-10
 11.79511     57.3 9.477e+03 1.369e-10
 11.81871     59.2 9.494e+03 1.609e-10
 11.83929     59.6 9.591e+03 1.523e-10
 11.87741     61.4 9.640e+03 1.759e-10
 11.91857     63.2 9.738e+03 2.048e-10
 11.94296     64.7 9.863e+03 2.378e-10
 11.96353     64.8 9.962e+03 2.145e-10
 12.00087     66.1 1.011e+04 2.599e-10
 12.04202     67.3 1.044e+04 3.396e-10
 12.06721     68.5 1.097e+04 5.008e-10
 12.08778     68.6 1.061e+04 4.548e-10
 12.12432     69.7 1.114e+04 7.603e-10
 12.16548     70.7 1.169e+04 1.368e-09
 12.19145     71.9 1.213e+04 2.071e-09
 12.21203     72.4 1.184e+04 2.034e-09
 12.24778     73.6 1.225e+04 2.345e-09
 12.28893     74.4 1.227e+04 2.334e-09
 12.31570     75.2 1.205e+04 2.167e-09
 12.33628     75.9 1.222e+04 2.398e-09
 12.37124     76.7 1.179e+04 1.917e-09
 12.41239     77.8 1.095e+04 1.273e-09
 12.43995     79.0 1.011e+04 7.409e-10
 12.46052     79.6 1.013e+04 6.491e-10
 12.49469     80.1 9.529e+03 3.477e-10
 12.53584     80.5 9.158e+03 2.174e-10
 12.56420     81.3 8.938e+03 1.710e-10
 12.58477     81.6 8.660e+03 2.057e-10
 12.61815     83.0 8.649e+03 2.055e-10
 12.65930     84.6 8.665e+03 2.063e-10
 12.68844     86.1 8.690e+03 2.078e-10
 12.70902     86.9 8.794e+03 3.028e-10
 12.74160     88.2 8.792e+03 3.000e-10
 12.78144     89.6 8.757e+03 2.889e-10
 12.80202     89.3 8.962e+03 3.310e-10
 12.81269     90.8 8.909e+03 3.168e-10
 12.83327     91.6 9.010e+03 3.652e-10
 12.86506     93.1 8.917e+03 3.225e-10
 12.90621     94.6 8.846e+03 2.764e-10
 12.93694     96.0 8.817e+03 2.283e-10
 12.95752     96.1 8.838e+03 1.888e-10
 12.98851     97.1 8.808e+03 1.606e-10
 13.02966     98.0 8.750e+03 1.571e-10
 13.06119     98.9 8.749e+03 1.604e-10
 13.08176     99.1 8.660e+03 1.759e-10
 13.11197    100.0 8.713e+03 2.002e-10
 13.15312    100.8 8.797e+03 2.295e-10
 13.18544    101.6 8.883e+03 2.565e-10
 13.20601    101.9 8.877e+03 2.178e-10
 13.23542    102.5 8.947e+03 2.334e-10
 13.27657    103.0 9.056e+03 2.585e-10
 13.30968    103.4 9.234e+03 3.015e-10
 13.33026    103.3 9.166e+03 2.582e-10
 13.35888    103.7 9.407e+03 3.363e-10
 13.40003    104.0 9.701e+03 4.358e-10
 13.43393    103.8 9.994e+03 5.401e-10
 13.45451    103.7 1.006e+04 5.606e-10
 13.48233    103.3 1.055e+04 7.152e-10
 13.52348    102.7 1.110e+04 8.175e-10
 13.55818    101.6 1.127e+04 8.186e-10
 13.57875    101.1 1.156e+04 1.146e-09
 13.60579     99.9 1.153e+04 1.080e-09
 13.64694     99.2 1.133e+04 7.775e-10
 13.68243     98.6 1.110e+04 4.028e-10
 13.70300     97.9 1.100e+04 6.565e-10
 13.72924     97.3 1.065e+04 3.355e-10
 13.77039     96.7 1.018e+04 2.226e-10
 13.80667     96.8 9.848e+03 2.143e-10
 13.82725     97.3 1.001e+04 3.015e-10
 13.84484     98.1 9.823e+03 2.487e-10
 13.86542     98.5 9.798e+03 2.655e-10
 13.89385     99.4 9.552e+03 2.505e-10
 13.93092    100.5 9.414e+03 2.332e-10
 13.95150    100.9 9.494e+03 1.775e-10
 13.97615    101.8 9.476e+03 1.495e-10
 14.01730    102.7 9.503e+03 1.333e-10
 14.05517    103.7 9.529e+03 1.221e-10
 14.07575    103.8 9.468e+03 1.079e-10
 14.09961    104.9 9.456e+03 1.037e-10
 14.14076    106.0 9.447e+03 9.383e-11
 14.17942    106.9 9.443e+03 7.884e-11
 14.19999    107.4 9.425e+03 8.337e-11
 14.22306    108.3 9.444e+03 6.830e-11
 14.26421    108.9 9.464e+03 5.789e-11
 14.30366    109.6 9.468e+03 5.760e-11
 14.32424    110.1 9.550e+03 6.760e-11
 14.34652    110.7 9.588e+03 7.089e-11
 14.38767    111.1 9.753e+03 8.591e-11
 14.42791    111.4 1.003e+04 1.234e-10
 14.44849    110.5 1.057e+04 2.277e-10
 14.45959    110.2 1.069e+04 2.675e-10
 14.48006    110.1 1.074e+04 2.975e-10
 14.50013    109.8 1.087e+04 3.541e-10
