# Columns:
#   distance along LOS (in CHIMPs)
#   peculiar velocity  (in km/s)
#   temperature (K)
#   HI number density
# pos=(11.3575,132.91,128.036), angles=(2.87668,4.17722)
  0.00302    -88.7 1.061e+04 8.914e-10
  0.01537    -88.1 1.070e+04 9.312e-10
  0.02549    -88.3 1.072e+04 9.300e-10
  0.03640    -87.7 1.086e+04 9.949e-10
  0.05664    -87.0 1.103e+04 1.085e-09
  0.07688    -86.5 1.122e+04 1.199e-09
  0.09711    -85.9 1.141e+04 1.336e-09
  0.10933    -85.2 1.165e+04 1.504e-09
  0.11868    -85.6 1.156e+04 1.462e-09
  0.12671    -85.6 1.151e+04 1.342e-09
  0.13759    -85.1 1.167e+04 1.435e-09
  0.15782    -84.6 1.180e+04 1.506e-09
  0.17806    -84.2 1.190e+04 1.553e-09
  0.19316    -83.8 1.203e+04 1.564e-09
  0.20328    -84.0 1.141e+04 1.074e-09
  0.21854    -84.0 1.146e+04 9.721e-10
  0.23877    -84.1 1.146e+04 8.779e-10
  0.25901    -84.4 1.143e+04 8.069e-10
  0.27067    -84.8 1.132e+04 7.590e-10
  0.27854    -84.8 1.117e+04 6.869e-10
  0.28712    -85.2 1.024e+04 4.312e-10
  0.29948    -85.2 1.022e+04 4.289e-10
  0.31972    -85.2 1.025e+04 4.359e-10
  0.33996    -85.1 1.030e+04 4.609e-10
  0.36020    -84.8 1.034e+04 4.881e-10
  0.37095    -84.2 1.031e+04 5.074e-10
  0.38107    -84.2 1.004e+04 4.420e-10
  0.40067    -83.7 1.012e+04 4.792e-10
  0.41474    -82.9 1.018e+04 5.019e-10
  0.42485    -83.0 1.031e+04 5.958e-10
  0.44115    -82.2 1.038e+04 6.360e-10
  0.45479    -81.3 1.039e+04 6.526e-10
  0.47512    -80.4 1.008e+04 5.466e-10
  0.51217    -78.5 1.007e+04 5.506e-10
  0.55265    -76.5 9.863e+03 4.911e-10
  0.59312    -74.2 9.606e+03 3.944e-10
  0.62266    -71.9 9.310e+03 2.959e-10
  0.64289    -71.2 9.124e+03 2.792e-10
  0.67407    -69.1 9.031e+03 2.331e-10
  0.70277    -67.0 8.934e+03 1.905e-10
  0.72300    -66.4 9.009e+03 2.032e-10
  0.75502    -64.4 8.890e+03 1.566e-10
  0.79033    -62.5 8.778e+03 1.239e-10
  0.81056    -61.7 8.929e+03 1.596e-10
  0.83597    -59.8 8.898e+03 1.324e-10
  0.87644    -58.0 8.901e+03 1.226e-10
  0.91691    -56.3 8.917e+03 1.214e-10
  0.95739    -54.8 9.077e+03 1.370e-10
  0.97824    -53.3 9.231e+03 1.765e-10
  0.99131    -53.0 9.754e+03 3.092e-10
  1.01094    -52.5 9.951e+03 3.819e-10
  1.03834    -50.7 1.017e+04 4.416e-10
  1.07881    -49.2 1.018e+04 4.363e-10
  1.10907    -48.0 1.013e+04 4.243e-10
  1.12921    -46.9 9.972e+03 3.551e-10
  1.14581    -46.0 9.922e+03 2.961e-10
  1.15593    -46.0 1.025e+04 4.164e-10
  1.16968    -45.5 1.016e+04 3.603e-10
  1.20014    -44.6 1.007e+04 3.193e-10
  1.24071    -43.4 9.830e+03 2.620e-10
  1.27863    -41.6 9.683e+03 2.423e-10
  1.29887    -41.6 9.694e+03 2.493e-10
  1.31358    -39.9 9.708e+03 2.549e-10
  1.33382    -39.5 9.809e+03 2.682e-10
  1.36213    -37.7 1.003e+04 3.169e-10
  1.40261    -35.9 1.032e+04 4.223e-10
  1.44308    -33.9 1.059e+04 5.216e-10
  1.48125    -32.0 1.077e+04 5.743e-10
  1.50149    -31.8 1.093e+04 5.891e-10
  1.52403    -29.9 1.098e+04 6.077e-10
  1.56451    -27.9 1.096e+04 5.916e-10
  1.58680    -26.0 1.077e+04 4.966e-10
  1.60704    -25.1 1.052e+04 4.526e-10
  1.64545    -23.1 1.051e+04 4.184e-10
  1.66916    -21.1 1.054e+04 3.846e-10
  1.67918    -21.4 1.066e+04 4.146e-10
  1.69585    -20.9 1.064e+04 3.894e-10
  1.71609    -19.9 1.062e+04 3.437e-10
  1.73057    -19.0 1.059e+04 3.198e-10
  1.74069    -18.3 1.063e+04 3.555e-10
  1.75280    -17.5 1.068e+04 3.384e-10
  1.76292    -17.6 1.081e+04 3.522e-10
  1.77680    -16.9 1.080e+04 3.376e-10
  1.79704    -16.3 1.081e+04 3.346e-10
  1.81728    -15.6 1.081e+04 3.390e-10
  1.83664    -14.9 1.095e+04 3.613e-10
  1.84675    -15.7 1.099e+04 3.786e-10
  1.85775    -15.5 1.106e+04 4.161e-10
  1.87454    -15.5 1.116e+04 4.649e-10
  1.88465    -14.7 1.125e+04 4.734e-10
  1.89822    -15.0 1.128e+04 5.474e-10
  1.91846    -15.3 1.131e+04 6.302e-10
  1.93059    -15.4 1.132e+04 7.118e-10
  1.94071    -16.0 1.099e+04 6.845e-10
  1.95894    -15.7 1.094e+04 7.025e-10
  1.97917    -15.2 1.075e+04 6.999e-10
  1.99941    -14.4 1.063e+04 6.321e-10
  2.01443    -13.9 1.050e+04 5.155e-10
  2.02464    -14.7 1.047e+04 4.967e-10
  2.05020    -13.3 1.007e+04 3.097e-10
  2.09067    -12.3 9.919e+03 1.892e-10
  2.13115    -11.2 9.873e+03 1.297e-10
  2.16266     -9.4 9.821e+03 1.192e-10
  2.18290     -8.7 1.016e+04 1.616e-10
  2.19241     -6.7 1.006e+04 1.809e-10
  2.21265     -5.9 9.480e+03 1.122e-10
  2.25257     -3.7 9.632e+03 1.350e-10
  2.29304     -1.9 9.612e+03 1.946e-10
  2.33352     -0.8 1.044e+04 3.535e-10
  2.35998     -0.4 1.142e+04 5.848e-10
  2.37001     -0.7 1.165e+04 6.704e-10
  2.38392     -3.0 1.236e+04 1.114e-09
  2.40415     -3.6 1.275e+04 1.888e-09
  2.42439     -3.5 1.321e+04 2.534e-09
  2.44372     -2.5 1.372e+04 2.744e-09
  2.45384     -2.2 1.415e+04 3.342e-09
  2.46052     -1.9 1.401e+04 1.986e-09
  2.47064     -1.8 1.454e+04 2.482e-09
  2.48510     -6.2 1.283e+04 1.142e-09
  2.50534     -9.3 1.068e+04 6.740e-10
  2.52558     -9.6 1.016e+04 5.492e-10
  2.53768     -9.3 9.897e+03 4.858e-10
  2.54789     -9.0 1.034e+04 6.490e-10
  2.57637     -7.6 9.548e+03 4.115e-10
  2.61684     -5.8 8.994e+03 2.554e-10
  2.65731     -4.7 8.771e+03 1.817e-10
  2.69543     -3.3 8.732e+03 1.698e-10
  2.71566     -3.3 8.694e+03 1.683e-10
  2.73826     -1.5 8.587e+03 1.741e-10
  2.75877      0.4 8.585e+03 1.925e-10
  2.77900      1.8 8.351e+03 1.299e-10
  2.81921      3.7 8.495e+03 1.791e-10
  2.85969      5.7 8.815e+03 2.504e-10
  2.88333      7.7 9.201e+03 3.621e-10
  2.90357      8.1 8.800e+03 2.171e-10
  2.94064      9.5 9.189e+03 3.159e-10
  2.98111     11.2 9.505e+03 4.624e-10
  3.02158     13.4 9.659e+03 5.580e-10
  3.04670     15.4 9.653e+03 5.413e-10
  3.05588     17.3 9.746e+03 5.649e-10
  3.07124     16.9 9.586e+03 5.480e-10
  3.10253     19.1 9.466e+03 4.550e-10
  3.14301     20.1 9.165e+03 3.675e-10
  3.18348     21.4 8.855e+03 3.010e-10
  3.21868     22.8 8.647e+03 2.460e-10
  3.23891     22.4 8.836e+03 3.026e-10
  3.26443     23.6 8.721e+03 2.756e-10
  3.30491     24.8 8.766e+03 2.870e-10
  3.33463     25.8 9.038e+03 3.304e-10
  3.35487     28.0 9.130e+03 3.578e-10
  3.38585     28.7 9.299e+03 3.784e-10
  3.40649     27.5 9.630e+03 4.383e-10
  3.41651     27.4 9.659e+03 4.691e-10
  3.43625     26.9 9.917e+03 5.446e-10
  3.45649     26.5 1.004e+04 6.347e-10
  3.47673     26.6 1.008e+04 7.024e-10
  3.48852     26.7 1.010e+04 7.119e-10
  3.49190     27.8 1.009e+04 7.011e-10
  3.50034     27.8 1.018e+04 7.451e-10
  3.51720     27.8 1.016e+04 7.261e-10
  3.53744     21.6 1.355e+04 1.099e-09
  3.55768     11.1 1.690e+04 2.970e-09
  3.57280      5.8 1.693e+04 6.134e-09
  3.57902      3.9 1.705e+04 7.643e-09
  3.58408      3.2 1.738e+04 9.467e-09
  3.59299      2.6 1.716e+04 1.153e-08
  3.60311      1.9 1.671e+04 1.145e-08
  3.61323      2.9 1.708e+04 1.167e-08
  3.62094      3.6 1.782e+04 1.000e-08
  3.62600      4.0 1.806e+04 9.848e-09
  3.63244      0.8 1.720e+04 4.829e-09
  3.64260      0.6 1.783e+04 5.320e-09
  3.65790    -14.9 1.219e+04 6.179e-10
  3.66802    -18.5 1.137e+04 4.474e-10
  3.67910    -24.4 8.268e+03 2.158e-10
  3.69934    -26.0 7.905e+03 1.866e-10
  3.71957    -26.7 7.890e+03 1.843e-10
  3.74183    -27.5 7.940e+03 1.928e-10
  3.76217    -28.2 8.468e+03 2.636e-10
  3.79060    -29.1 8.758e+03 3.391e-10
  3.83107    -29.3 9.039e+03 4.251e-10
  3.87155    -28.7 9.135e+03 4.625e-10
  3.90960    -28.1 9.130e+03 4.660e-10
  3.92821    -28.4 9.334e+03 5.161e-10
  3.93063    -29.5 9.581e+03 5.628e-10
  3.95250    -28.9 9.455e+03 5.432e-10
  3.99297    -27.8 9.397e+03 5.372e-10
  4.03344    -26.4 9.373e+03 5.360e-10
  4.07392    -24.7 9.279e+03 5.173e-10
  4.09751    -22.9 9.194e+03 4.762e-10
  4.11775    -23.8 9.000e+03 3.894e-10
  4.15487    -23.2 9.108e+03 3.640e-10
  4.19534    -23.3 9.509e+03 3.937e-10
  4.21866    -23.5 1.007e+04 5.135e-10
  4.23890    -22.0 8.629e+03 2.038e-10
  4.26518    -22.7 9.583e+03 3.558e-10
  4.28542    -23.5 9.559e+03 3.920e-10
  4.31677    -23.9 1.045e+04 6.700e-10
  4.35724    -24.3 1.159e+04 1.079e-09
  4.39771    -24.8 1.252e+04 1.391e-09
  4.42797    -25.4 1.276e+04 1.490e-09
  4.44277    -26.0 1.261e+04 1.461e-09
  4.45299    -25.7 1.184e+04 1.201e-09
  4.47866    -26.5 1.203e+04 1.299e-09
  4.50650    -27.1 1.173e+04 1.231e-09
  4.51652    -26.4 1.165e+04 1.123e-09
  4.52661    -26.7 1.144e+04 1.023e-09
  4.53673    -26.2 1.148e+04 1.045e-09
  4.54930    -26.5 1.127e+04 9.308e-10
  4.56954    -27.0 1.109e+04 8.384e-10
  4.58977    -27.6 1.093e+04 7.623e-10
  4.61001    -28.2 1.078e+04 7.048e-10
  4.62056    -28.6 1.062e+04 6.606e-10
  4.63068    -28.1 1.060e+04 6.511e-10
  4.65037    -28.3 1.042e+04 6.118e-10
  4.66049    -27.8 1.047e+04 6.396e-10
  4.67072    -27.9 1.028e+04 5.932e-10
  4.69096    -27.9 1.009e+04 5.395e-10
  4.70440    -27.8 9.909e+03 4.852e-10
  4.71452    -27.4 9.891e+03 4.843e-10
  4.73143    -27.4 9.739e+03 4.379e-10
  4.76189    -27.6 9.575e+03 4.001e-10
  4.78843    -27.2 9.528e+03 3.946e-10
  4.80074    -26.5 9.521e+03 3.989e-10
  4.81467    -26.4 9.588e+03 4.348e-10
  4.83262    -25.9 9.584e+03 4.473e-10
  4.85286    -25.7 9.563e+03 4.484e-10
  4.87207    -25.0 9.554e+03 4.503e-10
  4.88219    -24.9 9.636e+03 4.746e-10
  4.89333    -24.6 9.607e+03 4.720e-10
  4.91357    -24.2 9.616e+03 4.720e-10
  4.93381    -24.1 9.679e+03 4.764e-10
  4.94842    -24.3 9.854e+03 5.172e-10
  4.95854    -24.4 1.002e+04 5.886e-10
  4.96603    -24.7 1.019e+04 6.606e-10
  4.97614    -24.7 1.034e+04 7.392e-10
  4.99452    -24.7 1.043e+04 8.206e-10
  5.01475    -24.4 1.043e+04 8.633e-10
  5.03499    -23.8 1.042e+04 8.760e-10
  5.04986    -23.3 1.033e+04 8.399e-10
  5.05998    -22.9 1.009e+04 7.423e-10
  5.07547    -22.6 9.959e+03 5.987e-10
  5.09238    -23.0 1.005e+04 4.991e-10
  5.10250    -22.8 1.013e+04 4.992e-10
  5.11594    -26.4 1.073e+04 4.810e-10
  5.13370    -32.7 1.216e+04 6.423e-10
  5.14382    -30.9 1.120e+04 3.785e-10
  5.15641    -35.6 1.183e+04 7.815e-10
  5.17665    -37.6 1.230e+04 1.529e-09
  5.19689    -38.2 1.297e+04 2.208e-09
  5.21713    -39.1 1.339e+04 2.404e-09
  5.22765    -40.8 1.358e+04 2.171e-09
  5.23676    -38.5 1.318e+04 2.155e-09
  5.24647    -38.9 1.341e+04 2.378e-09
  5.25760    -40.8 1.321e+04 1.747e-09
  5.27784    -43.3 1.209e+04 1.084e-09
  5.29807    -45.1 1.104e+04 7.558e-10
  5.31149    -46.0 1.053e+04 5.717e-10
  5.32161    -44.3 1.061e+04 5.481e-10
  5.33855    -45.1 1.016e+04 3.992e-10
  5.36900    -45.5 9.751e+03 2.969e-10
  5.39063    -46.5 9.227e+03 2.193e-10
  5.41087    -46.7 9.209e+03 2.206e-10
  5.45005    -47.3 8.795e+03 1.654e-10
  5.47935    -47.9 8.689e+03 1.528e-10
  5.49959    -45.8 8.664e+03 1.472e-10
  5.53100    -46.5 8.668e+03 1.477e-10
  5.57147    -47.6 8.863e+03 1.808e-10
  5.61195    -48.7 9.123e+03 2.420e-10
  5.64703    -49.7 9.312e+03 2.934e-10
  5.66726    -47.9 9.381e+03 3.012e-10
  5.67856    -49.0 9.504e+03 3.320e-10
  5.69880    -48.8 9.675e+03 3.717e-10
  5.73337    -50.1 9.731e+03 3.742e-10
  5.77384    -51.5 9.621e+03 3.330e-10
  5.80410    -52.2 9.412e+03 2.971e-10
  5.82233    -52.7 9.447e+03 2.983e-10
  5.83245    -53.5 9.720e+03 3.505e-10
  5.83474    -54.1 9.675e+03 3.576e-10
  5.84486    -54.1 9.815e+03 4.028e-10
  5.86472    -54.5 9.785e+03 4.312e-10
  5.88495    -55.9 9.872e+03 5.071e-10
  5.90519    -59.8 1.207e+04 8.198e-10
  5.91857    -65.7 1.560e+04 2.021e-09
  5.92869    -63.2 1.430e+04 1.458e-09
  5.94567    -68.1 1.676e+04 3.494e-09
  5.96590    -71.3 1.801e+04 7.479e-09
  5.97642    -73.1 1.878e+04 1.218e-08
  5.98654    -74.3 1.773e+04 9.803e-09
  6.00241    -76.1 1.795e+04 1.048e-08
  6.01253    -75.0 1.722e+04 8.090e-09
  6.02661    -77.2 1.740e+04 7.567e-09
  6.04685    -79.9 1.677e+04 5.230e-09
  6.06709    -83.4 1.545e+04 2.839e-09
  6.08625    -87.1 1.343e+04 1.532e-09
  6.09636    -85.7 1.375e+04 1.529e-09
  6.10756    -89.0 1.171e+04 9.424e-10
  6.12038    -90.9 1.081e+04 7.523e-10
  6.13050    -91.6 1.047e+04 6.892e-10
  6.14804    -92.0 1.042e+04 6.711e-10
  6.16827    -92.1 1.038e+04 6.558e-10
  6.18020    -92.2 1.035e+04 6.395e-10
  6.19032    -91.8 1.032e+04 6.372e-10
  6.20875    -91.8 1.025e+04 6.129e-10
  6.22899    -91.5 1.015e+04 5.743e-10
  6.24922    -91.2 1.003e+04 5.190e-10
  6.26404    -90.9 9.894e+03 4.574e-10
  6.26904    -90.9 9.807e+03 4.210e-10
  6.27447    -91.4 9.867e+03 4.406e-10
  6.29991    -91.3 9.881e+03 4.438e-10
  6.33795    -90.4 9.795e+03 4.258e-10
  6.35819    -90.1 9.418e+03 3.115e-10
  6.38096    -88.8 9.317e+03 3.033e-10
  6.42144    -87.3 9.263e+03 2.999e-10
  6.46191    -85.6 9.197e+03 2.946e-10
  6.50238    -83.9 9.140e+03 2.845e-10
  6.52586    -82.2 9.094e+03 2.737e-10
  6.54559    -82.3 9.026e+03 2.601e-10
  6.56260    -82.9 9.264e+03 3.014e-10
  6.58333    -81.3 9.377e+03 3.275e-10
  6.62381    -79.6 9.503e+03 3.596e-10
  6.66428    -77.8 9.600e+03 3.870e-10
  6.69353    -76.1 9.631e+03 3.995e-10
  6.71377    -76.3 9.877e+03 4.905e-10
  6.74523    -74.5 9.821e+03 4.854e-10
  6.78571    -72.4 9.588e+03 4.160e-10
  6.82618    -70.2 9.369e+03 3.465e-10
  6.85053    -68.2 9.262e+03 3.103e-10
  6.86531    -68.6 9.124e+03 2.774e-10
  6.88144    -69.0 9.147e+03 2.900e-10
  6.90713    -67.1 9.122e+03 2.823e-10
  6.94760    -65.5 9.214e+03 2.993e-10
  6.98808    -64.5 9.862e+03 4.607e-10
  7.02855    -63.2 1.058e+04 7.677e-10
  7.04911    -61.7 1.116e+04 1.141e-09
  7.05913    -62.1 1.123e+04 1.181e-09
  7.07895    -61.8 1.143e+04 1.323e-09
  7.09919    -61.1 1.166e+04 1.512e-09
  7.11942    -60.7 1.169e+04 1.540e-09
  7.13275    -60.2 1.160e+04 1.521e-09
  7.14147    -60.3 1.156e+04 1.513e-09
  7.15860    -60.0 1.107e+04 1.185e-09
  7.19045    -57.9 1.041e+04 8.496e-10
  7.21678    -55.5 9.639e+03 5.172e-10
  7.23702    -55.5 9.508e+03 4.670e-10
  7.27140    -52.8 8.938e+03 2.923e-10
  7.31187    -50.2 8.444e+03 1.904e-10
  7.35235    -47.8 8.293e+03 1.590e-10
  7.38445    -45.1 8.216e+03 1.498e-10
  7.40469    -44.7 8.392e+03 1.749e-10
  7.42639    -42.1 8.444e+03 1.850e-10
  7.44663    -41.8 8.475e+03 1.955e-10
  7.47377    -39.3 8.634e+03 2.351e-10
  7.51424    -36.7 8.768e+03 2.772e-10
  7.55212    -34.2 8.822e+03 2.983e-10
  7.57236    -33.8 9.323e+03 4.398e-10
  7.59519    -31.4 9.402e+03 4.671e-10
  7.63567    -29.1 9.384e+03 4.635e-10
  7.67614    -26.8 9.235e+03 4.288e-10
  7.71432    -24.6 9.044e+03 3.870e-10
  7.73456    -23.9 9.299e+03 4.257e-10
  7.74003    -21.9 9.075e+03 3.771e-10
  7.75005    -21.9 9.776e+03 5.777e-10
  7.76701    -21.3 9.662e+03 5.449e-10
  7.78725    -19.9 9.427e+03 4.758e-10
  7.80749    -19.3 9.342e+03 4.533e-10
  7.82367    -18.1 9.254e+03 4.264e-10
  7.83379    -18.3 9.689e+03 5.690e-10
  7.84796    -17.3 9.569e+03 5.365e-10
  7.86820    -16.2 9.498e+03 5.118e-10
  7.88844    -15.2 9.620e+03 5.494e-10
  7.90751    -14.1 9.574e+03 5.329e-10
  7.91763    -14.1 1.013e+04 7.695e-10
  7.92891    -13.1 1.007e+04 7.431e-10
  7.94915    -12.2 1.001e+04 7.176e-10
  7.96939    -11.2 9.931e+03 6.913e-10
  7.98962    -10.1 9.906e+03 6.812e-10
  8.00146     -9.3 9.911e+03 6.835e-10
  8.01158     -9.3 1.041e+04 9.134e-10
  8.02230     -8.8 1.052e+04 9.302e-10
  8.03242     -8.9 1.058e+04 9.379e-10
  8.05034     -8.7 1.092e+04 1.034e-09
  8.07057     -8.8 1.141e+04 1.283e-09
  8.08530     -8.8 1.190e+04 1.657e-09
  8.09542     -9.2 1.244e+04 2.006e-09
  8.11105     -8.6 1.287e+04 2.434e-09
  8.13128     -7.9 1.318e+04 2.750e-09
  8.15152     -7.2 1.327e+04 2.836e-09
  8.16626     -6.6 1.317e+04 2.534e-09
  8.17376     -7.8 1.242e+04 1.817e-09
  8.17925     -8.8 1.245e+04 1.740e-09
  8.19200     -8.8 1.189e+04 1.438e-09
  8.21223     -8.7 1.134e+04 1.148e-09
  8.24269     -7.9 1.096e+04 9.133e-10
  8.26328     -7.0 1.041e+04 6.788e-10
  8.28352     -8.3 1.055e+04 7.195e-10
  8.31043     -6.4 1.033e+04 6.282e-10
  8.33066     -5.8 1.040e+04 6.505e-10
  8.36421     -3.8 1.035e+04 6.212e-10
  8.40468     -1.7 1.041e+04 6.449e-10
  8.43095      0.3 1.060e+04 7.189e-10
  8.45119     -0.5 1.109e+04 8.516e-10
  8.48563      1.3 1.155e+04 1.047e-09
  8.51469      3.5 1.182e+04 1.234e-09
  8.52471      2.8 1.226e+04 1.412e-09
  8.53603      2.4 1.247e+04 1.662e-09
  8.55627      3.3 1.309e+04 2.365e-09
  8.57650      3.4 1.342e+04 2.862e-09
  8.59674      4.2 1.406e+04 3.582e-09
  8.60828      4.5 1.450e+04 4.052e-09
  8.60997      4.6 1.442e+04 4.174e-09
  8.61867      4.1 1.434e+04 4.125e-09
  8.63721      4.9 1.472e+04 4.743e-09
  8.65745      5.6 1.485e+04 4.981e-09
  8.67769      6.4 1.475e+04 4.852e-09
  8.69238      7.6 1.441e+04 3.976e-09
  8.70250      7.7 1.386e+04 2.989e-09
  8.71816      8.2 1.340e+04 2.071e-09
  8.73840      7.9 1.261e+04 1.347e-09
  8.75225      7.0 1.173e+04 9.453e-10
  8.76237      7.7 1.205e+04 1.051e-09
  8.77622      7.4 1.144e+04 8.237e-10
  8.78634      8.0 1.099e+04 7.109e-10
  8.79911      8.3 1.070e+04 6.020e-10
  8.81935      8.9 1.079e+04 5.864e-10
  8.83959      9.2 1.131e+04 6.211e-10
  8.85982      9.2 1.203e+04 7.744e-10
  8.87017      9.4 1.272e+04 1.088e-09
  8.88029     11.1 1.179e+04 6.986e-10
  8.89621     11.0 1.243e+04 9.593e-10
  8.90633     12.3 1.167e+04 6.831e-10
  8.92054     12.4 1.224e+04 9.275e-10
  8.94077     12.5 1.242e+04 1.255e-09
  8.95401     13.0 1.240e+04 1.591e-09
  8.96413     14.2 1.232e+04 1.258e-09
  8.98125     14.8 1.225e+04 1.567e-09
  9.00148     15.9 1.218e+04 1.715e-09
  9.02172     17.2 1.204e+04 1.645e-09
  9.03785     18.7 1.185e+04 1.432e-09
  9.04619     19.3 1.183e+04 1.424e-09
  9.05030     19.6 1.177e+04 1.403e-09
  9.06220     20.8 1.170e+04 1.289e-09
  9.08243     21.6 1.156e+04 1.022e-09
  9.10267     21.8 1.117e+04 7.596e-10
  9.12168     21.6 1.075e+04 5.826e-10
  9.13180     22.4 1.091e+04 6.511e-10
  9.14314     22.4 1.056e+04 5.440e-10
  9.16338     22.4 1.031e+04 4.819e-10
  9.18362     22.8 1.018e+04 4.630e-10
  9.19426     23.7 1.022e+04 4.666e-10
  9.20438     24.2 1.042e+04 5.789e-10
  9.21564     25.0 1.043e+04 5.589e-10
  9.22575     25.5 1.050e+04 5.816e-10
  9.24433     26.0 1.055e+04 5.493e-10
  9.26457     26.2 1.058e+04 5.256e-10
  9.28480     26.4 1.067e+04 5.162e-10
  9.29947     26.2 1.078e+04 5.302e-10
  9.30959     26.1 1.086e+04 5.436e-10
  9.32528     25.6 1.103e+04 6.142e-10
  9.33823     25.3 1.126e+04 7.367e-10
  9.34835     25.6 1.139e+04 7.469e-10
  9.36575     25.2 1.179e+04 9.844e-10
  9.38331     24.6 1.234e+04 1.316e-09
  9.39343     23.7 1.289e+04 1.751e-09
  9.40623     23.6 1.356e+04 2.443e-09
  9.42647     23.7 1.411e+04 3.027e-09
  9.44670     24.0 1.425e+04 3.353e-09
  9.46694     24.4 1.413e+04 3.236e-09
  9.47726     24.8 1.383e+04 2.811e-09
  9.48240     24.7 1.384e+04 2.745e-09
  9.49232     25.0 1.410e+04 2.956e-09
  9.50741     24.3 1.366e+04 2.145e-09
  9.52765     23.0 1.296e+04 1.576e-09
  9.54789     22.4 1.251e+04 1.317e-09
  9.56110     21.7 1.216e+04 1.139e-09
  9.57122     21.8 1.201e+04 1.071e-09
  9.58836     21.5 1.187e+04 1.033e-09
  9.60860     21.4 1.197e+04 1.085e-09
  9.62616     21.2 1.205e+04 1.180e-09
  9.63628     21.4 1.186e+04 1.083e-09
  9.64493     21.4 1.193e+04 1.146e-09
  9.65505     22.1 1.186e+04 1.121e-09
  9.66931     22.2 1.194e+04 1.171e-09
  9.68955     22.3 1.190e+04 1.179e-09
  9.70979     22.2 1.178e+04 1.089e-09
  9.72877     21.7 1.171e+04 9.766e-10
  9.73889     22.8 1.176e+04 1.081e-09
  9.75026     21.6 1.199e+04 1.027e-09
  9.77013     19.3 1.268e+04 1.057e-09
  9.78025     20.6 1.253e+04 1.035e-09
  9.79074     17.1 1.303e+04 1.180e-09
  9.81097     13.0 1.317e+04 1.577e-09
  9.82272     10.0 1.434e+04 2.328e-09
  9.83284      8.8 1.537e+04 3.191e-09
  9.85145      6.0 1.630e+04 4.225e-09
  9.87168      3.4 1.648e+04 5.105e-09
  9.89192      2.1 1.611e+04 5.686e-09
  9.90656      1.7 1.530e+04 4.907e-09
  9.91668      1.5 1.548e+04 4.872e-09
  9.92421      1.4 1.520e+04 4.173e-09
  9.93433      1.3 1.585e+04 4.797e-09
  9.95263      0.2 1.519e+04 3.163e-09
  9.97287     -1.5 1.459e+04 2.323e-09
  9.99039     -2.9 1.411e+04 1.954e-09
 10.00051     -4.2 1.358e+04 1.585e-09
 10.01334     -5.0 1.349e+04 1.542e-09
 10.03358     -6.1 1.382e+04 1.661e-09
 10.05382     -7.6 1.429e+04 2.119e-09
