# Columns:
#   distance along LOS (in CHIMPs)
#   peculiar velocity  (in km/s)
#   temperature (K)
#   HI number density
# pos=(76.2977,106.546,54.4394), angles=(0.231013,4.74678)
  0.00506   -114.6 9.401e+03 2.865e-10
  0.02084   -112.8 9.595e+03 3.201e-10
  0.04091   -113.3 1.001e+04 4.620e-10
  0.07031   -112.4 1.053e+04 6.012e-10
  0.11044   -112.3 1.120e+04 8.048e-10
  0.15057   -112.6 1.195e+04 1.113e-09
  0.18645   -113.9 1.268e+04 1.586e-09
  0.20642   -114.7 1.315e+04 2.174e-09
  0.22060   -115.1 1.328e+04 2.291e-09
  0.24066   -115.5 1.331e+04 2.301e-09
  0.26073   -116.1 1.327e+04 2.216e-09
  0.27910   -116.8 1.318e+04 2.048e-09
  0.28913   -117.6 1.264e+04 1.553e-09
  0.30085   -118.5 1.239e+04 1.345e-09
  0.32092   -119.5 1.215e+04 1.171e-09
  0.34098   -120.4 1.193e+04 1.030e-09
  0.36105   -121.3 1.175e+04 9.166e-10
  0.37193   -122.0 1.162e+04 8.360e-10
  0.38197   -122.5 1.149e+04 7.873e-10
  0.40117   -123.0 1.147e+04 7.665e-10
  0.42124   -123.3 1.147e+04 7.591e-10
  0.44130   -123.5 1.148e+04 7.582e-10
  0.45474   -123.7 1.160e+04 7.689e-10
  0.46477   -124.0 1.162e+04 8.114e-10
  0.48143   -124.1 1.173e+04 8.590e-10
  0.50150   -124.1 1.184e+04 9.219e-10
  0.52156   -124.0 1.196e+04 9.959e-10
  0.53754   -124.0 1.204e+04 1.057e-09
  0.54758   -124.0 1.220e+04 1.142e-09
  0.56169   -123.9 1.222e+04 1.152e-09
  0.58175   -123.8 1.218e+04 1.151e-09
  0.60182   -123.5 1.202e+04 1.087e-09
  0.62035   -123.2 1.182e+04 9.653e-10
  0.63038   -123.2 1.196e+04 1.057e-09
  0.64195   -122.9 1.177e+04 9.271e-10
  0.66201   -122.7 1.149e+04 7.574e-10
  0.68207   -122.5 1.131e+04 6.537e-10
  0.70214   -122.4 1.116e+04 5.902e-10
  0.71319   -122.4 1.110e+04 5.712e-10
  0.72322   -122.1 1.133e+04 6.043e-10
  0.74227   -122.2 1.129e+04 5.864e-10
  0.76233   -122.8 1.139e+04 5.993e-10
  0.78240   -123.6 1.155e+04 6.746e-10
  0.79599   -124.3 1.172e+04 7.781e-10
  0.80602   -124.7 1.295e+04 1.045e-09
  0.82252   -125.3 1.299e+04 1.167e-09
  0.84259   -125.8 1.292e+04 1.233e-09
  0.86265   -126.3 1.278e+04 1.249e-09
  0.87880   -126.8 1.257e+04 1.237e-09
  0.88883   -126.6 1.319e+04 1.603e-09
  0.90278   -127.2 1.281e+04 1.423e-09
  0.92285   -127.7 1.250e+04 1.296e-09
  0.94291   -128.0 1.224e+04 1.198e-09
  0.96160   -128.2 1.201e+04 1.106e-09
  0.97163   -128.2 1.225e+04 1.243e-09
  0.98304   -128.6 1.200e+04 1.138e-09
  1.00310   -128.9 1.183e+04 1.045e-09
  1.02317   -129.4 1.167e+04 9.689e-10
  1.04323   -130.0 1.152e+04 9.093e-10
  1.05444   -130.6 1.137e+04 8.664e-10
  1.06447   -130.7 1.160e+04 9.812e-10
  1.08336   -131.4 1.145e+04 9.521e-10
  1.10342   -132.1 1.136e+04 9.444e-10
  1.12349   -132.6 1.133e+04 9.495e-10
  1.13724   -132.9 1.136e+04 9.792e-10
  1.14728   -133.3 1.159e+04 1.134e-09
  1.16362   -133.4 1.160e+04 1.156e-09
  1.18368   -133.4 1.157e+04 1.158e-09
  1.20375   -133.2 1.135e+04 1.095e-09
  1.22005   -132.8 1.106e+04 9.605e-10
  1.23008   -132.9 1.108e+04 9.794e-10
  1.24387   -132.3 1.071e+04 7.948e-10
  1.26394   -131.5 1.031e+04 6.154e-10
  1.28400   -130.7 9.942e+03 4.671e-10
  1.31420   -130.0 9.651e+03 3.563e-10
  1.35442   -129.2 9.341e+03 2.705e-10
  1.38585   -127.7 8.952e+03 1.965e-10
  1.40592   -127.4 9.295e+03 2.536e-10
  1.43468   -126.4 9.401e+03 2.588e-10
  1.47481   -126.0 9.722e+03 3.175e-10
  1.51494   -125.7 9.950e+03 4.115e-10
  1.55146   -125.3 1.003e+04 4.859e-10
  1.57153   -125.3 1.085e+04 8.319e-10
  1.59519   -124.9 1.057e+04 7.687e-10
  1.63532   -124.2 1.001e+04 5.383e-10
  1.67545   -123.6 9.375e+03 3.411e-10
  1.71558   -123.1 8.899e+03 2.351e-10
  1.73714   -122.6 8.748e+03 2.043e-10
  1.75720   -123.0 8.807e+03 2.048e-10
  1.79584   -122.6 8.810e+03 2.025e-10
  1.83596   -122.2 8.983e+03 2.352e-10
  1.87609   -121.9 9.153e+03 2.887e-10
  1.90275   -121.5 9.185e+03 3.122e-10
  1.92281   -122.1 9.114e+03 2.920e-10
  1.95635   -121.6 8.991e+03 2.808e-10
  1.99648   -120.9 8.776e+03 2.373e-10
  2.03661   -120.2 8.576e+03 1.929e-10
  2.06836   -119.6 8.428e+03 1.619e-10
  2.08842   -120.5 8.437e+03 1.605e-10
  2.11686   -119.9 8.378e+03 1.487e-10
  2.15699   -119.1 8.331e+03 1.433e-10
  2.19712   -118.2 8.298e+03 1.401e-10
  2.23397   -117.2 8.294e+03 1.390e-10
  2.25403   -117.8 8.379e+03 1.487e-10
  2.27738   -116.9 8.411e+03 1.527e-10
  2.31751   -116.0 8.482e+03 1.631e-10
  2.35764   -115.3 8.548e+03 1.749e-10
  2.39776   -114.6 8.591e+03 1.836e-10
  2.41964   -114.1 8.618e+03 1.897e-10
  2.43971   -114.2 8.590e+03 1.861e-10
  2.47802   -113.5 8.574e+03 1.834e-10
  2.51815   -112.9 8.598e+03 1.867e-10
  2.55828   -112.4 8.657e+03 1.975e-10
  2.58525   -111.9 8.713e+03 2.117e-10
  2.60532   -111.5 8.586e+03 1.830e-10
  2.63854   -110.8 8.632e+03 1.931e-10
  2.67866   -110.0 8.686e+03 2.038e-10
  2.71879   -109.1 8.755e+03 2.146e-10
  2.75086   -108.1 8.833e+03 2.247e-10
  2.77093   -107.8 8.824e+03 2.215e-10
  2.79905   -106.7 8.896e+03 2.327e-10
  2.83918   -105.5 8.944e+03 2.404e-10
  2.87931   -104.1 8.957e+03 2.421e-10
  2.91648   -102.4 8.933e+03 2.390e-10
  2.93654   -102.0 8.714e+03 1.939e-10
  2.95956   -100.1 8.673e+03 1.798e-10
  2.99969    -98.0 8.651e+03 1.656e-10
  3.03982    -95.9 8.656e+03 1.563e-10
  3.07995    -93.8 8.669e+03 1.539e-10
  3.10215    -91.8 8.860e+03 1.601e-10
  3.12221    -91.5 8.714e+03 1.432e-10
  3.16021    -89.6 8.928e+03 1.721e-10
  3.20033    -87.6 9.189e+03 2.178e-10
  3.24046    -85.5 9.456e+03 2.740e-10
  3.26776    -83.3 9.673e+03 3.187e-10
  3.28782    -82.6 9.240e+03 2.236e-10
  3.32072    -80.3 9.279e+03 2.191e-10
  3.36085    -77.9 9.281e+03 1.958e-10
  3.40098    -75.3 9.241e+03 1.658e-10
  3.43337    -72.7 9.208e+03 1.408e-10
  3.45343    -71.9 9.016e+03 1.071e-10
  3.48123    -69.3 9.113e+03 9.776e-11
  3.52136    -66.5 9.184e+03 9.471e-11
  3.56149    -64.0 9.437e+03 1.092e-10
  3.59898    -61.5 9.604e+03 1.561e-10
  3.61904    -61.1 9.718e+03 1.522e-10
  3.64175    -58.6 1.002e+04 2.843e-10
  3.68188    -55.6 1.048e+04 5.383e-10
  3.72201    -52.5 1.108e+04 8.818e-10
  3.76213    -49.5 1.163e+04 1.199e-09
  3.78466    -47.1 1.197e+04 1.291e-09
  3.80472    -47.5 1.253e+04 1.709e-09
  3.83226    -45.4 1.275e+04 1.915e-09
  3.85223    -44.8 1.287e+04 1.875e-09
  3.86726    -44.5 1.299e+04 1.831e-09
  3.87730    -44.8 1.325e+04 1.969e-09
  3.89236    -45.3 1.351e+04 2.139e-09
  3.91242    -45.5 1.381e+04 2.645e-09
  3.93248    -45.3 1.417e+04 3.458e-09
  3.95007    -44.6 1.474e+04 4.225e-09
  3.96010    -46.2 1.504e+04 3.795e-09
  3.97261    -46.5 1.567e+04 4.298e-09
  3.99268    -47.3 1.630e+04 4.729e-09
  4.00910    -49.1 1.671e+04 5.089e-09
  4.01913    -49.6 1.892e+04 8.946e-09
  4.03281    -51.8 1.916e+04 9.259e-09
  4.05287    -56.1 2.026e+04 1.164e-08
  4.07293    -56.9 1.973e+04 1.270e-08
  4.09300    -57.2 1.931e+04 1.311e-08
  4.11306    -56.4 1.876e+04 1.291e-08
  4.12571    -55.5 1.820e+04 1.173e-08
  4.13574    -56.3 1.831e+04 1.270e-08
  4.15319    -55.2 1.762e+04 1.072e-08
  4.17326    -53.7 1.694e+04 8.780e-09
  4.19332    -52.6 1.636e+04 7.141e-09
  4.20852    -51.7 1.554e+04 5.570e-09
  4.21855    -51.6 1.548e+04 5.505e-09
  4.23345    -50.4 1.475e+04 4.421e-09
  4.25351    -49.1 1.431e+04 3.824e-09
  4.27358    -47.9 1.402e+04 3.431e-09
  4.29132    -46.5 1.362e+04 3.038e-09
  4.30135    -46.4 1.331e+04 2.591e-09
  4.31371    -45.1 1.296e+04 2.315e-09
  4.33377    -43.7 1.275e+04 2.135e-09
  4.35383    -42.3 1.270e+04 2.072e-09
  4.37390    -41.0 1.260e+04 1.994e-09
  4.38416    -39.7 1.241e+04 1.876e-09
  4.39419    -39.5 1.223e+04 1.667e-09
  4.41403    -38.2 1.214e+04 1.624e-09
  4.43409    -37.0 1.214e+04 1.617e-09
  4.45416    -35.9 1.210e+04 1.598e-09
  4.46697    -34.6 1.199e+04 1.528e-09
  4.47700    -34.4 1.190e+04 1.447e-09
  4.49428    -33.4 1.178e+04 1.389e-09
  4.51435    -32.3 1.183e+04 1.389e-09
  4.53441    -31.4 1.167e+04 1.324e-09
  4.54977    -30.4 1.156e+04 1.269e-09
  4.55980    -30.0 1.151e+04 1.244e-09
  4.57454    -29.2 1.144e+04 1.204e-09
  4.59460    -28.3 1.124e+04 1.118e-09
  4.61467    -27.5 1.113e+04 1.057e-09
  4.63258    -26.6 1.088e+04 9.532e-10
  4.64261    -26.1 1.079e+04 9.067e-10
  4.65480    -25.2 1.055e+04 8.229e-10
  4.67486    -24.0 1.022e+04 6.839e-10
  4.69493    -22.9 9.933e+03 5.781e-10
  4.72512    -21.4 9.583e+03 4.265e-10
  4.76535    -19.8 9.153e+03 2.793e-10
  4.79838    -17.8 8.710e+03 1.767e-10
  4.81845    -15.6 8.643e+03 1.673e-10
  4.84560    -14.3 8.446e+03 1.132e-10
  4.88573    -12.6 8.241e+03 1.022e-10
  4.92586    -10.8 8.253e+03 1.133e-10
  4.96399     -8.7 8.363e+03 1.392e-10
  4.98406     -6.4 8.327e+03 1.340e-10
  5.00612     -4.2 8.553e+03 1.699e-10
  5.04625     -2.1 9.096e+03 2.311e-10
  5.06676     -2.2 9.425e+03 2.787e-10
  5.07670     -0.5 9.327e+03 2.741e-10
  5.09621     -0.3 9.654e+03 3.355e-10
  5.11628     -0.8 1.028e+04 4.953e-10
  5.13634     -0.9 1.078e+04 7.489e-10
  5.14947     -0.9 1.144e+04 1.163e-09
  5.15950      1.3 1.119e+04 9.776e-10
  5.17647      1.3 1.198e+04 1.463e-09
  5.19653      0.9 1.288e+04 2.109e-09
  5.21660      0.6 1.353e+04 2.671e-09
  5.23228      0.4 1.366e+04 2.934e-09
  5.24231      1.9 1.421e+04 3.357e-09
  5.25673      1.7 1.406e+04 3.496e-09
  5.27679      2.1 1.348e+04 2.970e-09
  5.29685      1.8 1.284e+04 2.208e-09
  5.31508      0.8 1.226e+04 1.460e-09
  5.32511      2.9 1.312e+04 2.179e-09
  5.33698      1.3 1.235e+04 1.281e-09
  5.35705     -1.1 1.127e+04 7.618e-10
  5.37711     -3.3 1.055e+04 5.762e-10
  5.39718     -4.2 1.019e+04 5.574e-10
  5.40792     -4.9 1.050e+04 6.149e-10
  5.41795     -4.2 1.015e+04 5.287e-10
  5.43730     -5.0 1.063e+04 6.211e-10
  5.45737     -6.4 1.182e+04 8.978e-10
  5.47743     -7.8 1.331e+04 1.560e-09
  5.49072     -8.9 1.432e+04 2.667e-09
  5.50076     -6.9 1.383e+04 1.920e-09
  5.51756     -8.7 1.570e+04 3.671e-09
  5.53763     -9.7 1.655e+04 6.576e-09
  5.55769    -10.0 1.676e+04 1.034e-08
  5.57353     -9.9 1.709e+04 1.386e-08
  5.58356    -10.2 1.808e+04 1.881e-08
  5.59782     -9.0 1.816e+04 2.338e-08
  5.61788     -8.3 1.862e+04 1.998e-08
  5.63795     -8.3 1.875e+04 1.357e-08
  5.65633     -8.7 1.836e+04 7.820e-09
  5.66637     -7.6 1.871e+04 1.106e-08
  5.67807     -8.5 1.783e+04 5.185e-09
  5.69814    -11.2 1.500e+04 2.265e-09
  5.71820    -13.3 1.192e+04 1.244e-09
  5.73827    -13.5 1.121e+04 9.612e-10
  5.76846    -12.6 1.146e+04 9.126e-10
  5.80869    -12.2 1.106e+04 7.571e-10
  5.83217    -11.9 1.142e+04 9.156e-10
  5.85224    -10.2 1.138e+04 9.372e-10
  5.88894     -9.9 1.162e+04 1.092e-09
  5.92907     -9.1 1.192e+04 1.238e-09
  5.96920     -8.5 1.201e+04 1.232e-09
  5.99768    -11.0 1.254e+04 1.108e-09
  6.00762     -7.9 1.237e+04 1.421e-09
  6.01917     -8.8 1.288e+04 1.203e-09
  6.03923    -13.2 1.636e+04 1.198e-09
  6.05930    -20.8 1.895e+04 1.604e-09
  6.07936    -28.2 1.666e+04 2.582e-09
  6.09042    -30.9 1.482e+04 4.591e-09
  6.10046    -31.6 1.576e+04 4.362e-09
  6.11949    -32.5 1.520e+04 6.868e-09
  6.13955    -32.8 1.519e+04 8.629e-09
  6.15962    -33.6 1.532e+04 9.147e-09
  6.17323    -34.6 1.503e+04 8.404e-09
  6.18326    -35.7 1.456e+04 6.578e-09
  6.19975    -36.8 1.426e+04 5.106e-09
  6.21981    -38.4 1.391e+04 3.954e-09
  6.23987    -39.6 1.352e+04 3.225e-09
  6.25603    -40.4 1.316e+04 2.736e-09
  6.26607    -42.7 1.274e+04 2.104e-09
  6.28000    -42.6 1.234e+04 1.805e-09
  6.30007    -42.1 1.210e+04 1.577e-09
  6.32013    -41.5 1.197e+04 1.379e-09
  6.33884    -40.9 1.187e+04 1.183e-09
  6.34887    -42.5 1.146e+04 8.152e-10
  6.36026    -42.0 1.108e+04 6.558e-10
  6.38032    -41.5 1.068e+04 5.415e-10
  6.40039    -41.1 1.043e+04 4.798e-10
  6.42045    -40.6 1.036e+04 4.584e-10
  6.43168    -40.1 1.044e+04 4.649e-10
  6.44171    -42.9 1.138e+04 5.280e-10
  6.46058    -44.7 1.271e+04 8.280e-10
  6.48065    -46.2 1.339e+04 1.541e-09
  6.49345    -46.9 1.369e+04 2.762e-09
  6.50349    -48.4 1.496e+04 4.492e-09
  6.51448    -46.7 1.523e+04 6.949e-09
  6.52451    -46.2 1.569e+04 9.544e-09
  6.54084    -44.2 1.595e+04 1.047e-08
  6.56090    -42.5 1.594e+04 1.049e-08
  6.58097    -40.3 1.575e+04 9.103e-09
  6.59729    -38.5 1.549e+04 6.808e-09
  6.60732    -38.5 1.473e+04 3.210e-09
  6.62110    -39.8 1.364e+04 1.788e-09
  6.64116    -41.5 1.205e+04 1.090e-09
  6.66122    -41.9 1.101e+04 8.588e-10
  6.68009    -40.9 1.069e+04 8.023e-10
  6.69012    -41.6 1.010e+04 5.718e-10
  6.70135    -40.2 1.011e+04 5.714e-10
  6.72142    -38.8 1.020e+04 5.777e-10
  6.74148    -37.6 1.045e+04 6.317e-10
  6.76154    -36.5 1.082e+04 7.497e-10
  6.77293    -35.4 1.121e+04 9.194e-10
  6.78296    -35.8 1.054e+04 6.705e-10
  6.80167    -34.4 1.080e+04 7.708e-10
  6.82174    -33.0 1.104e+04 8.695e-10
  6.84180    -31.7 1.123e+04 9.478e-10
  6.85573    -30.3 1.131e+04 9.690e-10
  6.86577    -31.4 1.072e+04 7.479e-10
  6.88193    -30.1 1.078e+04 7.511e-10
  6.90199    -29.2 1.084e+04 6.817e-10
  6.92206    -28.4 1.111e+04 6.319e-10
  6.93854    -28.1 1.135e+04 5.675e-10
  6.94857    -29.4 1.142e+04 5.825e-10
  6.96219    -29.4 1.146e+04 5.522e-10
  6.98225    -29.5 1.135e+04 5.459e-10
  7.00232    -29.5 1.117e+04 5.961e-10
  7.02134    -29.6 1.096e+04 6.739e-10
  7.03138    -29.9 1.082e+04 6.572e-10
  7.04244    -29.5 1.072e+04 7.104e-10
  7.06251    -28.9 1.071e+04 7.438e-10
  7.08257    -28.2 1.084e+04 8.068e-10
  7.10264    -28.0 1.083e+04 8.357e-10
  7.11418    -27.7 1.120e+04 9.413e-10
  7.12421    -27.8 1.070e+04 6.691e-10
  7.14277    -27.9 1.083e+04 7.414e-10
  7.16283    -28.2 1.117e+04 8.883e-10
  7.18289    -28.5 1.166e+04 1.148e-09
  7.19699    -28.5 1.214e+04 1.565e-09
  7.20702    -27.8 1.144e+04 1.178e-09
  7.22302    -27.4 1.185e+04 1.577e-09
  7.24309    -26.4 1.214e+04 2.024e-09
  7.26315    -24.9 1.232e+04 2.378e-09
  7.27979    -23.1 1.253e+04 2.558e-09
  7.28982    -23.0 1.214e+04 2.063e-09
  7.30328    -21.7 1.234e+04 2.150e-09
  7.32334    -20.7 1.269e+04 2.103e-09
  7.34341    -20.4 1.298e+04 2.004e-09
  7.36260    -20.2 1.305e+04 1.962e-09
  7.37263    -20.4 1.338e+04 2.036e-09
  7.38354    -20.2 1.336e+04 2.050e-09
  7.40360    -19.6 1.314e+04 2.032e-09
  7.42367    -18.9 1.308e+04 2.112e-09
  7.44373    -18.1 1.316e+04 2.254e-09
  7.45543    -17.3 1.329e+04 2.396e-09
  7.46547    -17.7 1.303e+04 2.245e-09
  7.48386    -17.0 1.315e+04 2.382e-09
  7.50392    -16.5 1.329e+04 2.442e-09
  7.52399    -15.8 1.330e+04 2.688e-09
  7.53824    -14.8 1.337e+04 2.834e-09
  7.54827    -15.0 1.264e+04 2.047e-09
  7.56412    -13.8 1.272e+04 2.101e-09
  7.58418    -12.7 1.300e+04 2.009e-09
  7.60424    -11.8 1.327e+04 1.797e-09
  7.62104    -11.2 1.301e+04 1.625e-09
  7.63108    -11.9 1.202e+04 9.775e-10
  7.64437    -11.4 1.169e+04 7.999e-10
  7.66444    -10.8 1.117e+04 7.301e-10
  7.68450     -9.8 1.102e+04 6.258e-10
  7.70385     -8.9 1.100e+04 5.630e-10
  7.71388     -9.1 1.034e+04 3.648e-10
  7.72463     -8.1 1.028e+04 3.169e-10
  7.74469     -7.6 1.012e+04 2.957e-10
  7.76476     -6.2 9.938e+03 2.677e-10
  7.78482     -5.8 9.928e+03 2.647e-10
  7.81502     -3.7 9.892e+03 2.568e-10
  7.85524     -1.2 9.895e+03 2.555e-10
  7.87969      1.4 9.884e+03 2.459e-10
  7.89975      2.1 9.585e+03 2.054e-10
  7.93550      4.9 9.589e+03 2.000e-10
  7.97563      7.7 9.607e+03 1.918e-10
  8.01576     10.3 9.662e+03 1.915e-10
  8.04530     12.8 9.775e+03 2.052e-10
  8.06536     13.9 9.497e+03 1.545e-10
  8.09601     16.2 9.611e+03 1.654e-10
  8.13614     18.4 9.812e+03 2.035e-10
  8.17627     20.6 1.005e+04 2.780e-10
  8.21091     22.8 1.022e+04 3.675e-10
  8.23097     24.0 9.913e+03 2.501e-10
  8.25653     26.3 1.008e+04 3.248e-10
  8.29666     28.2 1.031e+04 4.189e-10
  8.33678     29.9 1.062e+04 5.625e-10
  8.37652     31.6 1.091e+04 7.419e-10
  8.39658     33.2 1.045e+04 4.582e-10
  8.41704     34.8 1.062e+04 5.711e-10
  8.45717     36.4 1.065e+04 6.331e-10
  8.49730     38.2 1.059e+04 6.368e-10
  8.53743     39.9 1.046e+04 5.972e-10
  8.56219     41.5 1.035e+04 5.520e-10
  8.58226     43.0 1.027e+04 5.237e-10
  8.61768     44.7 1.028e+04 5.376e-10
  8.65781     46.5 1.026e+04 5.402e-10
  8.69794     48.4 1.021e+04 5.367e-10
  8.72780     50.5 1.007e+04 4.950e-10
  8.74787     51.6 1.038e+04 6.175e-10
  8.77820     53.7 1.035e+04 6.104e-10
  8.81833     55.9 1.023e+04 5.531e-10
  8.85846     58.1 1.003e+04 4.622e-10
  8.89341     60.3 9.781e+03 3.704e-10
  8.91348     60.8 1.063e+04 6.253e-10
  8.93871     62.7 1.045e+04 4.972e-10
  8.96797     64.3 1.028e+04 4.122e-10
  8.98803     65.6 1.024e+04 4.545e-10
  9.01897     67.4 1.015e+04 4.212e-10
  9.05902     69.2 1.014e+04 4.307e-10
  9.09915     70.4 1.120e+04 9.990e-10
  9.13935     72.6 1.132e+04 1.172e-09
  9.17948     75.6 1.181e+04 1.475e-09
  9.20948     76.7 1.216e+04 1.696e-09
  9.22945     77.6 1.241e+04 1.871e-09
  9.24450     78.5 1.257e+04 2.011e-09
  9.25453     77.8 1.258e+04 2.051e-09
  9.26958     78.9 1.257e+04 2.039e-09
  9.28964     79.8 1.255e+04 1.982e-09
  9.30971     80.5 1.250e+04 1.884e-09
  9.32731     81.2 1.239e+04 1.766e-09
  9.33734     79.9 1.178e+04 1.369e-09
  9.34983     80.3 1.160e+04 1.325e-09
  9.36990     80.8 1.147e+04 1.300e-09
  9.38996     81.3 1.140e+04 1.288e-09
  9.41003     81.7 1.131e+04 1.269e-09
  9.43009     82.2 1.064e+04 9.814e-10
  9.45016     83.0 1.048e+04 9.116e-10
  9.47022     83.8 1.026e+04 8.156e-10
  9.49028     84.7 1.000e+04 6.988e-10
  9.50295     85.5 9.783e+03 5.945e-10
  9.51298     85.2 9.533e+03 4.681e-10
  9.53041     86.0 9.402e+03 4.097e-10
  9.55048     86.4 9.273e+03 3.648e-10
  9.57582     87.7 9.342e+03 3.843e-10
  9.59598     87.8 8.917e+03 2.754e-10
  9.62090     89.4 8.835e+03 2.682e-10
  9.66103     91.1 8.839e+03 2.711e-10
  9.70115     92.9 8.880e+03 2.851e-10
  9.74128     94.7 9.037e+03 3.171e-10
  9.76159     96.3 9.261e+03 3.619e-10
  9.78166     96.8 9.228e+03 3.621e-10
  9.81141     97.2 9.436e+03 4.237e-10
  9.83138     97.7 9.672e+03 5.049e-10
  9.84420     98.4 9.976e+03 6.255e-10
  9.85424     98.9 1.013e+04 7.129e-10
  9.87150     99.6 1.036e+04 8.390e-10
  9.89157    100.3 1.060e+04 9.538e-10
  9.91163    100.9 1.074e+04 1.013e-09
  9.92701    101.2 1.080e+04 1.017e-09
  9.93704    101.6 1.093e+04 1.083e-09
  9.95176    101.8 1.089e+04 1.061e-09
  9.98196    102.7 1.088e+04 1.003e-09
 10.02218    103.5 1.039e+04 7.282e-10
 10.06231    104.1 9.684e+03 4.560e-10
 10.09281    104.7 8.862e+03 2.807e-10
 10.11288    104.5 8.916e+03 2.999e-10
 10.14257    105.3 8.613e+03 2.608e-10
 10.18270    106.8 8.614e+03 2.623e-10
 10.22282    108.5 8.709e+03 2.807e-10
 10.25842    110.1 8.928e+03 3.207e-10
 10.27849    109.4 9.141e+03 3.659e-10
 10.29295    110.2 9.222e+03 4.020e-10
 10.31292    111.1 9.398e+03 4.558e-10
 10.33298    112.0 9.630e+03 5.321e-10
 10.35107    113.0 9.846e+03 6.110e-10
 10.36110    112.4 1.025e+04 7.711e-10
 10.37311    113.3 1.044e+04 8.647e-10
 10.39318    114.3 1.060e+04 9.444e-10
 10.41324    115.3 1.074e+04 1.018e-09
 10.43330    116.2 1.090e+04 1.096e-09
 10.44390    117.1 1.108e+04 1.193e-09
 10.45394    116.4 1.151e+04 1.419e-09
 10.47343    117.0 1.197e+04 1.690e-09
 10.49350    117.6 1.291e+04 2.291e-09
 10.51356    118.5 1.412e+04 3.389e-09
 10.52671    118.6 1.491e+04 4.395e-09
 10.53674    118.0 1.497e+04 4.541e-09
 10.54862    117.3 1.616e+04 6.232e-09
 10.55861    117.0 1.730e+04 8.844e-09
 10.56801    117.0 1.829e+04 1.291e-08
 10.57303    117.1 1.775e+04 1.073e-08
 10.57867    117.2 1.845e+04 1.458e-08
 10.58870    117.6 1.905e+04 1.890e-08
 10.59874    118.3 1.961e+04 2.352e-08
 10.60877    118.7 2.018e+04 2.733e-08
 10.61443    118.6 2.098e+04 2.746e-08
 10.61945    117.8 2.050e+04 1.566e-08
 10.62883    117.1 2.048e+04 1.553e-08
 10.63887    116.2 2.031e+04 1.500e-08
 10.65396    115.4 1.901e+04 1.152e-08
 10.67408    114.6 1.806e+04 1.004e-08
 10.69232    113.5 1.674e+04 7.629e-09
 10.70235    112.6 1.513e+04 5.093e-09
 10.71420    112.1 1.468e+04 4.654e-09
 10.73427    112.2 1.439e+04 4.207e-09
 10.75433    112.5 1.408e+04 3.770e-09
 10.77440    112.8 1.371e+04 3.293e-09
 10.78516    113.2 1.325e+04 2.792e-09
 10.79519    114.1 1.360e+04 3.142e-09
