# Columns:
#   distance along LOS (in CHIMPs)
#   peculiar velocity  (in km/s)
#   temperature (K)
#   HI number density
# pos=(47.5586,252.502,81.0998), angles=(1.73836,1.85227)
  0.01691    -33.5 8.192e+03 1.020e-10
  0.03753    -34.1 8.263e+03 1.186e-10
  0.06186    -33.3 8.148e+03 1.130e-10
  0.08820    -32.2 8.096e+03 1.127e-10
  0.10882    -32.1 8.022e+03 9.706e-11
  0.14434    -30.9 7.985e+03 9.928e-11
  0.17070    -29.7 8.004e+03 9.937e-11
  0.19132    -29.9 8.207e+03 1.182e-10
  0.22682    -29.8 8.436e+03 1.198e-10
  0.26807    -30.3 8.711e+03 1.493e-10
  0.30387    -30.7 8.925e+03 2.166e-10
  0.32359    -31.3 9.094e+03 2.416e-10
  0.32903    -30.2 9.009e+03 2.264e-10
  0.35055    -29.9 9.234e+03 2.585e-10
  0.39179    -30.0 9.297e+03 2.580e-10
  0.43303    -30.2 9.193e+03 1.982e-10
  0.45767    -30.6 8.976e+03 1.453e-10
  0.47829    -32.1 9.061e+03 1.734e-10
  0.51551    -32.2 9.029e+03 1.584e-10
  0.54924    -32.3 9.059e+03 1.563e-10
  0.56986    -30.4 9.106e+03 2.290e-10
  0.59084    -30.4 9.142e+03 2.209e-10
  0.61146    -31.7 9.391e+03 2.844e-10
  0.63923    -31.2 9.363e+03 2.693e-10
  0.68047    -31.0 9.459e+03 2.300e-10
  0.72171    -31.7 9.488e+03 2.154e-10
  0.74463    -33.1 9.780e+03 2.439e-10
  0.76525    -35.7 1.030e+04 2.977e-10
  0.79007    -36.7 1.073e+04 5.488e-10
  0.81069    -34.9 1.047e+04 4.433e-10
  0.84543    -35.8 1.125e+04 6.595e-10
  0.87780    -36.9 1.163e+04 7.768e-10
  0.89842    -39.8 1.262e+04 1.431e-09
  0.92791    -40.9 1.258e+04 1.403e-09
  0.96915    -41.5 1.252e+04 1.465e-09
  1.01028    -41.3 1.223e+04 1.433e-09
  1.03148    -39.7 1.227e+04 1.355e-09
  1.05222    -41.8 1.216e+04 1.350e-09
  1.09287    -41.4 1.121e+04 8.267e-10
  1.13411    -40.9 1.032e+04 4.796e-10
  1.16477    -40.1 9.705e+03 2.865e-10
  1.18539    -40.9 9.384e+03 2.236e-10
  1.21659    -39.7 9.078e+03 1.415e-10
  1.25111    -38.5 8.930e+03 9.866e-11
  1.27173    -37.8 8.911e+03 9.440e-11
  1.29794    -36.5 8.845e+03 6.923e-11
  1.31856    -37.2 8.866e+03 5.834e-11
  1.34031    -36.0 8.855e+03 5.414e-11
  1.38155    -34.9 8.907e+03 5.612e-11
  1.42279    -34.1 8.888e+03 7.497e-11
  1.45173    -32.9 8.897e+03 1.110e-10
  1.47235    -33.5 8.957e+03 1.202e-10
  1.49193    -32.4 9.262e+03 1.795e-10
  1.51255    -32.1 9.365e+03 2.129e-10
  1.54652    -30.8 9.703e+03 3.147e-10
  1.58491    -29.3 9.990e+03 3.988e-10
  1.60553    -30.0 1.006e+04 3.840e-10
  1.62900    -28.6 1.004e+04 3.772e-10
  1.67024    -27.1 9.968e+03 2.528e-10
  1.71148    -27.0 9.749e+03 1.654e-10
  1.73276    -26.9 9.566e+03 1.468e-10
  1.73937    -27.4 9.754e+03 1.691e-10
  1.75932    -28.2 9.827e+03 1.831e-10
  1.79396    -27.9 9.887e+03 2.469e-10
  1.83520    -26.6 1.001e+04 3.295e-10
  1.87187    -25.1 1.020e+04 3.957e-10
  1.89249    -25.3 1.016e+04 3.767e-10
  1.91768    -24.5 1.041e+04 3.819e-10
  1.95297    -24.8 1.085e+04 4.185e-10
  1.97350    -26.4 1.076e+04 5.877e-10
  1.98965    -26.1 1.079e+04 7.685e-10
  2.01027    -25.9 1.088e+04 8.058e-10
  2.02547    -25.3 1.104e+04 9.401e-10
  2.04619    -25.6 1.116e+04 1.028e-09
  2.08264    -24.5 1.080e+04 9.114e-10
  2.12388    -23.3 1.026e+04 5.075e-10
  2.15884    -23.2 9.763e+03 2.619e-10
  2.17946    -23.7 9.992e+03 2.622e-10
  2.19380    -24.1 9.760e+03 2.038e-10
  2.21442    -23.6 9.405e+03 1.641e-10
  2.24760    -23.2 9.311e+03 2.112e-10
  2.28884    -22.1 9.510e+03 2.943e-10
  2.31263    -21.2 1.012e+04 3.401e-10
  2.33325    -22.3 1.124e+04 8.676e-10
  2.37132    -21.7 1.134e+04 9.541e-10
  2.41256    -20.9 1.107e+04 9.209e-10
  2.43463    -20.1 1.082e+04 8.384e-10
  2.44725    -19.2 1.072e+04 5.467e-10
  2.46642    -20.5 1.104e+04 7.797e-10
  2.49504    -20.3 1.076e+04 6.582e-10
  2.53628    -19.7 1.050e+04 6.214e-10
  2.57752    -18.5 1.020e+04 5.943e-10
  2.59959    -16.3 9.718e+03 4.695e-10
  2.62021    -16.9 9.351e+03 3.385e-10
  2.65484    -16.0 9.157e+03 2.138e-10
  2.67546    -15.6 9.292e+03 2.008e-10
  2.70124    -15.0 9.072e+03 1.863e-10
  2.73277    -14.6 9.147e+03 2.408e-10
  2.75339    -15.2 9.148e+03 2.520e-10
  2.78373    -13.8 9.474e+03 4.045e-10
  2.82497    -12.1 9.866e+03 5.590e-10
  2.86594    -11.1 1.018e+04 6.473e-10
  2.88656    -11.5 1.020e+04 6.578e-10
  2.89567    -11.4 1.036e+04 6.856e-10
  2.91629    -10.9 1.017e+04 5.661e-10
  2.94869    -10.9 1.007e+04 5.311e-10
  2.98993    -10.4 9.754e+03 4.313e-10
  3.01973    -10.5 9.442e+03 3.237e-10
  3.04035    -10.8 9.309e+03 2.601e-10
  3.07241    -11.1 9.129e+03 2.314e-10
  3.11365    -11.4 9.244e+03 2.643e-10
  3.13650    -11.4 9.488e+03 3.377e-10
  3.15514    -11.4 9.646e+03 4.145e-10
  3.17352    -12.6 9.670e+03 4.157e-10
  3.19613    -12.3 1.002e+04 5.300e-10
  3.23737    -12.0 9.975e+03 4.886e-10
  3.27861    -11.5 9.684e+03 3.498e-10
  3.30670    -11.1 9.356e+03 2.147e-10
  3.32732    -12.1 9.375e+03 2.152e-10
  3.35671    -12.2 9.177e+03 1.408e-10
  3.37733    -11.3 9.066e+03 1.437e-10
  3.40233    -10.9 8.901e+03 1.129e-10
  3.43987     -9.9 8.776e+03 1.136e-10
  3.46049    -10.6 8.807e+03 1.220e-10
  3.48481     -9.1 8.761e+03 1.235e-10
  3.52605     -7.5 8.746e+03 1.223e-10
  3.56729     -6.0 8.825e+03 1.191e-10
  3.59366     -5.0 8.971e+03 1.245e-10
  3.60329     -6.0 9.022e+03 1.152e-10
  3.61816     -5.3 8.881e+03 8.621e-11
  3.64977     -4.6 9.052e+03 1.069e-10
  3.69101     -3.6 9.212e+03 1.477e-10
  3.72683     -2.6 9.374e+03 1.940e-10
  3.74745     -3.2 9.296e+03 1.843e-10
  3.77349     -2.2 9.471e+03 2.091e-10
  3.81473     -1.3 9.542e+03 2.091e-10
  3.83837     -0.6 9.539e+03 2.007e-10
  3.85899      0.0 9.669e+03 2.361e-10
  3.88063      0.9 9.584e+03 1.962e-10
  3.90125      0.8 9.557e+03 1.776e-10
  3.93845      1.7 9.510e+03 1.404e-10
  3.97970      2.4 9.473e+03 1.177e-10
  4.01380      3.0 9.553e+03 1.190e-10
  4.03442      2.5 9.703e+03 1.481e-10
  4.05858      2.9 9.892e+03 2.039e-10
  4.07920      3.1 9.879e+03 1.708e-10
  4.10342      3.8 1.005e+04 2.555e-10
  4.14466      4.7 1.032e+04 3.703e-10
  4.16759      5.4 1.074e+04 5.094e-10
  4.18821      4.6 1.096e+04 5.698e-10
  4.22714      4.2 1.145e+04 7.587e-10
  4.26838      3.5 1.206e+04 1.106e-09
  4.29941      2.5 1.260e+04 1.427e-09
  4.31118      3.0 1.279e+04 1.498e-09
  4.32139      1.4 1.319e+04 1.825e-09
  4.34045      0.8 1.317e+04 1.807e-09
  4.36097      0.4 1.308e+04 1.762e-09
  4.37747      0.4 1.281e+04 1.558e-09
  4.38778     -0.2 1.289e+04 1.605e-09
  4.40221     -0.9 1.260e+04 1.304e-09
  4.41963     -1.5 1.210e+04 1.030e-09
  4.42994     -1.5 1.251e+04 1.266e-09
  4.44345     -1.8 1.198e+04 9.999e-10
  4.45436     -1.7 1.144e+04 7.884e-10
  4.46467     -1.9 1.130e+04 7.479e-10
  4.48469     -1.7 1.099e+04 5.648e-10
  4.51572     -1.9 1.075e+04 3.727e-10
  4.54024     -1.3 1.031e+04 2.467e-10
  4.56086     -0.9 1.029e+04 2.398e-10
  4.58773     -0.2 9.977e+03 1.652e-10
  4.60835     -0.6 9.948e+03 1.593e-10
  4.63954      0.3 9.727e+03 1.328e-10
  4.68078      1.6 9.697e+03 1.331e-10
  4.72090      2.9 9.743e+03 1.423e-10
  4.74152      2.8 9.857e+03 1.502e-10
  4.76045      3.9 9.974e+03 1.858e-10
  4.78107      4.8 9.874e+03 1.535e-10
  4.80450      5.6 1.008e+04 2.238e-10
  4.84574      6.5 1.045e+04 3.881e-10
  4.87470      7.4 1.095e+04 6.370e-10
  4.89532      7.5 1.100e+04 6.760e-10
  4.92822      8.5 1.130e+04 8.228e-10
  4.96946      9.1 1.137e+04 8.174e-10
  5.00128      9.7 1.130e+04 7.127e-10
  5.01906     10.4 1.143e+04 7.944e-10
  5.02839     10.2 1.131e+04 7.550e-10
  5.04144     10.2 1.130e+04 7.058e-10
  5.06206     10.1 1.128e+04 6.538e-10
  5.08268     10.0 1.123e+04 6.027e-10
  5.09488      9.9 1.115e+04 5.578e-10
  5.10519      9.9 1.118e+04 5.953e-10
  5.12150      9.9 1.107e+04 5.564e-10
  5.13181     10.3 1.119e+04 6.360e-10
  5.14454     10.2 1.113e+04 6.150e-10
  5.16156     10.2 1.089e+04 5.190e-10
  5.18228     10.2 1.102e+04 5.707e-10
  5.21691     10.5 1.082e+04 5.085e-10
  5.24211     10.8 1.064e+04 4.505e-10
  5.26273     11.0 1.102e+04 6.472e-10
  5.29483     11.3 1.077e+04 5.475e-10
  5.31545     11.0 1.086e+04 5.657e-10
  5.34063     11.3 1.068e+04 4.647e-10
  5.38187     11.7 1.053e+04 3.688e-10
  5.42311     12.2 1.042e+04 2.806e-10
  5.44863     12.5 1.031e+04 2.133e-10
  5.46721     11.8 1.061e+04 2.618e-10
  5.48294     11.5 1.011e+04 2.026e-10
  5.50559     11.9 9.955e+03 1.654e-10
  5.54683     12.5 9.802e+03 1.598e-10
  5.58180     13.2 9.819e+03 1.684e-10
  5.60242     12.5 9.879e+03 1.718e-10
  5.62931     13.3 9.856e+03 2.033e-10
  5.67055     14.1 9.942e+03 2.580e-10
  5.70315     14.7 1.007e+04 3.068e-10
  5.72377     15.0 9.732e+03 1.947e-10
  5.73559     15.4 9.725e+03 1.904e-10
  5.75621     15.3 9.814e+03 1.913e-10
  5.79427     15.6 9.731e+03 1.796e-10
  5.83551     16.0 9.703e+03 1.808e-10
  5.86876     16.4 9.732e+03 1.889e-10
  5.88938     16.8 9.752e+03 1.882e-10
  5.91799     17.5 9.770e+03 2.048e-10
  5.94397     18.5 9.780e+03 2.184e-10
  5.96459     19.1 9.636e+03 1.632e-10
  6.00047     20.1 9.647e+03 1.734e-10
  6.02256     21.0 9.693e+03 1.728e-10
  6.04318     21.4 9.853e+03 1.854e-10
  6.08295     21.7 9.936e+03 2.115e-10
  6.12419     21.9 1.006e+04 2.730e-10
  6.15503     22.3 1.017e+04 3.274e-10
  6.16584     22.1 1.035e+04 3.814e-10
  6.17490     22.3 1.051e+04 4.381e-10
  6.18461     23.0 1.052e+04 4.406e-10
  6.19617     21.7 1.113e+04 5.914e-10
  6.21679     19.9 1.186e+04 9.119e-10
  6.23243     18.5 1.229e+04 1.382e-09
  6.24274     18.6 1.248e+04 1.608e-09
  6.25803     18.0 1.240e+04 1.791e-09
  6.27865     17.6 1.223e+04 1.715e-09
  6.29471     17.2 1.186e+04 1.460e-09
  6.30477     17.4 1.200e+04 1.521e-09
  6.30933     17.6 1.182e+04 1.327e-09
  6.31989     16.5 1.135e+04 9.577e-10
  6.34051     15.2 1.092e+04 7.125e-10
  6.36113     13.9 1.061e+04 5.932e-10
  6.37591     13.2 1.057e+04 5.886e-10
  6.38622     12.9 1.040e+04 5.202e-10
  6.40237     12.5 1.050e+04 5.627e-10
  6.41513     12.2 1.065e+04 6.502e-10
  6.42544     11.5 1.086e+04 7.854e-10
  6.44250     11.6 1.100e+04 9.255e-10
  6.45281     11.6 1.083e+04 8.379e-10
  6.46423     11.9 1.092e+04 9.277e-10
  6.48485     12.2 1.097e+04 9.544e-10
  6.50547     12.6 1.096e+04 9.398e-10
  6.51939     13.0 1.087e+04 8.819e-10
  6.52885     12.7 1.059e+04 7.513e-10
  6.53554     12.2 1.058e+04 7.405e-10
  6.54671     12.4 1.037e+04 6.446e-10
  6.56733     12.6 1.015e+04 5.502e-10
  6.58598     12.7 9.946e+03 4.850e-10
  6.59629     12.5 9.749e+03 4.195e-10
  6.60857     13.1 9.624e+03 3.867e-10
  6.62919     13.5 9.629e+03 3.850e-10
  6.64565     14.4 9.649e+03 3.865e-10
  6.66637     14.1 9.683e+03 3.611e-10
  6.69115     15.1 9.728e+03 3.679e-10
  6.71167     15.6 9.790e+03 3.845e-10
  6.72946     16.4 9.888e+03 4.291e-10
  6.73977     15.9 9.810e+03 3.819e-10
  6.75291     16.5 9.983e+03 4.463e-10
  6.76606     17.0 1.028e+04 5.702e-10
  6.77637     16.6 1.026e+04 5.687e-10
  6.79415     17.2 1.053e+04 7.183e-10
  6.80636     18.1 1.079e+04 8.883e-10
  6.81667     18.0 1.049e+04 7.792e-10
  6.83539     19.1 1.070e+04 8.846e-10
  6.85601     20.1 1.081e+04 9.121e-10
  6.87295     21.1 1.079e+04 8.803e-10
  6.88279     20.9 1.043e+04 6.696e-10
  6.88648     20.2 1.020e+04 5.414e-10
  6.89725     21.0 1.003e+04 4.568e-10
  6.91787     21.3 9.899e+03 4.012e-10
  6.94890     22.0 9.539e+03 3.058e-10
  6.99024     23.7 9.362e+03 2.691e-10
  7.01662     25.8 9.247e+03 2.523e-10
  7.03724     25.8 8.939e+03 1.929e-10
  7.07272     28.1 8.893e+03 1.911e-10
  7.10688     30.4 8.904e+03 1.957e-10
  7.12750     30.0 9.046e+03 2.250e-10
  7.14980     32.5 9.124e+03 2.418e-10
  7.17042     32.3 8.958e+03 2.007e-10
  7.19644     34.8 9.044e+03 2.129e-10
  7.23768     37.3 9.189e+03 2.323e-10
  7.27892     39.8 9.441e+03 2.673e-10
  7.30359     42.0 9.677e+03 3.131e-10
  7.32421     41.9 9.508e+03 2.525e-10
  7.34761     43.0 9.590e+03 2.806e-10
  7.35783     43.0 9.595e+03 2.756e-10
  7.36998     43.9 9.695e+03 3.193e-10
  7.38029     43.1 9.718e+03 3.177e-10
  7.39214     42.7 1.051e+04 4.222e-10
  7.41276     41.4 1.227e+04 7.669e-10
  7.43338     39.8 1.443e+04 1.440e-09
  7.44683     36.0 1.734e+04 2.691e-09
  7.45193     33.6 1.819e+04 4.204e-09
  7.45906     30.2 1.999e+04 8.150e-09
  7.46783     28.1 2.059e+04 1.492e-08
  7.47299     26.9 2.004e+04 2.318e-08
  7.47968     26.9 2.027e+04 3.619e-08
  7.48523     27.2 2.032e+04 5.275e-08
  7.49038     28.3 2.000e+04 4.834e-08
  7.50030     28.7 2.025e+04 4.998e-08
  7.51061     28.9 2.041e+04 4.811e-08
  7.51852     28.9 2.082e+04 4.198e-08
  7.52368     29.3 2.069e+04 3.151e-08
  7.52804     28.6 2.134e+04 2.514e-08
  7.53320     27.3 2.147e+04 2.308e-08
  7.54154     24.5 2.181e+04 1.698e-08
  7.55181     20.8 2.117e+04 1.226e-08
  7.56212     16.8 1.845e+04 8.316e-09
  7.57247     14.6 1.765e+04 7.351e-09
  7.58278     12.9 1.732e+04 6.898e-09
  7.58825     11.7 1.734e+04 6.910e-09
  7.59063     10.1 1.803e+04 6.178e-09
  7.60067     11.3 1.819e+04 7.180e-09
  7.61896     10.2 1.739e+04 5.694e-09
  7.63958      9.6 1.668e+04 4.493e-09
  7.65695      9.2 1.609e+04 3.587e-09
  7.66726     10.6 1.636e+04 4.306e-09
  7.68082      9.9 1.535e+04 3.209e-09
  7.69845      9.0 1.433e+04 2.450e-09
  7.70876      6.9 1.296e+04 1.713e-09
  7.72206      6.6 1.299e+04 1.695e-09
  7.73384      6.4 1.304e+04 1.782e-09
  7.74415      7.7 1.299e+04 1.602e-09
  7.76330      7.4 1.323e+04 1.736e-09
  7.78392      6.7 1.355e+04 2.031e-09
  7.80043      6.2 1.372e+04 2.565e-09
  7.81074      7.6 1.355e+04 1.869e-09
  7.81887      7.7 1.373e+04 2.490e-09
  7.82918      7.7 1.363e+04 2.873e-09
  7.84578      8.6 1.392e+04 3.378e-09
  7.86640      9.2 1.441e+04 3.774e-09
  7.87732      8.8 1.583e+04 4.447e-09
  7.88763     10.8 1.432e+04 3.013e-09
  7.90764      9.2 1.680e+04 4.247e-09
  7.92306      6.6 1.936e+04 5.761e-09
  7.93332      4.4 2.049e+04 7.703e-09
  7.93918      2.0 2.090e+04 1.110e-08
  7.94434      1.3 1.987e+04 1.162e-08
  7.94897     -0.3 1.989e+04 1.568e-08
  7.95412      0.7 2.024e+04 1.369e-08
  7.96425     -0.3 1.971e+04 1.848e-08
  7.97456     -0.7 1.970e+04 2.484e-08
  7.98226     -1.7 2.120e+04 3.466e-08
  7.98742     -0.3 2.047e+04 2.966e-08
  7.99423     -1.4 2.224e+04 3.927e-08
  7.99939     -3.0 2.299e+04 4.196e-08
  8.00549     -5.5 2.435e+04 4.630e-08
  8.01555     -7.1 2.404e+04 4.221e-08
  8.02071     -5.3 2.423e+04 4.264e-08
  8.02611     -7.0 2.414e+04 3.726e-08
  8.03642     -8.6 2.318e+04 2.838e-08
  8.04673    -10.7 2.161e+04 1.995e-08
  8.05400    -12.9 1.971e+04 1.425e-08
  8.05656    -11.7 2.179e+04 1.890e-08
  8.05960    -12.4 2.073e+04 1.457e-08
  8.07255    -15.8 1.855e+04 7.267e-09
  8.08739    -20.0 1.796e+04 3.252e-09
  8.09250    -17.0 2.044e+04 1.015e-08
  8.09828    -18.0 2.065e+04 7.610e-09
  8.10859    -18.6 2.129e+04 4.890e-09
  8.11465    -20.2 2.242e+04 3.382e-09
  8.11980    -23.1 2.202e+04 2.416e-09
  8.13441    -25.4 2.691e+04 2.577e-09
  8.15398    -32.3 3.030e+04 1.405e-09
  8.16424    -33.8 4.176e+04 8.105e-09
  8.16970    -36.2 5.427e+04 2.565e-09
  8.17486    -40.2 4.689e+04 4.255e-09
  8.18076    -41.8 4.523e+04 3.182e-09
  8.19107    -45.5 2.718e+04 6.275e-09
  8.19749    -50.9 2.234e+04 7.682e-09
  8.20264    -53.1 2.660e+04 2.108e-08
  8.21169    -57.2 2.359e+04 1.619e-08
  8.22200    -59.8 2.244e+04 1.368e-08
  8.23083    -60.8 2.092e+04 8.181e-09
  8.23598    -63.6 2.264e+04 1.587e-08
  8.24262    -64.3 2.169e+04 1.277e-08
  8.25814    -65.1 2.145e+04 1.122e-08
  8.27880    -63.4 1.955e+04 7.135e-09
  8.29021    -62.5 1.701e+04 4.547e-09
  8.29856    -62.4 1.667e+04 4.948e-09
  8.30777    -64.3 1.774e+04 6.682e-09
  8.32004    -63.1 1.608e+04 5.079e-09
  8.34067    -61.7 1.518e+04 4.057e-09
  8.36129    -60.2 1.463e+04 3.328e-09
  8.37436    -58.7 1.423e+04 2.789e-09
  8.38467    -59.8 1.416e+04 2.907e-09
  8.40032    -58.8 1.374e+04 2.344e-09
  8.41063    -58.1 1.387e+04 2.594e-09
  8.42315    -57.1 1.348e+04 2.119e-09
  8.44094    -56.5 1.310e+04 1.764e-09
  8.45125    -57.8 1.298e+04 1.718e-09
  8.46439    -57.9 1.258e+04 1.499e-09
  8.48501    -57.4 1.251e+04 1.382e-09
  8.50563    -56.5 1.270e+04 1.351e-09
  8.51784    -55.7 1.276e+04 1.414e-09
  8.52264    -57.8 1.273e+04 1.406e-09
  8.53104    -56.9 1.286e+04 1.431e-09
  8.54687    -56.2 1.289e+04 1.558e-09
  8.56749    -55.9 1.324e+04 1.860e-09
  8.58443    -55.8 1.409e+04 2.515e-09
  8.59474    -57.3 1.305e+04 1.882e-09
  8.60873    -57.4 1.392e+04 2.451e-09
  8.62935    -57.9 1.509e+04 3.529e-09
  8.64115    -58.3 1.594e+04 5.056e-09
  8.65146    -57.5 1.621e+04 5.053e-09
  8.66132    -57.7 1.716e+04 7.397e-09
  8.67163    -60.6 1.590e+04 5.286e-09
  8.68600    -59.4 1.714e+04 7.906e-09
  8.69452    -59.5 1.718e+04 8.158e-09
  8.69951    -60.8 1.684e+04 7.758e-09
  8.70126    -60.8 1.680e+04 7.771e-09
  8.70658    -59.9 1.758e+04 1.024e-08
  8.71689    -59.9 1.767e+04 1.036e-08
  8.72786    -59.0 1.839e+04 1.181e-08
  8.73822    -60.7 1.807e+04 1.189e-08
  8.75125    -61.0 1.846e+04 1.050e-08
  8.76156    -61.0 1.847e+04 1.343e-08
  8.77369    -61.7 1.889e+04 9.333e-09
  8.79431    -65.3 1.841e+04 6.138e-09
  8.80481    -69.1 1.739e+04 4.626e-09
  8.81512    -69.8 1.606e+04 3.212e-09
  8.83555    -73.5 1.495e+04 2.520e-09
  8.85617    -74.3 1.451e+04 2.585e-09
  8.87139    -74.8 1.370e+04 2.686e-09
  8.87658    -75.6 1.270e+04 2.045e-09
  8.88198    -75.2 1.303e+04 2.170e-09
  8.89741    -74.9 1.259e+04 2.031e-09
  8.91803    -74.5 1.262e+04 1.892e-09
  8.93798    -75.3 1.307e+04 1.818e-09
  8.94829    -73.9 1.239e+04 1.442e-09
  8.95927    -75.6 1.255e+04 1.360e-09
  8.97989    -77.5 1.250e+04 1.412e-09
  8.99208    -78.0 1.226e+04 1.672e-09
  9.00239    -78.6 1.193e+04 1.571e-09
  9.01488    -77.5 1.188e+04 1.731e-09
  9.02519    -76.8 1.172e+04 1.577e-09
  9.04175    -75.1 1.166e+04 1.618e-09
  9.06237    -73.3 1.168e+04 1.459e-09
  9.08146    -72.0 1.171e+04 1.050e-09
  9.09177    -71.1 1.163e+04 1.192e-09
  9.10219    -70.3 1.162e+04 8.026e-10
  9.11250    -71.0 1.113e+04 5.822e-10
  9.12423    -71.3 1.050e+04 3.682e-10
  9.14485    -71.4 9.878e+03 2.739e-10
  9.15836    -71.1 9.585e+03 2.454e-10
  9.16867    -70.0 9.762e+03 2.611e-10
  9.18609    -69.6 9.573e+03 2.411e-10
  9.21239    -67.9 9.375e+03 2.288e-10
  9.23311    -67.7 9.466e+03 2.601e-10
  9.25846    -65.3 9.239e+03 2.530e-10
  9.29173    -62.7 9.082e+03 2.420e-10
  9.31235    -61.4 8.962e+03 2.240e-10
  9.34094    -58.8 8.838e+03 1.992e-10
  9.38218    -56.1 8.759e+03 1.762e-10
  9.42342    -53.8 8.670e+03 1.609e-10
  9.44552    -51.6 8.659e+03 1.617e-10
  9.45480    -50.7 8.675e+03 1.524e-10
  9.47394    -50.4 9.093e+03 2.641e-10
  9.50590    -48.5 9.182e+03 3.018e-10
  9.54714    -46.3 9.193e+03 3.723e-10
  9.57869    -43.0 9.353e+03 4.588e-10
  9.59931    -42.1 9.255e+03 3.945e-10
  9.62962    -39.2 9.187e+03 3.811e-10
  9.67086    -36.0 9.009e+03 3.012e-10
  9.69415    -33.9 8.997e+03 2.448e-10
  9.71453    -33.9 9.050e+03 2.489e-10
  9.73248    -33.1 8.828e+03 1.893e-10
  9.75334    -30.8 8.719e+03 1.883e-10
  9.79458    -28.2 8.735e+03 2.031e-10
  9.83582    -25.3 8.805e+03 2.167e-10
  9.86566    -22.4 8.830e+03 2.113e-10
  9.88628    -21.3 8.712e+03 1.753e-10
  9.91436    -18.5 8.756e+03 1.701e-10
  9.93498    -18.9 8.695e+03 1.389e-10
  9.95954    -16.3 8.703e+03 1.415e-10
  9.99883    -13.9 8.703e+03 1.447e-10
 10.01945    -12.7 8.707e+03 1.442e-10
 10.04202    -10.2 8.705e+03 1.481e-10
 10.08326     -7.7 8.723e+03 1.528e-10
 10.12450     -5.3 8.760e+03 1.573e-10
 10.15262     -3.0 8.824e+03 1.637e-10
 10.16268     -1.8 8.862e+03 1.648e-10
 10.17581     -1.8 8.844e+03 1.560e-10
 10.20699      0.5 8.904e+03 1.615e-10
 10.24823      2.7 9.227e+03 1.974e-10
 10.28579      3.7 9.836e+03 3.129e-10
 10.30641      5.1 9.815e+03 3.070e-10
 10.32030      5.4 1.015e+04 4.126e-10
 10.34082      5.7 1.054e+04 5.543e-10
 10.36144      5.8 1.101e+04 7.554e-10
 10.37280      5.7 1.148e+04 1.007e-09
 10.38311      6.6 1.137e+04 9.773e-10
 10.39582      6.5 1.185e+04 1.265e-09
 10.40613      7.0 1.167e+04 1.138e-09
 10.42330      6.8 1.215e+04 1.438e-09
