# Columns:
#   distance along LOS (in CHIMPs)
#   peculiar velocity  (in km/s)
#   temperature (K)
#   HI number density
# pos=(127.984,119.104,6.8639), angles=(1.5639,0.127416)
  0.00143    -92.1 1.052e+04 4.022e-10
  0.02256    -91.5 1.075e+04 4.779e-10
  0.06194    -91.0 1.088e+04 5.157e-10
  0.10133    -90.4 1.087e+04 5.013e-10
  0.14071    -90.1 1.083e+04 4.239e-10
  0.16990    -90.2 1.086e+04 3.883e-10
  0.17965    -90.8 1.107e+04 4.835e-10
  0.18974    -91.0 1.108e+04 4.794e-10
  0.20943    -91.2 1.110e+04 4.910e-10
  0.22912    -91.3 1.112e+04 5.226e-10
  0.24535    -91.2 1.109e+04 5.508e-10
  0.25520    -91.1 1.108e+04 5.181e-10
  0.26851    -90.9 1.109e+04 5.370e-10
  0.28820    -90.5 1.108e+04 5.403e-10
  0.30789    -90.2 1.115e+04 5.153e-10
  0.33752    -90.1 1.122e+04 4.268e-10
  0.37700    -89.9 1.120e+04 3.712e-10
  0.40644    -89.9 1.118e+04 3.389e-10
  0.42604    -90.0 1.137e+04 3.456e-10
  0.44573    -90.6 1.162e+04 3.851e-10
  0.46542    -91.4 1.188e+04 4.664e-10
  0.48095    -92.0 1.199e+04 6.155e-10
  0.49079    -92.8 1.203e+04 7.824e-10
  0.50480    -92.7 1.211e+04 1.027e-09
  0.52449    -92.3 1.218e+04 1.229e-09
  0.54419    -91.8 1.222e+04 1.326e-09
  0.56388    -91.3 1.219e+04 1.327e-09
  0.58357    -90.8 1.210e+04 1.200e-09
  0.60326    -90.5 1.195e+04 9.886e-10
  0.62295    -90.4 1.178e+04 7.989e-10
  0.63656    -90.5 1.157e+04 6.614e-10
  0.64641    -91.0 1.134e+04 5.112e-10
  0.66233    -90.8 1.116e+04 4.606e-10
  0.68202    -90.4 1.101e+04 4.201e-10
  0.70172    -90.1 1.091e+04 3.896e-10
  0.73135    -89.7 1.082e+04 3.538e-10
  0.77083    -88.9 1.061e+04 2.883e-10
  0.79238    -88.0 1.039e+04 2.439e-10
  0.81207    -87.7 1.008e+04 2.063e-10
  0.84960    -86.6 9.936e+03 1.895e-10
  0.88898    -85.2 9.902e+03 1.865e-10
  0.92836    -83.7 9.921e+03 2.037e-10
  0.96774    -82.0 9.959e+03 2.280e-10
  1.00713    -80.3 9.988e+03 2.505e-10
  1.04651    -78.7 1.004e+04 2.810e-10
  1.08392    -77.1 1.013e+04 3.245e-10
  1.10361    -76.3 9.770e+03 2.142e-10
  1.12528    -74.7 9.880e+03 2.584e-10
  1.16466    -73.1 1.008e+04 3.288e-10
  1.20404    -71.6 1.023e+04 4.311e-10
  1.24342    -70.0 1.037e+04 5.430e-10
  1.28281    -68.3 1.043e+04 6.315e-10
  1.32219    -66.7 1.043e+04 6.648e-10
  1.36157    -65.0 1.022e+04 6.003e-10
  1.39516    -63.2 9.957e+03 5.115e-10
  1.41485    -62.0 9.978e+03 5.302e-10
  1.44034    -60.2 9.717e+03 4.443e-10
  1.47972    -58.4 9.441e+03 3.502e-10
  1.51910    -56.7 9.179e+03 2.783e-10
  1.55848    -55.1 8.948e+03 2.419e-10
  1.59787    -53.3 8.818e+03 2.319e-10
  1.63725    -51.3 8.773e+03 2.302e-10
  1.67663    -49.2 8.730e+03 2.371e-10
  1.70640    -47.1 8.695e+03 2.468e-10
  1.72609    -46.2 8.695e+03 2.423e-10
  1.75540    -44.1 8.678e+03 2.543e-10
  1.79478    -42.0 8.647e+03 2.620e-10
  1.83416    -40.0 8.604e+03 2.647e-10
  1.87355    -37.8 8.457e+03 2.553e-10
  1.91293    -35.6 8.252e+03 2.182e-10
  1.95231    -33.4 8.016e+03 1.715e-10
  1.99169    -31.3 7.777e+03 1.303e-10
  2.01763    -29.3 7.564e+03 1.009e-10
  2.03733    -28.4 7.719e+03 1.246e-10
  2.07046    -26.4 7.509e+03 9.781e-11
  2.10984    -24.4 7.369e+03 8.401e-11
  2.14923    -22.4 7.333e+03 7.986e-11
  2.18861    -20.5 7.388e+03 8.929e-11
  2.22799    -18.6 7.481e+03 1.084e-10
  2.26737    -16.7 7.560e+03 1.323e-10
  2.30676    -14.4 7.674e+03 1.552e-10
  2.32887    -12.5 7.758e+03 1.652e-10
  2.34856    -12.2 7.885e+03 1.716e-10
  2.38552    -10.8 7.948e+03 1.905e-10
  2.42490     -9.0 7.983e+03 2.114e-10
  2.46429     -7.6 8.047e+03 2.140e-10
  2.50367     -7.0 8.082e+03 2.217e-10
  2.54305     -6.9 8.275e+03 2.651e-10
  2.58243     -6.6 8.523e+03 3.346e-10
  2.62042     -5.8 8.659e+03 3.775e-10
  2.64011     -5.8 8.772e+03 4.047e-10
  2.66120     -4.8 8.644e+03 3.767e-10
  2.70058     -4.0 8.404e+03 3.091e-10
  2.73997     -3.8 8.162e+03 2.507e-10
  2.77935     -3.6 7.977e+03 2.322e-10
  2.81873     -3.0 7.907e+03 2.361e-10
  2.85811     -2.1 7.914e+03 2.411e-10
  2.89750     -1.2 7.943e+03 2.470e-10
  2.93165     -0.3 7.916e+03 2.383e-10
  2.95135     -0.2 8.199e+03 2.995e-10
  2.97626      1.1 8.134e+03 2.790e-10
  3.01564      2.4 7.894e+03 2.119e-10
  3.05503      3.4 7.503e+03 1.391e-10
  3.07915      3.6 7.133e+03 1.006e-10
  3.09884      4.3 7.104e+03 9.351e-11
  3.13379      5.1 6.934e+03 8.687e-11
  3.17317      6.2 6.945e+03 9.085e-11
  3.21256      7.6 7.023e+03 1.026e-10
  3.24289      9.1 7.155e+03 1.177e-10
  3.26258      9.3 7.163e+03 1.174e-10
  3.29132     10.7 7.306e+03 1.323e-10
  3.33071     11.9 7.498e+03 1.522e-10
  3.37009     12.8 7.736e+03 1.845e-10
  3.40947     14.0 7.923e+03 2.199e-10
  3.44885     15.3 8.025e+03 2.387e-10
  3.48824     16.8 8.027e+03 2.328e-10
  3.52762     17.9 7.960e+03 2.011e-10
  3.55413     18.6 7.934e+03 1.763e-10
  3.57382     19.0 8.070e+03 1.857e-10
  3.60638     19.4 7.964e+03 1.638e-10
  3.64577     20.1 7.916e+03 1.590e-10
  3.68515     21.1 7.902e+03 1.569e-10
  3.72453     22.3 7.881e+03 1.492e-10
  3.76392     23.6 7.833e+03 1.340e-10
  3.80330     24.9 7.758e+03 1.157e-10
  3.84268     26.2 7.673e+03 1.026e-10
  3.86536     27.6 7.570e+03 9.782e-11
  3.88506     27.7 7.638e+03 1.131e-10
  3.92145     29.4 7.673e+03 1.214e-10
  3.96083     31.2 7.749e+03 1.300e-10
  4.00021     33.0 7.849e+03 1.423e-10
  4.03959     34.8 7.967e+03 1.627e-10
  4.07898     36.7 8.134e+03 1.970e-10
  4.11836     38.6 8.364e+03 2.484e-10
  4.15691     40.6 8.632e+03 2.968e-10
  4.17660     41.1 8.535e+03 2.440e-10
  4.19712     42.8 8.575e+03 2.409e-10
  4.23651     44.4 8.594e+03 2.266e-10
  4.27589     45.9 8.562e+03 1.982e-10
  4.31527     47.2 8.494e+03 1.624e-10
  4.35466     48.4 8.407e+03 1.310e-10
  4.39404     49.5 8.355e+03 1.146e-10
  4.43342     50.7 8.362e+03 1.149e-10
  4.46815     51.9 8.432e+03 1.233e-10
  4.48784     52.7 8.374e+03 1.151e-10
  4.51219     53.8 8.520e+03 1.307e-10
  4.55157     54.9 8.753e+03 1.632e-10
  4.59095     55.8 9.048e+03 2.087e-10
  4.63033     56.4 9.328e+03 2.551e-10
  4.66972     57.0 9.589e+03 2.996e-10
  4.70910     57.4 9.825e+03 3.412e-10
  4.74848     57.8 1.006e+04 3.798e-10
  4.77938     58.3 1.030e+04 4.291e-10
  4.79908     59.8 1.010e+04 3.765e-10
  4.82725     60.4 1.030e+04 4.120e-10
  4.86663     61.1 1.051e+04 4.644e-10
  4.90601     62.0 1.071e+04 5.190e-10
  4.94540     62.9 1.075e+04 5.279e-10
  4.98478     64.0 1.070e+04 5.043e-10
  5.02416     65.3 1.051e+04 4.288e-10
  5.06354     66.6 1.024e+04 3.516e-10
  5.09062     67.8 1.009e+04 3.287e-10
  5.11031     68.8 1.031e+04 3.471e-10
  5.14231     70.0 1.035e+04 3.658e-10
  5.18169     71.3 1.048e+04 4.381e-10
  5.22107     72.7 1.069e+04 5.659e-10
  5.26046     74.2 1.094e+04 7.110e-10
  5.29984     75.7 1.111e+04 7.575e-10
  5.32928     76.2 1.116e+04 7.632e-10
  5.34887     76.6 1.116e+04 7.607e-10
  5.36856     76.9 1.113e+04 7.396e-10
  5.38826     77.3 1.102e+04 6.848e-10
  5.40166     77.7 1.088e+04 6.178e-10
  5.41151     78.1 1.097e+04 6.612e-10
  5.42764     78.4 1.079e+04 5.791e-10
  5.44733     78.6 1.063e+04 5.236e-10
  5.46702     78.9 1.047e+04 5.094e-10
  5.48671     79.3 1.047e+04 5.158e-10
  5.50640     79.7 1.050e+04 5.271e-10
  5.53604     80.5 1.054e+04 5.571e-10
  5.57552     81.5 1.064e+04 6.265e-10
  5.61490     82.2 1.077e+04 6.672e-10
  5.65428     82.7 1.078e+04 6.592e-10
  5.69340     83.0 1.068e+04 6.066e-10
  5.71310     84.3 1.076e+04 6.570e-10
  5.73305     84.7 1.055e+04 5.594e-10
  5.77243     85.2 1.020e+04 4.262e-10
  5.81181     85.7 9.782e+03 3.018e-10
  5.85120     86.1 9.481e+03 2.374e-10
  5.89058     86.7 9.477e+03 2.372e-10
  5.92996     87.2 9.680e+03 2.753e-10
  5.95940     87.4 9.922e+03 3.307e-10
  5.97900     87.5 1.015e+04 3.996e-10
  5.99869     87.5 1.038e+04 5.000e-10
  6.01429     87.4 1.064e+04 6.236e-10
  6.02414     87.9 1.093e+04 7.322e-10
  6.03807     87.7 1.118e+04 8.601e-10
  6.05776     87.2 1.135e+04 9.521e-10
  6.07745     86.7 1.148e+04 1.001e-09
  6.09714     85.3 1.203e+04 1.140e-09
  6.11684     77.9 1.580e+04 2.030e-09
  6.13653     67.3 2.088e+04 6.401e-09
  6.15125     62.8 2.207e+04 1.127e-08
  6.16104     60.1 2.276e+04 1.695e-08
  6.16981     58.7 2.283e+04 2.051e-08
  6.17473     58.5 2.533e+04 2.606e-08
  6.18073     57.1 2.464e+04 2.757e-08
  6.19058     56.0 2.354e+04 2.632e-08
  6.20043     55.1 2.252e+04 2.149e-08
  6.21524     52.3 2.382e+04 1.378e-08
  6.23498     44.4 2.237e+04 6.812e-09
  6.25467     38.0 2.064e+04 6.830e-09
  6.27437     34.9 1.997e+04 9.328e-09
  6.29406     34.2 1.981e+04 1.436e-08
  6.31375     34.6 1.974e+04 1.961e-08
  6.32553     34.9 1.999e+04 2.382e-08
  6.33537     35.4 2.056e+04 2.105e-08
  6.35313     35.6 2.046e+04 2.044e-08
  6.37282     35.5 2.013e+04 1.838e-08
  6.39251     35.1 1.968e+04 1.475e-08
  6.41221     34.4 1.893e+04 1.073e-08
  6.43190     33.3 1.785e+04 7.485e-09
  6.45159     32.1 1.661e+04 5.310e-09
  6.47128     31.1 1.562e+04 4.092e-09
  6.49097     31.0 1.721e+04 5.417e-09
  6.51066     29.8 1.668e+04 5.264e-09
  6.53035     29.2 1.633e+04 5.273e-09
  6.54507     29.5 1.596e+04 4.755e-09
  6.55394     29.2 1.571e+04 4.332e-09
  6.55886     28.7 1.659e+04 5.709e-09
  6.56472     28.3 1.644e+04 5.494e-09
  6.57456     27.8 1.622e+04 5.246e-09
  6.58441     27.1 1.601e+04 5.022e-09
  6.59425     26.5 1.573e+04 4.792e-09
  6.60907     25.9 1.545e+04 4.330e-09
  6.62692     25.1 1.542e+04 4.345e-09
  6.63676     25.4 1.601e+04 4.820e-09
  6.64850     21.6 1.749e+04 5.651e-09
  6.66819     14.8 2.108e+04 1.098e-08
  6.68291     12.9 2.258e+04 1.736e-08
  6.69271     10.7 2.399e+04 2.682e-08
  6.70255      9.7 2.378e+04 4.008e-08
  6.70955      9.8 2.325e+04 5.435e-08
  6.71448      8.9 2.195e+04 5.214e-08
  6.72225      8.5 2.189e+04 5.734e-08
  6.73209      3.6 2.475e+04 7.906e-08
  6.74194     -5.3 2.747e+04 1.498e-07
  6.75178    -13.7 2.432e+04 3.459e-07
  6.76163    -19.7 2.209e+04 5.557e-07
  6.77147    -23.4 2.129e+04 6.102e-07
  6.78132    -24.2 2.098e+04 3.838e-07
  6.78736    -23.1 2.168e+04 1.559e-07
  6.79229    -22.8 2.201e+04 1.218e-07
  6.80101    -22.3 2.303e+04 5.170e-08
  6.81086    -25.3 2.307e+04 2.344e-08
  6.82567    -29.3 2.016e+04 1.183e-08
  6.84541    -32.2 1.609e+04 4.153e-09
  6.86511    -34.7 1.386e+04 1.910e-09
  6.88480    -35.4 1.266e+04 1.368e-09
  6.90449    -35.0 1.234e+04 1.217e-09
  6.92418    -34.4 1.231e+04 1.195e-09
  6.93816    -34.3 1.242e+04 1.235e-09
  6.94800    -34.1 1.209e+04 1.160e-09
  6.96356    -34.4 1.240e+04 1.406e-09
  6.98325    -34.5 1.280e+04 1.812e-09
  7.00295    -34.1 1.319e+04 2.248e-09
  7.02264    -33.3 1.356e+04 2.601e-09
  7.04233    -32.7 1.369e+04 2.716e-09
  7.06202    -32.2 1.359e+04 2.542e-09
  7.08171    -31.9 1.322e+04 1.931e-09
  7.09377    -32.1 1.264e+04 1.373e-09
  7.10362    -32.4 1.239e+04 1.607e-09
  7.12109    -32.6 1.188e+04 1.205e-09
  7.14078    -32.8 1.149e+04 9.492e-10
  7.16048    -33.0 1.120e+04 8.027e-10
  7.18017    -33.0 1.096e+04 7.172e-10
  7.19986    -32.7 1.081e+04 6.684e-10
  7.21955    -32.4 1.078e+04 6.396e-10
  7.23924    -32.3 1.080e+04 6.089e-10
  7.24939    -32.3 1.087e+04 5.766e-10
  7.25924    -32.4 1.080e+04 6.345e-10
  7.27862    -32.6 1.088e+04 6.182e-10
  7.29832    -33.0 1.097e+04 6.119e-10
  7.31801    -33.6 1.112e+04 6.190e-10
  7.33770    -34.2 1.120e+04 6.496e-10
  7.35739    -34.8 1.123e+04 6.758e-10
  7.38702    -35.8 1.122e+04 6.761e-10
  7.42650    -36.5 1.113e+04 6.294e-10
  7.46589    -38.1 1.108e+04 5.491e-10
  7.49533    -39.1 1.125e+04 6.253e-10
  7.51492    -42.0 1.158e+04 6.495e-10
  7.53461    -44.9 1.170e+04 9.011e-10
  7.55078    -46.6 1.178e+04 1.261e-09
  7.56063    -46.3 1.190e+04 1.280e-09
  7.57399    -47.2 1.192e+04 1.518e-09
  7.59369    -47.7 1.192e+04 1.562e-09
  7.61338    -48.4 1.194e+04 1.326e-09
  7.63307    -50.6 1.171e+04 8.058e-10
  7.65276    -55.1 1.088e+04 4.333e-10
  7.67245    -59.4 9.597e+03 2.995e-10
  7.69214    -61.0 9.170e+03 2.750e-10
  7.70640    -61.4 9.108e+03 2.757e-10
  7.71625    -61.1 9.236e+03 2.928e-10
  7.74147    -61.6 9.119e+03 2.897e-10
  7.78095    -61.7 8.928e+03 2.728e-10
  7.82033    -61.7 8.663e+03 2.219e-10
  7.85237    -61.8 8.494e+03 1.922e-10
  7.87206    -62.3 9.049e+03 2.746e-10
  7.89910    -62.3 8.897e+03 2.554e-10
  7.93848    -62.1 8.874e+03 2.570e-10
  7.97786    -61.7 9.032e+03 3.092e-10
  8.01725    -60.9 9.420e+03 3.817e-10
  8.04668    -60.4 9.838e+03 4.417e-10
  8.06628    -60.7 1.004e+04 4.570e-10
  8.08597    -61.2 1.026e+04 4.700e-10
  8.10566    -61.9 1.036e+04 4.776e-10
  8.12535    -62.6 1.047e+04 4.906e-10
  8.14504    -63.1 1.062e+04 5.185e-10
  8.16341    -63.5 1.064e+04 5.442e-10
  8.17326    -65.1 1.047e+04 6.729e-10
  8.18443    -65.2 1.025e+04 6.524e-10
  8.20412    -65.1 1.007e+04 6.169e-10
  8.22381    -64.9 9.900e+03 5.705e-10
  8.24350    -64.6 9.755e+03 5.154e-10
  8.26319    -64.5 9.612e+03 4.519e-10
  8.29283    -64.9 9.333e+03 3.687e-10
  8.33231    -64.1 8.815e+03 2.791e-10
  8.37169    -62.6 8.241e+03 2.034e-10
  8.41107    -61.2 7.923e+03 1.609e-10
  8.45045    -59.6 7.857e+03 1.459e-10
  8.47484    -57.9 7.874e+03 1.446e-10
  8.49454    -58.5 7.573e+03 1.227e-10
  8.52922    -57.7 7.905e+03 1.490e-10
  8.56860    -57.0 8.939e+03 2.967e-10
  8.60799    -55.4 1.008e+04 5.607e-10
  8.64737    -53.8 1.097e+04 8.551e-10
  8.67681    -52.2 1.046e+04 8.114e-10
  8.69640    -51.8 1.055e+04 8.040e-10
  8.71609    -51.6 1.065e+04 7.637e-10
  8.73578    -51.9 1.145e+04 7.830e-10
  8.74617    -53.7 1.400e+04 9.813e-10
  8.75602    -52.8 1.520e+04 1.384e-09
  8.77517    -54.9 1.728e+04 2.422e-09
  8.78589    -56.2 1.825e+04 4.284e-09
  8.79573    -54.8 1.491e+04 1.422e-09
  8.81455    -56.0 1.626e+04 2.068e-09
  8.83424    -56.6 1.685e+04 2.779e-09
  8.85393    -56.8 1.690e+04 3.162e-09
  8.87362    -57.2 1.656e+04 3.153e-09
  8.89331    -57.7 1.533e+04 2.522e-09
  8.91301    -59.2 1.361e+04 1.734e-09
  8.93166    -61.1 1.201e+04 1.220e-09
  8.94151    -59.6 1.170e+04 1.146e-09
  8.95239    -60.1 1.143e+04 9.764e-10
  8.97208    -60.5 1.139e+04 8.952e-10
  8.99177    -61.2 1.135e+04 8.685e-10
  9.01146    -63.0 1.216e+04 9.365e-10
  9.03115    -66.1 1.394e+04 1.468e-09
  9.05085    -68.6 1.555e+04 3.262e-09
  9.07054    -70.0 1.675e+04 6.607e-09
  9.08728    -70.7 1.791e+04 1.066e-08
  9.09712    -68.9 1.649e+04 6.047e-09
  9.10992    -69.6 1.762e+04 9.702e-09
  9.12961    -70.3 1.867e+04 1.168e-08
  9.14930    -72.3 1.915e+04 1.171e-08
  9.16899    -76.8 1.997e+04 7.896e-09
  9.18868    -85.5 1.828e+04 4.024e-09
  9.20838    -95.4 1.552e+04 3.003e-09
  9.22807   -102.1 1.472e+04 2.977e-09
  9.24290   -106.1 1.450e+04 3.576e-09
  9.25274   -103.5 1.498e+04 3.706e-09
  9.26745   -107.0 1.511e+04 4.322e-09
  9.28714   -111.2 1.559e+04 4.385e-09
  9.30683   -117.0 1.615e+04 4.024e-09
  9.32652   -124.0 1.601e+04 3.336e-09
  9.34622   -130.2 1.508e+04 3.022e-09
  9.36591   -134.4 1.426e+04 2.859e-09
  9.38560   -136.7 1.366e+04 2.599e-09
  9.39851   -138.2 1.320e+04 2.131e-09
  9.40836   -137.9 1.381e+04 2.544e-09
  9.42498   -139.9 1.344e+04 1.947e-09
  9.44467   -142.5 1.303e+04 1.453e-09
  9.46436   -145.3 1.251e+04 1.237e-09
  9.48405   -147.6 1.227e+04 1.202e-09
  9.50375   -149.1 1.221e+04 1.201e-09
  9.52344   -150.0 1.211e+04 1.289e-09
  9.54313   -150.4 1.219e+04 1.435e-09
  9.55413   -150.5 1.229e+04 1.549e-09
  9.56398   -150.7 1.287e+04 2.006e-09
  9.58251   -150.9 1.293e+04 2.044e-09
  9.60220   -151.6 1.310e+04 2.108e-09
  9.62189   -153.0 1.355e+04 2.315e-09
  9.64159   -154.9 1.426e+04 2.775e-09
  9.66128   -156.8 1.504e+04 3.521e-09
  9.68097   -158.6 1.567e+04 4.368e-09
  9.69991   -160.3 1.597e+04 4.935e-09
  9.70975   -160.0 1.673e+04 6.687e-09
  9.72035   -161.4 1.678e+04 6.900e-09
  9.74004   -162.5 1.658e+04 6.745e-09
  9.75973   -163.1 1.586e+04 5.398e-09
  9.77942   -163.7 1.490e+04 3.789e-09
  9.79912   -164.4 1.385e+04 2.575e-09
  9.81881   -165.2 1.287e+04 1.803e-09
  9.83850   -165.6 1.209e+04 1.330e-09
  9.85552   -165.7 1.150e+04 1.021e-09
  9.86537   -165.8 1.162e+04 1.070e-09
  9.87788   -165.9 1.111e+04 8.321e-10
  9.89757   -165.7 1.067e+04 6.595e-10
  9.91726   -165.0 1.029e+04 5.305e-10
  9.93696   -164.2 1.001e+04 4.378e-10
  9.95665   -163.4 9.826e+03 3.759e-10
  9.98628   -161.8 9.654e+03 3.171e-10
 10.01134   -160.3 9.631e+03 3.058e-10
 10.02109   -162.2 9.904e+03 3.833e-10
 10.03541   -161.5 9.932e+03 3.845e-10
 10.05510   -161.0 1.003e+04 4.051e-10
 10.07479   -160.5 1.018e+04 4.464e-10
 10.09449   -160.0 1.035e+04 5.071e-10
 10.11418   -159.5 1.054e+04 5.869e-10
 10.13387   -158.9 1.073e+04 6.856e-10
 10.15356   -158.1 1.093e+04 8.035e-10
 10.16676   -157.4 1.117e+04 9.425e-10
 10.17661   -159.0 1.195e+04 1.327e-09
 10.19294   -158.6 1.253e+04 1.598e-09
 10.21263   -158.3 1.319e+04 1.936e-09
 10.23233   -158.0 1.383e+04 2.333e-09
 10.25202   -157.7 1.435e+04 2.767e-09
 10.27171   -157.3 1.468e+04 3.186e-09
 10.29140   -156.8 1.481e+04 3.524e-09
 10.31109   -156.0 1.479e+04 3.735e-09
 10.32238   -155.1 1.475e+04 3.795e-09
 10.33223   -156.9 1.445e+04 3.789e-09
 10.35047   -156.0 1.403e+04 3.307e-09
 10.37017   -155.2 1.359e+04 2.740e-09
 10.38986   -154.6 1.313e+04 2.194e-09
 10.40955   -154.1 1.269e+04 1.723e-09
 10.42924   -153.8 1.229e+04 1.348e-09
 10.44893   -153.4 1.198e+04 1.062e-09
 10.46815   -153.0 1.177e+04 8.457e-10
 10.47800   -154.5 1.142e+04 6.441e-10
 10.48831   -154.1 1.115e+04 5.786e-10
 10.50800   -153.6 1.093e+04 5.365e-10
 10.52770   -153.1 1.079e+04 4.941e-10
 10.54739   -152.5 1.065e+04 4.558e-10
 10.56708   -151.9 1.052e+04 4.255e-10
 10.58677   -151.0 1.042e+04 4.071e-10
 10.60646   -150.0 1.035e+04 4.005e-10
 10.62377   -149.0 1.032e+04 3.995e-10
 10.63362   -149.3 1.054e+04 4.661e-10
 10.64584   -148.3 1.063e+04 4.887e-10
 10.66554   -147.3 1.086e+04 5.315e-10
 10.68523   -146.6 1.133e+04 6.050e-10
 10.70492   -146.2 1.204e+04 7.242e-10
 10.72461   -146.2 1.287e+04 9.105e-10
 10.74430   -146.3 1.358e+04 1.187e-09
 10.76399   -146.3 1.400e+04 1.543e-09
 10.77939   -146.1 1.415e+04 1.951e-09
 10.78924   -146.5 1.474e+04 3.584e-09
 10.80337   -145.5 1.467e+04 3.666e-09
 10.82307   -144.7 1.426e+04 3.659e-09
 10.84276   -144.1 1.412e+04 3.415e-09
 10.86245   -143.6 1.395e+04 3.326e-09
 10.88214   -143.0 1.372e+04 3.299e-09
 10.90183   -142.3 1.345e+04 3.213e-09
 10.92152   -141.6 1.319e+04 3.026e-09
 10.93501   -140.9 1.295e+04 2.763e-09
 10.94485   -141.3 1.321e+04 2.469e-09
 10.96091   -140.5 1.292e+04 2.300e-09
 10.98060   -139.6 1.257e+04 2.099e-09
 11.00029   -138.7 1.222e+04 1.854e-09
 11.01998   -137.8 1.187e+04 1.597e-09
 11.03967   -136.8 1.149e+04 1.357e-09
 11.05936   -135.7 1.113e+04 1.154e-09
 11.07905   -134.5 1.083e+04 9.944e-10
 11.09063   -133.4 1.057e+04 8.671e-10
 11.10047   -133.5 1.069e+04 8.614e-10
 11.11844   -132.4 1.050e+04 7.726e-10
 11.13813   -131.2 1.031e+04 7.036e-10
 11.15782   -129.9 1.018e+04 6.514e-10
 11.17751   -128.6 1.008e+04 6.107e-10
 11.19720   -127.4 1.001e+04 5.758e-10
 11.21689   -126.1 9.953e+03 5.482e-10
 11.23640   -124.8 9.949e+03 5.309e-10
 11.24625   -124.8 1.015e+04 6.007e-10
 11.25628   -123.5 1.016e+04 5.946e-10
 11.27597   -122.3 1.016e+04 5.926e-10
 11.29566   -121.1 1.016e+04 5.921e-10
 11.31535   -119.9 1.023e+04 5.988e-10
 11.33504   -118.8 1.052e+04 6.511e-10
 11.35473   -117.9 1.082e+04 7.424e-10
 11.37442   -117.0 1.113e+04 8.712e-10
 11.39202   -116.3 1.152e+04 1.066e-09
 11.40186   -116.2 1.116e+04 9.962e-10
 11.41381   -115.5 1.146e+04 1.186e-09
 11.43350   -114.9 1.193e+04 1.455e-09
 11.45319   -114.4 1.251e+04 1.818e-09
 11.47288   -114.1 1.311e+04 2.242e-09
 11.49257   -114.0 1.359e+04 2.662e-09
 11.51226   -114.5 1.394e+04 3.093e-09
 11.53195   -115.3 1.418e+04 3.594e-09
 11.54764   -115.7 1.433e+04 4.161e-09
 11.55748   -115.2 1.411e+04 1.896e-09
 11.56994   -115.4 1.408e+04 2.270e-09
 11.57978   -115.8 1.459e+04 3.448e-09
 11.59103   -115.9 1.430e+04 3.835e-09
 11.61072   -115.8 1.404e+04 4.145e-09
 11.63041   -115.5 1.393e+04 4.475e-09
 11.65010   -115.0 1.396e+04 4.802e-09
