# Columns:
#   distance along LOS (in CHIMPs)
#   peculiar velocity  (in km/s)
#   temperature (K)
#   HI number density
# pos=(227.246,153.866,21.9911), angles=(3.04468,1.43585)
  0.01912     28.8 1.043e+04 4.201e-10
  0.04377     29.5 1.059e+04 4.645e-10
  0.06339     30.1 1.059e+04 5.068e-10
  0.09712     30.7 1.070e+04 5.132e-10
  0.13636     31.2 1.073e+04 4.901e-10
  0.16570     30.8 1.081e+04 4.142e-10
  0.18523     30.6 1.083e+04 3.806e-10
  0.20485     30.1 1.091e+04 3.849e-10
  0.21640     29.8 1.090e+04 3.873e-10
  0.22631     29.4 1.096e+04 3.966e-10
  0.25410     29.0 1.103e+04 4.422e-10
  0.29335     29.3 1.105e+04 4.402e-10
  0.33260     29.8 1.097e+04 3.518e-10
  0.37184     29.7 1.084e+04 2.306e-10
  0.41109     29.2 1.067e+04 1.946e-10
  0.45034     28.8 1.068e+04 2.087e-10
  0.48958     28.7 1.084e+04 2.595e-10
  0.52883     28.8 1.106e+04 3.006e-10
  0.55817     28.4 1.123e+04 3.177e-10
  0.57769     27.7 1.157e+04 3.417e-10
  0.59732     25.0 1.254e+04 4.299e-10
  0.61634     21.2 1.326e+04 7.549e-10
  0.62615     20.0 1.333e+04 1.045e-09
  0.63656     17.8 1.374e+04 1.891e-09
  0.65619     15.8 1.464e+04 2.947e-09
  0.67581     13.7 1.504e+04 3.334e-09
  0.69543     12.4 1.447e+04 2.897e-09
  0.71506     11.0 1.368e+04 2.019e-09
  0.73468      8.6 1.329e+04 1.271e-09
  0.75430      6.0 1.270e+04 8.187e-10
  0.77393      3.3 1.230e+04 6.023e-10
  0.79355     -0.1 1.287e+04 6.278e-10
  0.81317     -3.6 1.305e+04 6.976e-10
  0.82611     -4.2 1.180e+04 1.148e-09
  0.83592     -4.1 1.161e+04 8.616e-10
  0.85242     -3.4 1.126e+04 1.048e-09
  0.88195     -2.9 1.186e+04 8.339e-10
  0.92130     -5.1 1.204e+04 6.184e-10
  0.96054     -6.4 1.150e+04 7.026e-10
  0.99979     -5.4 1.133e+04 8.287e-10
  1.02627     -4.0 1.130e+04 7.756e-10
  1.04590     -3.3 1.090e+04 5.737e-10
  1.07828     -2.3 1.116e+04 6.470e-10
  1.11753     -1.4 1.121e+04 7.276e-10
  1.15678      0.0 1.124e+04 8.078e-10
  1.19602      1.2 1.129e+04 7.387e-10
  1.23527      1.9 1.134e+04 6.852e-10
  1.27452      2.7 1.125e+04 7.273e-10
  1.31376      4.2 1.114e+04 7.743e-10
  1.35301      6.0 1.110e+04 7.882e-10
  1.39226      7.8 1.107e+04 7.929e-10
  1.42621      9.5 1.111e+04 8.258e-10
  1.44583      9.4 1.078e+04 5.873e-10
  1.46084     10.9 1.077e+04 6.558e-10
  1.48037     11.3 1.085e+04 6.837e-10
  1.49999     12.4 1.075e+04 6.642e-10
  1.51961     13.2 1.074e+04 6.492e-10
  1.53924     14.2 1.070e+04 6.196e-10
  1.54923     15.0 1.070e+04 5.872e-10
  1.55904     14.8 1.068e+04 5.277e-10
  1.57848     15.5 1.068e+04 5.171e-10
  1.59811     16.1 1.070e+04 5.207e-10
  1.61773     16.4 1.081e+04 5.505e-10
  1.63579     16.6 1.096e+04 6.047e-10
  1.64560     16.4 1.084e+04 5.522e-10
  1.65698     16.5 1.106e+04 6.659e-10
  1.67660     16.6 1.125e+04 8.176e-10
  1.69622     17.0 1.141e+04 9.731e-10
  1.71585     17.3 1.162e+04 1.070e-09
  1.74538     18.1 1.144e+04 9.292e-10
  1.78472     19.2 1.099e+04 5.984e-10
  1.82397     20.1 1.061e+04 3.162e-10
  1.84576     20.2 1.036e+04 1.807e-10
  1.86539     20.5 1.042e+04 2.291e-10
  1.90246     21.0 1.009e+04 1.868e-10
  1.94171     22.4 9.934e+03 1.750e-10
  1.98096     24.4 9.859e+03 1.608e-10
  2.02020     26.6 9.853e+03 1.270e-10
  2.05945     28.4 9.919e+03 9.034e-11
  2.09870     29.7 9.996e+03 7.180e-11
  2.13794     31.1 1.001e+04 7.212e-11
  2.17719     32.5 1.005e+04 8.161e-11
  2.21644     34.2 1.006e+04 1.003e-10
  2.24570     36.1 1.007e+04 1.160e-10
  2.26532     35.9 9.976e+03 1.020e-10
  2.29493     37.7 1.000e+04 1.155e-10
  2.33418     39.3 1.002e+04 1.159e-10
  2.37342     40.9 1.000e+04 1.121e-10
  2.41267     42.3 9.945e+03 1.097e-10
  2.45192     43.8 9.909e+03 1.105e-10
  2.49116     45.1 9.894e+03 1.164e-10
  2.53041     46.4 9.966e+03 1.364e-10
  2.56966     47.2 1.035e+04 1.823e-10
  2.60890     47.5 1.072e+04 2.700e-10
  2.63824     47.9 1.077e+04 3.292e-10
  2.65525     48.0 1.080e+04 3.630e-10
  2.66515     48.1 1.064e+04 3.239e-10
  2.68740     48.8 1.069e+04 4.359e-10
  2.72664     49.8 1.061e+04 4.831e-10
  2.76589     51.0 1.043e+04 4.414e-10
  2.80514     52.0 1.022e+04 3.674e-10
  2.84438     52.9 1.013e+04 3.171e-10
  2.88363     53.8 1.015e+04 3.158e-10
  2.92288     54.8 1.021e+04 3.250e-10
  2.96212     55.8 1.036e+04 3.465e-10
  3.00137     56.1 1.058e+04 3.921e-10
  3.03545     56.1 1.093e+04 5.116e-10
  3.05507     56.3 1.075e+04 3.971e-10
  3.06518     56.1 1.107e+04 5.194e-10
  3.08481     57.9 1.082e+04 3.803e-10
  3.11911     57.0 1.131e+04 5.831e-10
  3.15836     55.5 1.188e+04 9.419e-10
  3.19760     53.6 1.220e+04 1.279e-09
  3.23685     51.9 1.205e+04 1.255e-09
  3.27610     51.3 1.143e+04 9.681e-10
  3.31534     51.4 1.069e+04 5.731e-10
  3.35459     51.5 1.005e+04 3.084e-10
  3.39384     51.5 9.644e+03 1.984e-10
  3.43308     52.2 9.541e+03 1.929e-10
  3.46512     53.4 9.533e+03 2.052e-10
  3.48474     53.5 9.729e+03 2.578e-10
  3.51158     54.7 9.771e+03 2.715e-10
  3.55082     55.9 9.865e+03 2.918e-10
  3.59007     57.1 1.001e+04 3.165e-10
  3.62932     58.1 1.010e+04 3.343e-10
  3.66856     59.0 1.009e+04 3.331e-10
  3.70781     60.0 9.990e+03 3.114e-10
  3.74706     61.1 9.795e+03 2.511e-10
  3.78630     62.1 9.581e+03 1.826e-10
  3.82555     63.2 9.441e+03 1.470e-10
  3.86480     64.5 9.446e+03 1.471e-10
  3.88467     66.0 9.534e+03 1.588e-10
  3.90430     67.0 9.332e+03 1.329e-10
  3.94329     68.7 9.482e+03 1.548e-10
  3.98254     70.4 9.715e+03 1.944e-10
  4.02178     72.1 9.954e+03 2.475e-10
  4.06103     73.7 1.020e+04 3.180e-10
  4.08454     74.1 1.043e+04 4.210e-10
  4.09426     74.6 1.038e+04 3.909e-10
  4.10989     75.0 1.044e+04 4.206e-10
  4.12952     75.5 1.069e+04 5.456e-10
  4.14914     75.9 1.082e+04 6.504e-10
  4.16876     76.5 1.115e+04 8.668e-10
  4.18839     77.1 1.139e+04 1.047e-09
  4.21792     78.1 1.181e+04 1.343e-09
  4.25726     78.7 1.187e+04 1.386e-09
  4.28461     79.3 1.167e+04 1.254e-09
  4.30423     80.3 1.180e+04 1.334e-09
  4.33576     81.1 1.139e+04 1.031e-09
  4.37500     81.9 1.080e+04 6.502e-10
  4.41425     82.5 1.013e+04 3.876e-10
  4.45350     83.1 9.779e+03 3.272e-10
  4.49274     84.1 9.764e+03 3.313e-10
  4.53199     85.2 9.791e+03 3.648e-10
  4.57124     86.2 9.906e+03 4.224e-10
  4.61048     86.8 9.984e+03 4.359e-10
  4.64973     86.9 9.947e+03 4.039e-10
  4.68454     86.9 9.829e+03 3.379e-10
  4.70416     88.5 1.067e+04 7.109e-10
  4.72822     88.3 1.041e+04 5.659e-10
  4.76747     88.0 1.002e+04 3.986e-10
  4.80672     87.5 9.575e+03 2.750e-10
  4.84596     87.2 9.352e+03 2.394e-10
  4.88521     87.0 9.370e+03 2.473e-10
  4.92446     86.9 9.513e+03 2.904e-10
  4.96370     86.7 9.807e+03 3.675e-10
  4.99304     86.5 9.967e+03 4.139e-10
  5.01257     86.2 1.020e+04 4.740e-10
  5.04210     85.3 1.054e+04 5.364e-10
  5.08144     83.7 1.058e+04 5.300e-10
  5.10400     82.5 1.048e+04 5.000e-10
  5.11371     83.1 1.063e+04 5.994e-10
  5.13031     82.0 1.055e+04 6.029e-10
  5.14993     80.9 1.051e+04 6.087e-10
  5.16955     79.9 1.044e+04 6.229e-10
  5.18918     79.0 1.040e+04 6.402e-10
  5.20880     78.0 1.036e+04 6.493e-10
  5.22842     77.0 1.034e+04 6.497e-10
  5.24805     75.9 1.035e+04 6.585e-10
  5.26767     74.0 1.057e+04 7.178e-10
  5.28729     70.2 1.146e+04 1.011e-09
  5.30387     65.8 1.292e+04 1.903e-09
  5.31368     65.8 1.306e+04 1.940e-09
  5.32654     62.7 1.403e+04 3.412e-09
  5.34616     60.6 1.418e+04 3.804e-09
  5.36579     58.9 1.396e+04 3.512e-09
  5.38541     57.0 1.315e+04 2.322e-09
  5.40503     54.6 1.205e+04 1.388e-09
  5.43457     50.4 1.042e+04 6.278e-10
  5.47391     45.9 8.495e+03 2.755e-10
  5.50403     44.0 8.387e+03 2.491e-10
  5.52365     44.7 8.412e+03 2.599e-10
  5.55240     44.1 8.516e+03 2.879e-10
  5.59165     43.6 8.719e+03 3.509e-10
  5.63090     43.0 8.892e+03 4.022e-10
  5.67014     42.2 8.909e+03 4.022e-10
  5.70939     41.3 8.834e+03 3.785e-10
  5.74864     40.4 8.569e+03 3.153e-10
  5.78788     39.6 8.188e+03 2.447e-10
  5.82713     39.4 7.820e+03 1.905e-10
  5.86638     39.5 7.498e+03 1.514e-10
  5.90396     40.0 7.248e+03 1.221e-10
  5.92358     39.7 7.279e+03 1.221e-10
  5.94487     40.3 7.070e+03 1.017e-10
  5.98412     41.2 7.059e+03 1.005e-10
  6.02336     42.1 7.126e+03 1.062e-10
  6.04676     42.4 7.456e+03 1.414e-10
  6.06638     40.7 7.573e+03 1.555e-10
  6.10186     40.6 8.358e+03 2.823e-10
  6.14110     40.3 8.993e+03 4.376e-10
  6.17044     40.2 9.343e+03 5.537e-10
  6.18997     40.0 9.687e+03 6.617e-10
  6.20959     39.3 1.000e+04 7.330e-10
  6.22921     38.3 1.018e+04 7.622e-10
  6.24884     36.4 1.061e+04 8.350e-10
  6.26846     27.6 1.437e+04 1.644e-09
  6.28313     15.9 1.954e+04 4.956e-09
  6.29289     14.7 1.922e+04 6.822e-09
  6.30270     13.1 1.895e+04 1.084e-08
  6.31252     13.7 1.841e+04 1.292e-08
  6.32327     14.1 1.799e+04 1.426e-08
  6.33313     13.4 1.834e+04 1.503e-08
  6.34695     13.4 1.778e+04 1.335e-08
  6.36658     12.7 1.702e+04 9.264e-09
  6.38620     10.7 1.600e+04 5.546e-09
  6.40582      8.1 1.450e+04 3.392e-09
  6.42545      6.6 1.340e+04 2.531e-09
  6.44507      7.0 1.277e+04 2.085e-09
  6.46469      8.2 1.231e+04 1.796e-09
  6.48432      9.3 1.214e+04 1.645e-09
  6.50394      9.6 1.217e+04 1.566e-09
  6.52329      6.4 1.437e+04 2.124e-09
  6.53310      7.2 1.379e+04 1.979e-09
  6.54319      2.0 1.694e+04 3.666e-09
  6.56281     -1.3 1.757e+04 6.048e-09
  6.58243     -2.7 1.777e+04 8.830e-09
  6.60206     -4.9 1.806e+04 9.459e-09
  6.62168     -8.6 1.821e+04 6.481e-09
  6.64130    -16.2 1.663e+04 3.106e-09
  6.66093    -23.5 1.371e+04 1.521e-09
  6.68055    -27.4 1.216e+04 1.060e-09
  6.70017    -29.9 1.145e+04 8.404e-10
  6.71980    -31.6 1.106e+04 7.102e-10
  6.73307    -32.8 1.074e+04 6.123e-10
  6.74288    -34.4 1.064e+04 5.918e-10
  6.75904    -35.5 1.039e+04 5.253e-10
  6.77867    -36.4 1.036e+04 5.128e-10
  6.79829    -37.7 1.047e+04 5.214e-10
  6.81791    -39.1 1.076e+04 6.173e-10
  6.83754    -40.2 1.111e+04 8.253e-10
  6.85716    -40.6 1.160e+04 1.117e-09
  6.87678    -40.9 1.211e+04 1.422e-09
  6.89641    -41.1 1.257e+04 1.655e-09
  6.91603    -41.3 1.293e+04 1.785e-09
  6.93303    -41.6 1.313e+04 1.818e-09
  6.94284    -44.0 1.356e+04 2.045e-09
  6.95528    -44.3 1.332e+04 1.878e-09
  6.97490    -44.4 1.297e+04 1.707e-09
  6.99452    -44.0 1.264e+04 1.558e-09
  7.01415    -43.3 1.240e+04 1.425e-09
  7.04368    -42.1 1.215e+04 1.260e-09
  7.08302    -40.1 1.172e+04 1.119e-09
  7.12227    -38.1 1.147e+04 1.013e-09
  7.14300    -36.3 1.140e+04 9.827e-10
  7.16263    -38.6 1.083e+04 6.539e-10
  7.20076    -36.7 1.106e+04 7.781e-10
  7.24001    -34.5 1.141e+04 9.889e-10
  7.26935    -32.6 1.191e+04 1.238e-09
  7.28887    -32.2 1.191e+04 1.304e-09
  7.30850    -31.0 1.205e+04 1.452e-09
  7.32812    -30.2 1.198e+04 1.474e-09
  7.34278    -29.1 1.201e+04 1.503e-09
  7.35259    -29.9 1.157e+04 1.077e-09
  7.36737    -29.0 1.148e+04 1.049e-09
  7.38699    -28.0 1.138e+04 1.001e-09
  7.40661    -27.0 1.132e+04 9.465e-10
  7.42624    -26.0 1.127e+04 8.941e-10
  7.44586    -25.2 1.115e+04 8.297e-10
  7.46548    -24.3 1.112e+04 7.929e-10
  7.48511    -23.6 1.108e+04 7.823e-10
  7.51464    -21.9 1.126e+04 8.331e-10
  7.54294    -20.0 1.129e+04 8.574e-10
  7.56256    -21.4 1.155e+04 9.427e-10
  7.59323    -19.5 1.191e+04 1.091e-09
  7.63248    -17.9 1.226e+04 1.170e-09
  7.67172    -16.7 1.254e+04 1.208e-09
  7.70106    -15.4 1.259e+04 1.061e-09
  7.72059    -15.2 1.264e+04 1.038e-09
  7.74021    -14.6 1.207e+04 9.527e-10
  7.75252    -15.8 1.238e+04 1.036e-09
  7.76233    -18.6 1.555e+04 2.127e-09
  7.77946    -22.3 1.824e+04 3.837e-09
  7.79908    -25.2 1.903e+04 6.940e-09
  7.81870    -26.2 1.856e+04 1.066e-08
  7.83833    -25.7 1.832e+04 1.255e-08
  7.85795    -25.1 1.805e+04 1.221e-08
  7.87757    -24.8 1.776e+04 9.615e-09
  7.89720    -25.0 1.729e+04 6.461e-09
  7.91682    -25.9 1.671e+04 4.682e-09
  7.93644    -26.7 1.613e+04 3.882e-09
  7.95249    -26.8 1.580e+04 3.651e-09
  7.96230    -27.3 1.564e+04 3.609e-09
  7.97569    -26.7 1.534e+04 3.512e-09
  7.99531    -25.8 1.510e+04 3.569e-09
  8.01494    -24.6 1.477e+04 3.575e-09
  8.03456    -23.1 1.454e+04 3.362e-09
  8.05418    -21.7 1.442e+04 2.922e-09
  8.07381    -20.7 1.435e+04 2.363e-09
  8.09343    -20.0 1.423e+04 1.908e-09
  8.11305    -19.5 1.389e+04 1.551e-09
  8.13268    -18.8 1.348e+04 1.270e-09
  8.15230    -17.8 1.329e+04 1.069e-09
  8.16226    -16.8 1.323e+04 9.297e-10
  8.17208    -16.6 1.325e+04 7.909e-10
  8.19155    -15.6 1.316e+04 7.436e-10
  8.21117    -14.7 1.306e+04 7.181e-10
  8.23079    -13.7 1.299e+04 7.127e-10
  8.25042    -12.7 1.283e+04 7.398e-10
  8.27004    -11.7 1.298e+04 7.282e-10
  8.28966    -10.5 1.292e+04 7.604e-10
  8.30929     -9.1 1.304e+04 7.419e-10
  8.33882     -7.9 1.317e+04 6.226e-10
  8.36243     -6.4 1.311e+04 6.536e-10
  8.38205     -5.7 1.389e+04 1.121e-09
  8.41741     -4.1 1.361e+04 1.207e-09
  8.45666     -2.0 1.344e+04 1.293e-09
  8.49590     -0.4 1.360e+04 1.407e-09
  8.53515      0.4 1.386e+04 1.662e-09
  8.57440      1.3 1.389e+04 2.038e-09
  8.61364      2.6 1.367e+04 2.047e-09
  8.65289      4.3 1.313e+04 1.502e-09
  8.69214      6.4 1.250e+04 7.354e-10
  8.73138      6.4 1.194e+04 3.893e-10
  8.76072      6.4 1.219e+04 2.859e-10
  8.77198      6.6 1.204e+04 2.647e-10
  8.78179      6.6 1.209e+04 2.628e-10
  8.79987      6.2 1.225e+04 2.861e-10
  8.81949      5.8 1.230e+04 3.590e-10
  8.83912      5.9 1.225e+04 4.746e-10
  8.85874      6.5 1.210e+04 6.027e-10
  8.87836      7.2 1.223e+04 7.303e-10
  8.89799      7.6 1.244e+04 7.963e-10
  8.91761      7.4 1.260e+04 8.721e-10
  8.93723      7.5 1.248e+04 8.812e-10
  8.96677      8.4 1.213e+04 8.079e-10
  9.00611      9.2 1.182e+04 6.175e-10
  9.03844      8.2 1.212e+04 4.586e-10
  9.05806      7.5 1.193e+04 2.185e-10
  9.08460      5.8 1.202e+04 2.631e-10
  9.12385      5.3 1.159e+04 4.326e-10
  9.16229      6.3 1.127e+04 5.644e-10
  9.18192      7.1 1.124e+04 5.115e-10
  9.20234      8.2 1.091e+04 3.991e-10
  9.24159      9.8 1.053e+04 2.535e-10
  9.28084     11.3 1.034e+04 1.475e-10
  9.32008     12.3 1.037e+04 9.173e-11
  9.35933     13.4 1.024e+04 7.897e-11
  9.39858     14.8 1.034e+04 8.336e-11
  9.43782     15.4 1.059e+04 1.147e-10
  9.47707     16.1 1.069e+04 2.371e-10
  9.51632     17.8 1.088e+04 4.532e-10
  9.55556     19.4 1.108e+04 5.615e-10
  9.58185     20.9 1.103e+04 5.099e-10
  9.60147     21.5 1.097e+04 4.382e-10
  9.63406     22.7 1.090e+04 2.843e-10
  9.67330     23.0 1.085e+04 1.885e-10
  9.71255     23.4 1.058e+04 1.630e-10
  9.75180     24.4 1.044e+04 1.660e-10
  9.79104     25.8 1.038e+04 1.818e-10
  9.83029     27.3 1.041e+04 2.052e-10
  9.86954     28.9 1.052e+04 2.296e-10
  9.90878     30.5 1.064e+04 2.474e-10
  9.94803     31.9 1.076e+04 2.498e-10
  9.98178     33.2 1.085e+04 2.449e-10
 10.00140     33.5 1.082e+04 2.766e-10
 10.02652     34.7 1.096e+04 2.801e-10
 10.06577     35.3 1.124e+04 3.040e-10
 10.10502     35.4 1.141e+04 3.620e-10
 10.14426     35.8 1.144e+04 4.227e-10
 10.18351     36.1 1.142e+04 4.219e-10
 10.22276     36.8 1.121e+04 3.777e-10
 10.26200     37.5 1.097e+04 2.715e-10
 10.30125     37.9 1.085e+04 1.782e-10
 10.34050     38.2 1.068e+04 1.323e-10
 10.37974     38.9 1.055e+04 1.289e-10
 10.40134     40.0 1.056e+04 1.352e-10
 10.42096     40.9 1.039e+04 1.206e-10
 10.45824     42.1 1.044e+04 1.332e-10
 10.49748     43.4 1.048e+04 1.667e-10
 10.53673     44.8 1.052e+04 2.183e-10
 10.57598     46.3 1.061e+04 2.753e-10
 10.61522     47.9 1.075e+04 3.057e-10
 10.65447     49.3 1.078e+04 3.003e-10
 10.69372     50.8 1.081e+04 2.623e-10
 10.73296     52.2 1.078e+04 2.080e-10
 10.77221     53.4 1.080e+04 1.608e-10
 10.80127     54.6 1.068e+04 1.381e-10
 10.82089     55.3 1.067e+04 1.568e-10
 10.85070     56.5 1.054e+04 1.526e-10
 10.88995     57.9 1.046e+04 1.509e-10
 10.92920     59.3 1.039e+04 1.474e-10
 10.96844     60.8 1.027e+04 1.405e-10
 11.00769     62.5 1.011e+04 1.273e-10
 11.04694     64.2 9.998e+03 1.082e-10
 11.08618     65.9 9.901e+03 9.104e-11
 11.12543     67.5 9.816e+03 8.351e-11
 11.16468     69.2 9.818e+03 8.386e-11
 11.20120     70.8 9.835e+03 8.849e-11
 11.22083     71.1 9.815e+03 7.252e-11
 11.24317     72.6 9.806e+03 9.353e-11
 11.28242     74.2 9.823e+03 1.260e-10
 11.32166     75.9 9.849e+03 1.591e-10
 11.36091     77.4 9.855e+03 1.683e-10
 11.40016     78.7 9.833e+03 1.659e-10
 11.43940     79.9 9.724e+03 1.570e-10
 11.47865     81.2 9.630e+03 1.533e-10
 11.51790     82.4 9.642e+03 1.573e-10
 11.55714     83.2 9.738e+03 1.826e-10
 11.59639     83.8 9.965e+03 2.499e-10
 11.62076     84.2 1.021e+04 3.467e-10
 11.64038     83.9 1.026e+04 3.694e-10
 11.67488     84.0 1.034e+04 4.311e-10
 11.71413     84.1 1.032e+04 4.273e-10
 11.75338     84.4 1.020e+04 3.883e-10
 11.79262     85.0 1.001e+04 3.258e-10
 11.83187     85.8 9.799e+03 2.778e-10
 11.87112     86.7 9.674e+03 2.617e-10
 11.91036     87.7 9.677e+03 2.674e-10
 11.94961     88.8 9.720e+03 2.879e-10
 11.98886     90.0 9.782e+03 3.195e-10
 12.02069     91.1 9.847e+03 3.548e-10
 12.04031     91.3 9.970e+03 4.422e-10
 12.04974     92.3 1.007e+04 4.782e-10
 12.06937     92.0 1.040e+04 6.141e-10
 12.10660     92.8 1.044e+04 6.460e-10
 12.14584     93.6 1.053e+04 6.963e-10
 12.18509     94.3 1.057e+04 7.562e-10
 12.22434     95.0 1.052e+04 7.629e-10
 12.26358     95.8 1.047e+04 7.482e-10
 12.30283     96.5 1.037e+04 6.944e-10
 12.34208     97.2 1.025e+04 6.116e-10
 12.38132     97.8 1.008e+04 5.167e-10
 12.42057     98.5 9.847e+03 4.256e-10
 12.45982     99.8 9.323e+03 2.943e-10
 12.49906    100.8 9.091e+03 2.443e-10
 12.53831    101.9 8.900e+03 1.985e-10
 12.57756    103.1 8.744e+03 1.636e-10
 12.61680    104.5 8.676e+03 1.528e-10
 12.65605    106.2 8.681e+03 1.536e-10
 12.69530    107.9 8.725e+03 1.590e-10
 12.73454    109.6 8.838e+03 1.810e-10
 12.77379    111.3 9.026e+03 2.252e-10
 12.81304    112.9 9.258e+03 2.873e-10
 12.84018    114.4 9.475e+03 3.517e-10
 12.85980    115.8 9.574e+03 4.025e-10
 12.89153    117.2 9.836e+03 4.804e-10
 12.93078    118.4 1.003e+04 5.262e-10
 12.97002    119.3 1.011e+04 5.416e-10
 13.00927    120.1 1.021e+04 5.580e-10
 13.04852    120.8 1.034e+04 6.105e-10
 13.08776    121.3 1.048e+04 7.019e-10
 13.12701    121.9 1.066e+04 8.230e-10
 13.16626    122.8 1.088e+04 9.284e-10
 13.19559    123.2 1.096e+04 9.734e-10
 13.21512    123.6 1.096e+04 9.806e-10
 13.23474    124.1 1.094e+04 9.671e-10
 13.24973    124.7 1.084e+04 9.074e-10
 13.25954    125.3 1.142e+04 1.301e-09
 13.27399    125.8 1.121e+04 1.140e-09
 13.29361    126.2 1.095e+04 9.604e-10
 13.31324    126.6 1.069e+04 7.924e-10
 13.33286    126.9 1.045e+04 6.543e-10
 13.35248    127.1 1.026e+04 5.555e-10
 13.37211    127.2 1.011e+04 4.922e-10
 13.39173    127.4 1.007e+04 4.775e-10
 13.41135    127.7 1.008e+04 4.818e-10
 13.43098    128.1 1.015e+04 5.019e-10
 13.44969    128.4 1.029e+04 5.451e-10
 13.45951    129.0 1.054e+04 7.037e-10
 13.48013    128.8 1.083e+04 7.647e-10
 13.51948    129.4 1.116e+04 8.700e-10
 13.55872    129.5 1.125e+04 8.945e-10
 13.59797    129.6 1.119e+04 8.825e-10
 13.63722    129.8 1.106e+04 8.468e-10
 13.65967    130.4 1.086e+04 7.721e-10
 13.66938    130.1 1.127e+04 1.075e-09
 13.68608    130.4 1.122e+04 1.036e-09
 13.70570    130.6 1.114e+04 9.894e-10
 13.72533    130.9 1.100e+04 9.226e-10
 13.74495    131.3 1.082e+04 8.302e-10
 13.76457    131.7 1.064e+04 7.301e-10
 13.78420    132.1 1.050e+04 6.448e-10
 13.80382    132.4 1.040e+04 5.833e-10
 13.82344    132.7 1.036e+04 5.425e-10
 13.84307    133.0 1.036e+04 5.280e-10
 13.85944    133.3 1.036e+04 5.280e-10
 13.86925    133.4 1.051e+04 6.094e-10
 13.88231    133.7 1.055e+04 6.175e-10
 13.90194    133.8 1.065e+04 6.375e-10
 13.92156    133.8 1.077e+04 6.704e-10
 13.94118    133.7 1.093e+04 7.218e-10
 13.96081    133.5 1.115e+04 8.014e-10
 13.98043    133.1 1.141e+04 9.225e-10
 14.00005    132.5 1.172e+04 1.098e-09
 14.01968    131.7 1.207e+04 1.342e-09
 14.03930    130.8 1.242e+04 1.659e-09
 14.05892    129.9 1.274e+04 2.036e-09
 14.06922    129.0 1.305e+04 2.438e-09
