# Columns:
#   distance along LOS (in CHIMPs)
#   peculiar velocity  (in km/s)
#   temperature (K)
#   HI number density
# pos=(74.6019,146.692,126.919), angles=(1.81187,3.08452)
  0.00841     17.2 9.822e+03 3.830e-10
  0.03696     19.7 9.836e+03 3.921e-10
  0.07725     22.3 9.891e+03 4.252e-10
  0.10409     25.1 1.034e+04 5.223e-10
  0.11406     23.9 1.125e+04 8.017e-10
  0.12742     24.5 1.145e+04 8.648e-10
  0.14757     24.6 1.206e+04 1.031e-09
  0.16100     23.8 1.321e+04 1.515e-09
  0.17107     23.5 1.306e+04 1.489e-09
  0.18509     23.1 1.408e+04 2.478e-09
  0.19516     21.5 1.484e+04 4.242e-09
  0.20800     22.5 1.533e+04 5.603e-09
  0.22815     23.6 1.558e+04 6.489e-09
  0.24830     24.8 1.575e+04 6.864e-09
  0.26629     25.8 1.589e+04 7.134e-09
  0.27636     25.6 1.536e+04 5.747e-09
  0.28859     26.4 1.527e+04 4.689e-09
  0.30873     26.6 1.500e+04 3.457e-09
  0.32888     25.9 1.465e+04 2.503e-09
  0.34748     25.0 1.426e+04 1.949e-09
  0.35756     20.2 1.222e+04 1.011e-09
  0.36917     19.1 1.217e+04 1.123e-09
  0.38931     17.7 1.254e+04 1.438e-09
  0.40946     15.9 1.353e+04 2.132e-09
  0.42868     13.8 1.487e+04 3.642e-09
  0.43875     11.7 1.513e+04 4.290e-09
  0.44975     10.3 1.650e+04 7.228e-09
  0.46990      8.9 1.763e+04 1.043e-08
  0.49004      6.4 1.885e+04 1.292e-08
  0.50854      2.4 1.929e+04 1.325e-08
  0.51830      2.5 1.914e+04 1.428e-08
  0.51995      0.9 1.824e+04 1.223e-08
  0.53033     -2.1 1.783e+04 1.096e-08
  0.55048     -4.3 1.663e+04 8.196e-09
  0.57063     -5.4 1.516e+04 5.419e-09
  0.59077     -6.0 1.391e+04 3.262e-09
  0.60114     -7.3 1.286e+04 1.825e-09
  0.61122     -8.0 1.232e+04 1.454e-09
  0.63106     -9.3 1.126e+04 8.307e-10
  0.65121    -10.8 1.037e+04 5.129e-10
  0.67135    -11.4 9.697e+03 3.332e-10
  0.68234    -12.0 9.579e+03 2.745e-10
  0.69241    -11.7 9.584e+03 2.770e-10
  0.72182    -11.6 9.394e+03 2.652e-10
  0.75366    -10.6 8.991e+03 2.194e-10
  0.77380    -10.2 8.931e+03 2.090e-10
  0.80250     -9.4 8.919e+03 2.142e-10
  0.84279     -8.5 8.962e+03 2.374e-10
  0.86635     -7.3 9.033e+03 2.663e-10
  0.88649     -6.3 9.028e+03 2.615e-10
  0.91605     -4.9 9.060e+03 2.669e-10
  0.93620     -4.8 9.040e+03 2.596e-10
  0.96366     -3.4 9.045e+03 2.564e-10
  1.00395     -2.0 9.043e+03 2.459e-10
  1.04424     -0.7 9.027e+03 2.311e-10
  1.07844      0.3 9.024e+03 2.156e-10
  1.09859     -0.3 9.430e+03 2.754e-10
  1.12483      0.2 9.678e+03 2.954e-10
  1.16512      0.6 9.893e+03 3.420e-10
  1.20541      0.9 1.011e+04 4.394e-10
  1.24083      1.2 1.038e+04 5.880e-10
  1.26098      0.2 1.052e+04 6.728e-10
  1.28599      0.7 1.076e+04 7.974e-10
  1.31611      1.4 1.086e+04 8.462e-10
  1.33191      1.4 1.100e+04 9.006e-10
  1.34198      1.0 1.090e+04 8.584e-10
  1.35631      0.9 1.088e+04 8.519e-10
  1.37645      0.8 1.084e+04 8.189e-10
  1.39660      0.5 1.079e+04 7.681e-10
  1.41310     -0.0 1.077e+04 7.397e-10
  1.42318     -0.2 1.064e+04 6.884e-10
  1.43689     -0.8 1.067e+04 6.940e-10
  1.45703     -1.5 1.080e+04 7.357e-10
  1.47718     -2.6 1.110e+04 8.557e-10
  1.49430     -3.7 1.145e+04 1.062e-09
  1.50437     -3.6 1.139e+04 1.018e-09
  1.51747     -4.4 1.175e+04 1.306e-09
  1.53762     -4.8 1.204e+04 1.544e-09
  1.55776     -5.2 1.206e+04 1.553e-09
  1.57131     -5.3 1.191e+04 1.437e-09
  1.57897     -5.0 1.189e+04 1.438e-09
  1.58557     -4.8 1.193e+04 1.443e-09
  1.59805     -5.0 1.164e+04 1.186e-09
  1.61820     -5.5 1.130e+04 9.100e-10
  1.63834     -6.0 1.087e+04 6.783e-10
  1.65669     -6.5 1.054e+04 5.315e-10
  1.66676     -6.2 1.065e+04 5.980e-10
  1.67864     -6.1 1.040e+04 4.779e-10
  1.69878     -6.1 1.034e+04 4.340e-10
  1.71893     -5.7 1.024e+04 3.792e-10
  1.73789     -5.5 1.031e+04 3.715e-10
  1.74796     -5.2 1.047e+04 4.426e-10
  1.75922     -4.8 1.048e+04 4.365e-10
  1.77936     -4.5 1.053e+04 4.506e-10
  1.79951     -4.2 1.059e+04 4.854e-10
  1.81908     -4.0 1.072e+04 5.474e-10
  1.82916     -3.7 1.090e+04 6.502e-10
  1.83980     -3.4 1.115e+04 7.821e-10
  1.85995     -3.2 1.143e+04 9.571e-10
  1.88009     -3.1 1.180e+04 1.184e-09
  1.90024     -2.9 1.219e+04 1.455e-09
  1.91885     -2.5 1.276e+04 1.988e-09
  1.92892     -1.0 1.188e+04 1.142e-09
  1.94053     -0.7 1.211e+04 1.335e-09
  1.96068     -0.2 1.221e+04 1.480e-09
  1.98082      0.1 1.239e+04 1.632e-09
  1.99155     -1.5 1.423e+04 2.266e-09
  2.00162     -1.7 1.460e+04 2.582e-09
  2.02111     -5.3 1.786e+04 5.275e-09
  2.04126     -7.9 1.844e+04 1.030e-08
  2.06140     -8.2 1.824e+04 1.482e-08
  2.07274     -7.7 1.838e+04 1.870e-08
  2.08282     -8.1 1.808e+04 1.645e-08
  2.10169     -7.4 1.809e+04 1.776e-08
  2.12184     -6.8 1.785e+04 1.435e-08
  2.14199     -7.3 1.729e+04 8.136e-09
  2.15394    -10.6 1.659e+04 3.794e-09
  2.16401    -12.1 1.576e+04 3.387e-09
  2.18228    -17.6 1.447e+04 1.915e-09
  2.20242    -22.1 1.283e+04 1.634e-09
  2.22257    -23.3 1.220e+04 1.813e-09
  2.23514    -22.8 1.206e+04 2.003e-09
  2.24521    -22.9 1.194e+04 1.874e-09
  2.26286    -22.8 1.200e+04 1.725e-09
  2.27646    -23.9 1.211e+04 1.386e-09
  2.28653    -22.9 1.209e+04 1.425e-09
  2.30315    -25.2 1.170e+04 1.024e-09
  2.31633    -30.1 1.103e+04 7.811e-10
  2.32641    -31.8 1.061e+04 6.723e-10
  2.34344    -38.9 1.202e+04 9.028e-10
  2.36359    -46.5 1.356e+04 1.860e-09
  2.38373    -51.1 1.437e+04 3.449e-09
  2.39753    -53.0 1.525e+04 5.075e-09
  2.40760    -52.9 1.474e+04 4.439e-09
  2.42402    -54.5 1.522e+04 4.937e-09
  2.44417    -57.1 1.446e+04 3.803e-09
  2.46432    -59.9 1.259e+04 2.176e-09
  2.47873    -61.3 1.123e+04 1.349e-09
  2.48880    -61.2 1.086e+04 1.138e-09
  2.50461    -61.7 1.016e+04 7.635e-10
  2.52475    -62.0 9.621e+03 4.783e-10
  2.54490    -62.7 9.246e+03 3.256e-10
  2.56002    -63.5 8.743e+03 2.085e-10
  2.58026    -62.8 8.714e+03 2.131e-10
  2.61560    -62.6 8.036e+03 1.132e-10
  2.65590    -61.8 7.787e+03 8.091e-11
  2.69619    -60.6 7.749e+03 7.581e-11
  2.72251    -59.5 7.807e+03 7.679e-11
  2.74265    -59.7 7.935e+03 9.231e-11
  2.77677    -58.8 8.154e+03 1.153e-10
  2.81706    -57.8 8.367e+03 1.460e-10
  2.85735    -56.8 8.594e+03 1.819e-10
  2.88490    -56.0 8.860e+03 2.249e-10
  2.90505    -56.3 8.815e+03 2.229e-10
  2.93793    -55.4 9.099e+03 2.696e-10
  2.97173    -54.6 9.466e+03 3.258e-10
  2.99188    -54.5 9.066e+03 2.407e-10
  3.01852    -53.6 9.538e+03 2.935e-10
  3.04719    -52.8 9.758e+03 3.360e-10
  3.06734    -52.9 9.683e+03 3.146e-10
  3.08893    -52.4 9.862e+03 3.598e-10
  3.10898    -52.9 9.958e+03 3.923e-10
  3.12829    -53.3 1.013e+04 4.869e-10
  3.13837    -52.9 1.003e+04 4.339e-10
  3.14927    -53.4 1.014e+04 5.412e-10
  3.16941    -54.1 1.092e+04 7.395e-10
  3.18956    -56.5 1.267e+04 1.213e-09
  3.20949    -59.7 1.409e+04 2.274e-09
  3.21956    -58.4 1.375e+04 1.704e-09
  3.22985    -61.6 1.472e+04 3.222e-09
  3.25000    -63.0 1.529e+04 5.050e-09
  3.27014    -63.5 1.616e+04 5.978e-09
  3.29029    -64.5 1.682e+04 5.833e-09
  3.30076    -68.3 1.704e+04 3.422e-09
  3.31083    -65.7 1.747e+04 4.833e-09
  3.32915    -70.9 1.588e+04 2.423e-09
  3.33922    -74.8 1.520e+04 2.097e-09
  3.35072    -78.3 1.386e+04 1.792e-09
  3.37087    -79.0 1.338e+04 1.950e-09
  3.38195    -78.9 1.308e+04 2.241e-09
  3.39203    -78.1 1.296e+04 1.883e-09
  3.41116    -77.8 1.276e+04 2.012e-09
  3.43131    -77.1 1.246e+04 2.045e-09
  3.45145    -76.2 1.214e+04 1.854e-09
  3.46315    -75.5 1.178e+04 1.495e-09
  3.47322    -75.0 1.174e+04 1.495e-09
  3.49174    -74.3 1.140e+04 1.193e-09
  3.51189    -73.8 1.102e+04 9.547e-10
  3.53204    -73.2 1.067e+04 7.617e-10
  3.54435    -72.5 1.033e+04 5.826e-10
  3.55442    -72.0 1.039e+04 6.243e-10
  3.57233    -71.3 1.009e+04 4.867e-10
  3.59247    -70.7 9.896e+03 4.178e-10
  3.62279    -69.5 9.714e+03 3.550e-10
  3.66318    -67.9 9.185e+03 2.354e-10
  3.68696    -66.5 8.721e+03 1.518e-10
  3.70050    -67.1 8.413e+03 9.831e-11
  3.71701    -66.2 8.583e+03 1.171e-10
  3.74376    -65.4 8.311e+03 8.078e-11
  3.78405    -64.3 8.244e+03 7.317e-11
  3.82434    -63.2 8.232e+03 7.208e-11
  3.85925    -62.1 8.274e+03 7.398e-11
  3.87940    -62.3 8.482e+03 8.613e-11
  3.90493    -61.3 8.434e+03 8.118e-11
  3.94522    -60.4 8.382e+03 7.361e-11
  3.98551    -59.5 8.373e+03 7.286e-11
  4.02164    -58.8 8.540e+03 8.324e-11
  4.04179    -59.7 8.857e+03 9.509e-11
  4.06609    -58.5 9.205e+03 1.532e-10
  4.10638    -56.5 9.544e+03 2.560e-10
  4.14667    -54.7 1.019e+04 3.856e-10
  4.17679    -53.8 1.156e+04 5.952e-10
  4.19391    -53.8 1.204e+04 6.764e-10
  4.20408    -53.8 1.212e+04 6.573e-10
  4.21709    -54.2 1.341e+04 1.219e-09
  4.23713    -54.9 1.452e+04 1.935e-09
  4.25728    -56.0 1.591e+04 3.346e-09
  4.27511    -57.7 1.706e+04 5.778e-09
  4.28518    -57.3 1.688e+04 6.148e-09
  4.29757    -57.5 1.793e+04 9.496e-09
  4.31772    -56.7 1.816e+04 1.259e-08
  4.33278    -55.9 1.829e+04 8.873e-09
  4.34280    -56.0 1.904e+04 7.701e-09
  4.35287    -58.4 2.013e+04 5.366e-09
  4.36125    -61.5 2.015e+04 3.799e-09
  4.36628    -62.6 1.867e+04 3.056e-09
  4.37302    -67.3 1.582e+04 1.990e-09
  4.38309    -69.3 1.407e+04 1.714e-09
  4.39182    -71.8 1.274e+04 1.429e-09
  4.40194    -72.1 1.210e+04 1.286e-09
  4.41844    -73.1 1.175e+04 1.111e-09
  4.43750    -73.3 1.144e+04 9.624e-10
  4.44758    -72.8 1.126e+04 8.294e-10
  4.45874    -72.9 1.095e+04 7.273e-10
  4.47888    -72.8 1.067e+04 6.404e-10
  4.49903    -72.2 1.042e+04 5.565e-10
  4.51870    -71.5 1.024e+04 4.743e-10
  4.52877    -71.0 1.015e+04 4.391e-10
  4.53932    -70.3 1.006e+04 3.883e-10
  4.55946    -69.7 1.002e+04 3.549e-10
  4.57961    -69.1 9.997e+03 3.219e-10
  4.59975    -68.6 9.966e+03 3.010e-10
  4.60997    -68.1 1.002e+04 2.811e-10
  4.62004    -67.3 1.002e+04 2.901e-10
  4.64005    -66.8 1.005e+04 2.851e-10
  4.66019    -66.4 1.022e+04 2.904e-10
  4.68034    -67.8 1.110e+04 3.556e-10
  4.69116    -71.2 1.246e+04 6.966e-10
  4.70124    -71.6 1.315e+04 9.270e-10
  4.72063    -73.6 1.436e+04 2.361e-09
  4.73946    -73.5 1.573e+04 5.155e-09
  4.74953    -72.9 1.417e+04 2.842e-09
  4.76092    -72.2 1.515e+04 4.499e-09
  4.77236    -71.8 1.572e+04 5.158e-09
  4.78243    -71.2 1.625e+04 6.715e-09
  4.80121    -71.2 1.645e+04 6.464e-09
  4.82136    -72.0 1.615e+04 4.589e-09
  4.84150    -73.6 1.518e+04 3.040e-09
  4.85356    -75.0 1.416e+04 2.286e-09
  4.86363    -74.9 1.423e+04 2.265e-09
  4.88179    -75.5 1.346e+04 1.919e-09
  4.90194    -75.1 1.296e+04 1.718e-09
  4.92209    -74.7 1.262e+04 1.559e-09
  4.93475    -74.3 1.242e+04 1.448e-09
  4.94482    -73.7 1.243e+04 1.414e-09
  4.96238    -73.2 1.227e+04 1.315e-09
  4.98252    -72.7 1.213e+04 1.256e-09
  5.00267    -72.0 1.199e+04 1.207e-09
  5.01595    -71.2 1.189e+04 1.133e-09
  5.02602    -70.8 1.185e+04 1.089e-09
  5.04296    -70.0 1.174e+04 1.016e-09
  5.06310    -69.2 1.161e+04 9.289e-10
  5.08325    -68.3 1.149e+04 8.447e-10
  5.09707    -67.4 1.143e+04 7.754e-10
  5.10714    -66.5 1.114e+04 6.774e-10
  5.12354    -65.7 1.112e+04 6.485e-10
  5.14369    -64.7 1.111e+04 6.170e-10
  5.16383    -63.8 1.114e+04 5.898e-10
  5.17844    -62.7 1.106e+04 5.298e-10
  5.18851    -62.7 1.133e+04 6.659e-10
  5.20412    -61.9 1.130e+04 6.633e-10
  5.23444    -60.3 1.136e+04 6.974e-10
  5.27483    -58.4 1.145e+04 7.405e-10
  5.31512    -56.6 1.129e+04 7.534e-10
  5.34093    -54.5 1.107e+04 6.416e-10
  5.36107    -54.2 1.145e+04 8.490e-10
  5.39570    -52.3 1.117e+04 6.856e-10
  5.43599    -50.4 1.095e+04 5.313e-10
  5.47629    -48.8 1.079e+04 4.068e-10
  5.50332    -47.3 1.071e+04 3.253e-10
  5.52346    -47.4 1.095e+04 3.936e-10
  5.55687    -45.9 1.075e+04 3.142e-10
  5.59716    -44.4 1.041e+04 2.722e-10
  5.63745    -42.7 1.010e+04 2.707e-10
  5.66571    -40.6 9.943e+03 2.744e-10
  5.68586    -40.4 9.869e+03 2.650e-10
  5.71803    -38.1 9.705e+03 2.458e-10
  5.75832    -35.8 9.633e+03 2.266e-10
  5.79234    -34.0 9.679e+03 2.219e-10
  5.81249    -33.3 9.563e+03 1.964e-10
  5.82810    -32.1 9.839e+03 2.233e-10
  5.84825    -31.7 9.821e+03 2.254e-10
  5.87920    -31.0 9.938e+03 3.850e-10
  5.91949    -28.3 1.021e+04 6.484e-10
  5.95978    -25.7 1.043e+04 7.841e-10
  5.99050    -23.4 1.023e+04 6.431e-10
  6.01064    -22.8 1.032e+04 7.465e-10
  6.04036    -20.9 9.900e+03 4.958e-10
  6.08066    -19.4 9.426e+03 3.285e-10
  6.12095    -18.1 9.100e+03 2.527e-10
  6.15289    -16.3 9.123e+03 2.679e-10
  6.17303    -15.4 8.805e+03 2.150e-10
  6.20153    -13.9 8.960e+03 2.530e-10
  6.24182    -11.9 9.451e+03 3.894e-10
  6.28211     -9.9 1.010e+04 6.326e-10
  6.31528     -8.5 1.100e+04 1.016e-09
  6.33543     -7.4 9.975e+03 5.874e-10
  6.36269     -5.7 1.081e+04 9.710e-10
  6.40299     -3.6 1.105e+04 1.167e-09
  6.44328     -1.4 1.078e+04 1.029e-09
  6.47767      0.6 1.015e+04 7.194e-10
  6.49782      1.7 1.010e+04 7.373e-10
  6.50757      3.6 9.575e+03 5.251e-10
  6.52772      3.9 9.823e+03 6.360e-10
  6.56415      5.5 9.017e+03 3.538e-10
  6.60444      7.0 8.306e+03 2.048e-10
  6.64006      8.8 7.847e+03 1.353e-10
  6.66021     10.4 7.874e+03 1.345e-10
  6.68502     12.1 7.505e+03 9.239e-11
  6.72532     14.1 7.258e+03 7.752e-11
  6.76561     16.5 7.199e+03 7.589e-11
  6.80246     19.0 7.206e+03 7.791e-11
  6.82260     20.2 7.122e+03 7.144e-11
  6.84619     22.6 7.162e+03 7.814e-11
  6.88648     25.0 7.244e+03 8.981e-11
  6.92677     27.3 7.365e+03 1.061e-10
  6.96485     29.7 7.513e+03 1.263e-10
  6.98499     30.9 7.430e+03 1.196e-10
  7.00735     33.2 7.586e+03 1.445e-10
  7.04765     35.5 7.763e+03 1.754e-10
  7.08794     37.7 7.925e+03 1.998e-10
  7.12724     39.9 8.066e+03 2.130e-10
  7.14739     41.1 7.917e+03 2.015e-10
  7.16852     43.3 8.049e+03 2.062e-10
  7.20265     45.5 8.257e+03 2.182e-10
  7.22280     44.8 8.272e+03 2.073e-10
  7.23893     46.4 8.271e+03 2.097e-10
  7.25898     46.8 8.594e+03 2.249e-10
  7.27913     45.8 1.008e+04 3.492e-10
  7.29927     43.5 1.235e+04 8.425e-10
  7.30958     42.4 1.363e+04 2.036e-09
  7.31965     44.6 1.277e+04 1.039e-09
  7.33956     43.9 1.377e+04 2.244e-09
  7.35971     44.4 1.432e+04 3.867e-09
  7.37985     45.2 1.446e+04 4.990e-09
  7.39078     45.9 1.438e+04 4.963e-09
  7.40085     46.4 1.415e+04 4.301e-09
  7.42015     46.9 1.402e+04 4.202e-09
  7.44029     47.2 1.368e+04 3.611e-09
  7.46044     47.2 1.332e+04 2.716e-09
  7.47197     46.7 1.292e+04 1.824e-09
  7.48205     48.0 1.313e+04 2.463e-09
  7.50073     47.5 1.278e+04 1.723e-09
  7.52087     46.4 1.205e+04 1.092e-09
  7.54102     45.2 1.084e+04 6.789e-10
  7.55317     44.3 9.649e+03 4.672e-10
  7.56215     46.4 1.083e+04 6.539e-10
  7.57014     45.3 9.690e+03 4.860e-10
  7.58131     44.7 9.036e+03 3.817e-10
  7.60146     44.7 8.783e+03 3.320e-10
  7.62160     44.8 8.794e+03 3.258e-10
  7.63446     45.5 8.660e+03 2.963e-10
  7.64454     46.5 9.014e+03 3.803e-10
  7.66189     46.7 9.017e+03 3.804e-10
  7.69221     47.9 8.884e+03 3.630e-10
  7.73260     49.8 8.754e+03 3.399e-10
  7.77289     51.8 8.630e+03 3.086e-10
  7.79695     53.8 8.516e+03 2.718e-10
  7.81710     54.5 9.063e+03 3.838e-10
  7.85347     56.3 9.020e+03 3.588e-10
  7.87805     57.3 8.839e+03 3.209e-10
  7.88803     57.5 8.913e+03 3.354e-10
  7.90364     58.0 8.893e+03 3.324e-10
  7.91768     59.1 8.886e+03 3.280e-10
  7.93792     58.7 8.618e+03 2.914e-10
  7.95935     60.4 8.535e+03 2.740e-10
  7.96932     61.4 9.047e+03 4.166e-10
  7.98422     62.4 8.930e+03 3.867e-10
  8.00437     63.6 8.849e+03 3.545e-10
  8.02451     64.6 8.783e+03 3.248e-10
  8.04035     65.4 8.781e+03 3.056e-10
  8.05042     66.1 8.955e+03 3.318e-10
  8.06481     67.0 8.908e+03 3.157e-10
  8.08495     68.1 8.927e+03 3.174e-10
  8.10510     68.4 9.075e+03 3.377e-10
  8.12154     67.9 9.798e+03 4.434e-10
  8.13162     70.1 9.805e+03 4.500e-10
  8.14539     67.0 1.214e+04 9.687e-10
  8.16553     61.6 1.555e+04 2.722e-09
  8.18059     57.8 1.701e+04 4.389e-09
  8.19062     55.1 1.774e+04 6.755e-09
  8.20069     50.7 1.985e+04 1.102e-08
  8.20768     47.5 2.070e+04 1.331e-08
  8.21271     48.1 2.115e+04 1.424e-08
  8.22084     41.1 2.314e+04 1.673e-08
  8.23091     37.2 2.255e+04 1.559e-08
  8.24607     30.6 2.228e+04 1.346e-08
  8.26522     18.7 1.930e+04 7.409e-09
  8.27529     16.5 1.911e+04 6.730e-09
  8.28393      4.9 1.785e+04 4.580e-09
  8.29401      2.9 1.973e+04 5.966e-09
  8.30655     -6.1 1.628e+04 3.486e-09
  8.32670    -13.0 1.444e+04 2.593e-09
  8.34684    -16.8 1.451e+04 2.512e-09
  8.36513    -20.4 1.437e+04 2.548e-09
  8.37520    -26.2 1.601e+04 3.774e-09
  8.38714    -27.2 1.427e+04 3.363e-09
  8.40728    -26.7 1.373e+04 3.119e-09
  8.42743    -25.7 1.353e+04 2.822e-09
  8.44633    -25.1 1.339e+04 2.294e-09
  8.45640    -27.1 1.428e+04 2.624e-09
  8.46772    -28.7 1.321e+04 1.712e-09
  8.48786    -30.8 1.202e+04 1.133e-09
  8.50801    -32.4 1.142e+04 9.271e-10
  8.52752    -34.1 1.115e+04 8.600e-10
  8.53760    -36.5 1.203e+04 1.134e-09
  8.54830    -37.9 1.200e+04 1.151e-09
  8.56845    -39.2 1.197e+04 1.241e-09
  8.58859    -40.1 1.186e+04 1.314e-09
  8.60872    -40.6 1.174e+04 1.347e-09
  8.62281    -42.4 1.166e+04 1.287e-09
  8.63291    -41.0 1.169e+04 1.321e-09
  8.64903    -41.2 1.169e+04 1.232e-09
  8.66918    -42.2 1.194e+04 1.224e-09
  8.68932    -45.6 1.306e+04 1.502e-09
  8.69999    -50.0 1.434e+04 2.469e-09
  8.71006    -51.1 1.378e+04 2.172e-09
  8.72961    -53.2 1.473e+04 3.856e-09
  8.74976    -53.7 1.589e+04 6.597e-09
  8.76990    -53.7 1.709e+04 1.011e-08
  8.78118    -53.5 1.798e+04 1.269e-08
  8.79126    -53.8 1.731e+04 9.868e-09
  8.81019    -54.1 1.775e+04 1.092e-08
  8.83034    -55.3 1.787e+04 1.073e-08
  8.85049    -56.6 1.723e+04 8.247e-09
  8.86238    -57.9 1.632e+04 5.837e-09
  8.87245    -58.1 1.667e+04 7.314e-09
  8.89078    -59.1 1.593e+04 5.504e-09
  8.91092    -59.7 1.501e+04 3.874e-09
  8.93107    -60.1 1.401e+04 2.597e-09
  8.94358    -60.3 1.302e+04 1.761e-09
  8.95365    -60.3 1.385e+04 2.756e-09
  8.97037    -60.5 1.304e+04 2.014e-09
  8.98045    -59.8 1.326e+04 2.296e-09
  8.99151    -59.8 1.280e+04 1.900e-09
  9.01165    -59.6 1.254e+04 1.692e-09
  9.02477    -59.3 1.249e+04 1.630e-09
  9.03484    -59.9 1.278e+04 1.904e-09
  9.05194    -59.7 1.280e+04 1.897e-09
  9.07209    -59.7 1.301e+04 1.974e-09
  9.09223    -59.8 1.322e+04 2.081e-09
  9.10597    -60.1 1.332e+04 2.163e-09
  9.11604    -60.5 1.329e+04 2.093e-09
  9.13253    -60.6 1.310e+04 1.925e-09
  9.15267    -60.7 1.279e+04 1.700e-09
  9.17282    -60.9 1.250e+04 1.379e-09
  9.18716    -61.6 1.209e+04 1.050e-09
  9.19724    -62.4 1.174e+04 9.997e-10
  9.21311    -63.3 1.136e+04 7.520e-10
  9.23325    -64.2 1.089e+04 5.796e-10
  9.25340    -64.8 1.045e+04 4.580e-10
  9.26836    -65.2 1.019e+04 3.719e-10
  9.27843    -64.9 1.021e+04 3.660e-10
  9.29369    -65.8 1.008e+04 3.080e-10
  9.31384    -66.7 1.010e+04 2.894e-10
  9.32808    -67.7 1.022e+04 2.902e-10
  9.34833    -70.0 1.054e+04 3.296e-10
  9.38454    -72.4 1.101e+04 5.604e-10
  9.41466    -72.4 1.125e+04 7.519e-10
  9.43075    -72.5 1.146e+04 8.284e-10
  9.44082    -72.7 1.148e+04 8.313e-10
  9.45486    -72.9 1.150e+04 8.295e-10
  9.47500    -73.3 1.137e+04 7.740e-10
  9.50532    -73.8 1.108e+04 6.550e-10
  9.54571    -73.3 1.051e+04 4.618e-10
  9.58327    -72.4 9.908e+03 3.087e-10
  9.60341    -72.4 9.663e+03 2.743e-10
  9.62629    -70.8 9.311e+03 1.949e-10
  9.66658    -69.0 9.060e+03 1.436e-10
  9.70687    -66.9 8.865e+03 1.079e-10
  9.74566    -64.8 8.734e+03 8.505e-11
  9.76580    -64.6 8.684e+03 8.262e-11
  9.78745    -62.4 8.613e+03 7.014e-11
  9.82775    -60.2 8.599e+03 6.618e-11
  9.86804    -57.9 8.615e+03 6.583e-11
  9.90805    -55.9 8.768e+03 7.450e-11
  9.92820    -55.6 8.768e+03 7.302e-11
  9.94862    -53.9 8.904e+03 1.039e-10
  9.98891    -52.0 9.109e+03 1.601e-10
 10.02326    -49.9 9.418e+03 2.426e-10
 10.04341    -50.3 9.302e+03 2.012e-10
 10.06949    -48.3 9.659e+03 2.992e-10
 10.09059    -46.5 1.002e+04 4.024e-10
 10.11073    -46.2 1.013e+04 4.452e-10
 10.15008    -44.8 1.038e+04 5.052e-10
 10.19037    -43.7 1.062e+04 5.633e-10
 10.22049    -43.2 1.072e+04 5.789e-10
 10.24054    -43.2 1.092e+04 6.847e-10
