# Columns:
#   distance along LOS (in CHIMPs)
#   peculiar velocity  (in km/s)
#   temperature (K)
#   HI number density
# pos=(177.753,183.421,240.601), angles=(1.14565,0.0239483)
  0.00469    -94.0 1.184e+04 7.861e-10
  0.01523    -93.2 1.173e+04 7.556e-10
  0.03180    -93.7 1.234e+04 8.983e-10
  0.04963    -94.5 1.347e+04 1.269e-09
  0.06035    -93.7 1.307e+04 1.106e-09
  0.07469    -94.8 1.429e+04 1.723e-09
  0.09475    -95.7 1.516e+04 2.816e-09
  0.10547    -95.5 1.504e+04 2.591e-09
  0.11758    -96.0 1.568e+04 4.084e-09
  0.13903    -96.3 1.606e+04 5.696e-09
  0.15059    -96.5 1.629e+04 6.840e-09
  0.15591    -95.8 1.605e+04 5.950e-09
  0.16574    -95.9 1.605e+04 6.076e-09
  0.17306    -96.0 1.606e+04 6.364e-09
  0.17842    -95.7 1.596e+04 5.987e-09
  0.18718    -96.9 1.682e+04 6.182e-09
  0.19562   -101.8 2.145e+04 7.354e-09
  0.20098   -103.7 2.341e+04 7.553e-09
  0.20863   -110.8 2.524e+04 1.478e-08
  0.21818   -115.9 2.331e+04 3.343e-08
  0.22354   -115.6 2.347e+04 3.285e-08
  0.23008   -117.5 2.152e+04 6.148e-08
  0.24074   -118.1 2.079e+04 9.303e-08
  0.24610   -117.6 2.118e+04 6.780e-08
  0.25152   -118.0 2.089e+04 7.698e-08
  0.26225   -118.4 2.084e+04 7.845e-08
  0.26866   -118.5 2.058e+04 7.210e-08
  0.27403   -118.9 2.154e+04 4.960e-08
  0.28369   -119.1 2.133e+04 3.738e-08
  0.29123   -119.8 2.108e+04 2.491e-08
  0.29659   -121.9 2.088e+04 2.082e-08
  0.30514   -123.5 1.998e+04 1.419e-08
  0.31379   -125.3 1.895e+04 9.363e-09
  0.31915   -126.5 1.838e+04 9.886e-09
  0.32658   -127.8 1.737e+04 6.777e-09
  0.33635   -128.9 1.623e+04 4.739e-09
  0.34171   -129.0 1.648e+04 5.898e-09
  0.34803   -129.7 1.556e+04 4.763e-09
  0.35875   -129.9 1.503e+04 4.315e-09
  0.37489   -130.0 1.457e+04 3.820e-09
  0.38693   -129.6 1.372e+04 2.941e-09
  0.39765   -129.4 1.412e+04 3.880e-09
  0.41783   -128.6 1.345e+04 3.128e-09
  0.43205   -127.8 1.306e+04 2.671e-09
  0.44278   -127.7 1.331e+04 3.048e-09
  0.46072   -126.9 1.307e+04 2.712e-09
  0.47718   -126.1 1.279e+04 2.341e-09
  0.48790   -126.2 1.281e+04 2.432e-09
  0.50361   -125.5 1.251e+04 2.104e-09
  0.52230   -124.8 1.218e+04 1.785e-09
  0.53302   -124.9 1.218e+04 1.823e-09
  0.54650   -124.3 1.191e+04 1.592e-09
  0.56282   -123.6 1.165e+04 1.395e-09
  0.57302   -123.7 1.176e+04 1.484e-09
  0.57815   -123.8 1.175e+04 1.470e-09
  0.58940   -123.0 1.155e+04 1.320e-09
  0.61084   -122.2 1.137e+04 1.193e-09
  0.62327   -121.4 1.120e+04 1.082e-09
  0.63399   -121.3 1.117e+04 1.073e-09
  0.65373   -120.5 1.103e+04 9.912e-10
  0.66839   -119.6 1.090e+04 9.177e-10
  0.67911   -119.5 1.086e+04 8.911e-10
  0.69663   -118.7 1.073e+04 8.352e-10
  0.71351   -117.7 1.061e+04 7.883e-10
  0.72424   -117.7 1.061e+04 7.813e-10
  0.73952   -116.7 1.053e+04 7.584e-10
  0.75864   -115.8 1.048e+04 7.439e-10
  0.76936   -115.7 1.053e+04 7.617e-10
  0.78241   -114.7 1.052e+04 7.693e-10
  0.80376   -113.7 1.054e+04 7.871e-10
  0.82521   -112.6 1.067e+04 8.560e-10
  0.84675   -111.7 1.075e+04 8.956e-10
  0.85960   -110.7 1.082e+04 9.345e-10
  0.87033   -110.8 1.090e+04 9.955e-10
  0.88964   -109.8 1.095e+04 1.036e-09
  0.90473   -108.7 1.099e+04 1.065e-09
  0.91545   -108.8 1.107e+04 1.124e-09
  0.93253   -107.8 1.112e+04 1.133e-09
  0.94985   -106.7 1.113e+04 1.133e-09
  0.96057   -106.8 1.120e+04 1.202e-09
  0.97542   -105.7 1.120e+04 1.187e-09
  0.99497   -104.8 1.119e+04 1.164e-09
  1.00570   -104.8 1.129e+04 1.231e-09
  1.01832   -103.9 1.130e+04 1.219e-09
  1.03976   -102.9 1.131e+04 1.208e-09
  1.05082   -101.9 1.130e+04 1.188e-09
  1.06154   -102.3 1.170e+04 1.395e-09
  1.08265   -101.6 1.177e+04 1.412e-09
  1.09594   -100.8 1.184e+04 1.417e-09
  1.10667   -101.4 1.197e+04 1.690e-09
  1.12555   -100.6 1.205e+04 1.755e-09
  1.14106    -99.8 1.208e+04 1.789e-09
  1.15179   -100.2 1.196e+04 1.760e-09
  1.16844    -99.3 1.193e+04 1.764e-09
  1.18619    -98.2 1.184e+04 1.728e-09
  1.19691    -98.1 1.128e+04 1.439e-09
  1.21133    -97.0 1.112e+04 1.331e-09
  1.23131    -95.8 1.094e+04 1.222e-09
  1.24203    -95.7 1.029e+04 7.721e-10
  1.25422    -94.7 1.019e+04 6.684e-10
  1.27567    -93.8 1.010e+04 5.814e-10
  1.28716    -92.8 1.001e+04 5.074e-10
  1.30870    -94.0 9.357e+03 2.306e-10
  1.35092    -92.0 9.196e+03 2.112e-10
  1.37760    -90.6 9.177e+03 2.110e-10
  1.39904    -92.0 8.950e+03 1.933e-10
  1.43671    -90.8 9.420e+03 2.974e-10
  1.46784    -89.4 9.807e+03 4.473e-10
  1.48929    -89.9 9.767e+03 4.997e-10
  1.52249    -88.5 9.829e+03 5.339e-10
  1.55809    -87.2 9.764e+03 5.172e-10
  1.57953    -87.4 9.276e+03 3.875e-10
  1.60828    -85.9 8.849e+03 2.689e-10
  1.64833    -84.8 8.568e+03 1.993e-10
  1.66978    -84.9 8.275e+03 1.654e-10
  1.69406    -83.6 8.221e+03 1.577e-10
  1.73695    -82.0 8.220e+03 1.575e-10
  1.76003    -80.5 8.285e+03 1.633e-10
  1.78147    -79.8 8.297e+03 1.646e-10
  1.82274    -78.2 8.345e+03 1.687e-10
  1.85027    -76.5 8.377e+03 1.703e-10
  1.87172    -76.1 8.475e+03 1.843e-10
  1.90852    -75.0 8.572e+03 1.882e-10
  1.94052    -74.6 9.025e+03 2.295e-10
  1.96196    -76.0 9.898e+03 4.150e-10
  1.99431    -76.2 1.070e+04 7.691e-10
  2.02638    -76.8 1.111e+04 1.298e-09
  2.04129    -77.9 1.212e+04 2.062e-09
  2.05201    -85.1 1.806e+04 4.202e-09
  2.06917    -89.6 2.110e+04 9.094e-09
  2.08641    -92.6 2.208e+04 1.585e-08
  2.09714    -97.8 2.131e+04 2.068e-08
  2.11206    -99.2 1.978e+04 2.001e-08
  2.13154   -100.5 1.802e+04 1.294e-08
  2.14226   -101.7 1.598e+04 6.367e-09
  2.15496   -103.5 1.471e+04 2.801e-09
  2.17640   -106.8 1.336e+04 1.291e-09
  2.18738   -109.9 1.199e+04 7.350e-10
  2.19810   -112.1 1.054e+04 3.713e-10
  2.21929   -112.4 1.031e+04 3.448e-10
  2.23250   -112.1 1.027e+04 3.411e-10
  2.24323   -112.1 9.832e+03 2.420e-10
  2.26219   -112.1 9.954e+03 2.510e-10
  2.27763   -112.2 1.016e+04 2.910e-10
  2.28835   -112.2 9.856e+03 2.368e-10
  2.30508   -112.3 1.018e+04 2.948e-10
  2.32275   -112.8 1.078e+04 4.202e-10
  2.33347   -112.1 1.035e+04 3.142e-10
  2.34797   -112.7 1.083e+04 4.247e-10
  2.35890   -113.4 1.156e+04 7.070e-10
  2.36808   -113.1 1.125e+04 5.350e-10
  2.37860   -112.6 1.082e+04 4.318e-10
  2.39086   -113.0 1.137e+04 6.152e-10
  2.41231   -113.3 1.196e+04 8.988e-10
  2.42372   -113.5 1.239e+04 1.173e-09
  2.43454   -112.9 1.161e+04 7.086e-10
  2.45530   -113.5 1.223e+04 1.093e-09
  2.46884   -114.1 1.237e+04 1.238e-09
  2.47956   -113.8 1.233e+04 1.125e-09
  2.49809   -114.6 1.245e+04 1.245e-09
  2.51396   -115.4 1.246e+04 1.262e-09
  2.52469   -115.4 1.264e+04 1.300e-09
  2.54098   -116.6 1.267e+04 1.361e-09
  2.55909   -117.8 1.266e+04 1.371e-09
  2.56981   -119.1 1.321e+04 1.631e-09
  2.58388   -120.6 1.326e+04 1.684e-09
  2.60421   -121.8 1.325e+04 1.689e-09
  2.61493   -123.6 1.369e+04 2.166e-09
  2.62677   -124.3 1.335e+04 2.030e-09
  2.64821   -125.2 1.312e+04 1.876e-09
  2.66006   -127.3 1.315e+04 1.841e-09
  2.67078   -128.8 1.332e+04 2.212e-09
  2.69111   -134.0 1.481e+04 2.317e-09
  2.70518   -140.3 1.747e+04 4.139e-09
  2.71590   -142.1 1.781e+04 4.932e-09
  2.73400   -146.8 1.885e+04 9.331e-09
  2.75030   -150.4 1.917e+04 1.357e-08
  2.76102   -152.5 1.944e+04 1.185e-08
  2.77689   -155.4 1.921e+04 1.194e-08
  2.79542   -157.7 1.825e+04 9.475e-09
  2.80615   -160.7 1.794e+04 7.594e-09
  2.81978   -163.4 1.651e+04 4.955e-09
  2.84055   -165.9 1.545e+04 3.548e-09
  2.85122   -168.1 1.540e+04 3.616e-09
  2.86263   -169.6 1.566e+04 3.871e-09
  2.88412   -172.3 1.612e+04 4.209e-09
  2.89639   -174.3 1.688e+04 5.875e-09
  2.90171   -174.3 1.700e+04 6.433e-09
  2.91083   -174.9 1.737e+04 7.915e-09
  2.91886   -175.3 1.771e+04 9.498e-09
  2.92422   -175.3 1.793e+04 1.070e-08
  2.93228   -175.6 1.827e+04 1.235e-08
  2.94142   -175.9 1.856e+04 1.374e-08
  2.94678   -175.5 1.915e+04 1.745e-08
  2.95372   -176.1 1.944e+04 1.864e-08
  2.96398   -176.8 1.951e+04 1.887e-08
  2.96934   -177.1 2.000e+04 2.207e-08
  2.97517   -178.0 2.000e+04 2.193e-08
  2.98589   -178.6 1.975e+04 1.971e-08
  2.99190   -178.9 1.937e+04 1.653e-08
  2.99726   -179.5 2.008e+04 1.993e-08
  3.00734   -180.1 1.990e+04 1.665e-08
  3.01446   -180.9 1.967e+04 1.373e-08
  3.01983   -182.4 2.019e+04 1.726e-08
  3.02878   -183.5 1.975e+04 1.414e-08
  3.03703   -184.6 1.909e+04 1.143e-08
  3.04239   -186.0 1.901e+04 1.468e-08
  3.05023   -186.7 1.819e+04 1.164e-08
  3.05959   -187.2 1.738e+04 9.411e-09
  3.06495   -187.6 1.735e+04 1.101e-08
  3.07168   -187.8 1.667e+04 8.849e-09
  3.08215   -187.9 1.611e+04 7.349e-09
  3.08751   -187.9 1.609e+04 7.677e-09
  3.09312   -188.1 1.563e+04 6.526e-09
  3.10384   -188.1 1.530e+04 5.844e-09
  3.11998   -188.3 1.500e+04 5.137e-09
  3.13273   -188.5 1.432e+04 3.700e-09
  3.14345   -188.5 1.373e+04 2.267e-09
  3.16292   -189.3 1.313e+04 1.558e-09
  3.17785   -190.2 1.262e+04 1.192e-09
  3.18858   -191.3 1.161e+04 6.440e-10
  3.20581   -191.6 1.141e+04 5.969e-10
  3.22298   -191.7 1.136e+04 5.860e-10
  3.23370   -191.8 1.072e+04 3.974e-10
  3.24621   -191.6 1.072e+04 4.103e-10
  3.25694   -190.8 1.075e+04 3.982e-10
  3.26810   -190.5 1.082e+04 4.342e-10
  3.27882   -189.9 1.047e+04 3.441e-10
  3.29160   -189.5 1.056e+04 3.781e-10
  3.31304   -189.2 1.065e+04 4.177e-10
  3.32394   -188.8 1.074e+04 4.617e-10
  3.33467   -188.1 1.052e+04 3.735e-10
  3.35593   -187.8 1.060e+04 4.024e-10
  3.36907   -187.6 1.067e+04 4.263e-10
  3.37989   -187.2 1.052e+04 3.418e-10
  3.40974   -186.9 1.063e+04 3.475e-10
  3.44879   -186.6 1.071e+04 3.445e-10
  3.47023   -185.5 1.045e+04 2.830e-10
  3.49553   -185.1 1.037e+04 2.578e-10
  3.53842   -184.6 1.021e+04 2.292e-10
  3.56048   -183.8 9.983e+03 2.032e-10
  3.58192   -182.5 9.649e+03 1.693e-10
  3.62420   -181.3 9.438e+03 1.473e-10
  3.65072   -179.8 9.283e+03 1.291e-10
  3.67217   -178.5 9.151e+03 1.144e-10
  3.70999   -176.8 9.067e+03 1.011e-10
  3.74097   -174.9 9.028e+03 9.149e-11
  3.76241   -173.6 8.934e+03 8.423e-11
  3.79577   -171.6 8.913e+03 7.882e-11
  3.83121   -169.4 8.879e+03 7.506e-11
  3.85266   -168.2 8.774e+03 7.514e-11
  3.88156   -166.0 8.745e+03 7.321e-11
  3.92146   -163.7 8.715e+03 7.270e-11
  3.94291   -162.5 8.663e+03 7.295e-11
  3.96734   -160.2 8.657e+03 7.360e-11
  4.01023   -157.8 8.657e+03 7.455e-11
  4.03315   -155.4 8.636e+03 7.571e-11
  4.05460   -154.3 8.525e+03 7.313e-11
  4.09602   -151.8 8.521e+03 7.330e-11
  4.12340   -149.4 8.496e+03 7.258e-11
  4.13966   -148.3 8.433e+03 6.723e-11
  4.15517   -148.0 8.442e+03 6.556e-11
  4.18180   -145.4 8.394e+03 6.343e-11
  4.21364   -142.8 8.354e+03 6.028e-11
  4.23509   -141.8 8.297e+03 5.688e-11
  4.26758   -139.1 8.248e+03 5.336e-11
  4.30389   -136.4 8.220e+03 5.024e-11
  4.32533   -135.5 8.182e+03 4.906e-11
  4.35337   -132.8 8.168e+03 4.641e-11
  4.39413   -130.1 8.175e+03 4.528e-11
  4.41558   -129.3 8.179e+03 4.718e-11
  4.43915   -126.8 8.190e+03 4.687e-11
  4.48204   -124.2 8.226e+03 4.709e-11
  4.50583   -121.8 8.275e+03 4.961e-11
  4.52727   -121.3 8.247e+03 6.880e-11
  4.56783   -118.8 8.261e+03 7.433e-11
  4.59607   -116.4 8.274e+03 8.132e-11
  4.61752   -115.6 8.261e+03 9.699e-11
  4.65361   -113.1 8.266e+03 1.015e-10
  4.68632   -110.6 8.286e+03 1.083e-10
  4.70776   -109.7 8.178e+03 9.006e-11
  4.73940   -107.2 8.193e+03 9.691e-11
  4.77656   -104.9 8.291e+03 1.114e-10
  4.79801   -104.0 8.122e+03 6.350e-11
  4.82518   -101.8 8.244e+03 7.928e-11
  4.86681    -99.7 8.365e+03 1.114e-10
  4.88825    -99.0 8.205e+03 5.687e-11
  4.91097    -97.0 8.377e+03 8.487e-11
  4.95386    -94.9 8.529e+03 1.263e-10
  4.97850    -92.7 8.676e+03 1.726e-10
  4.99995    -92.5 8.586e+03 1.259e-10
  5.03964    -90.4 8.791e+03 1.767e-10
  5.06874    -88.4 8.960e+03 2.272e-10
  5.09019    -88.2 9.003e+03 2.217e-10
  5.12543    -86.2 9.182e+03 2.716e-10
  5.15899    -84.2 9.300e+03 3.103e-10
  5.18044    -84.6 9.392e+03 2.982e-10
  5.21121    -82.9 9.497e+03 3.225e-10
  5.24924    -81.3 9.575e+03 3.550e-10
  5.27068    -82.0 9.468e+03 3.809e-10
  5.29699    -80.6 9.580e+03 4.069e-10
  5.33948    -79.2 9.671e+03 4.264e-10
  5.36093    -80.4 9.603e+03 4.309e-10
  5.38278    -79.1 9.630e+03 4.411e-10
  5.42567    -77.8 9.618e+03 4.526e-10
  5.45117    -76.3 9.582e+03 4.744e-10
  5.47262    -76.9 9.566e+03 5.654e-10
  5.51145    -75.1 9.681e+03 6.114e-10
  5.54142    -73.3 9.782e+03 6.460e-10
  5.56287    -74.1 9.622e+03 5.567e-10
  5.59724    -72.4 9.623e+03 5.644e-10
  5.63166    -70.6 9.506e+03 5.413e-10
  5.65311    -71.8 8.790e+03 3.464e-10
  5.68302    -69.6 8.660e+03 3.242e-10
  5.72191    -67.2 8.488e+03 2.807e-10
  5.74336    -67.6 8.011e+03 1.720e-10
  5.76881    -65.3 7.854e+03 1.364e-10
  5.81170    -63.0 7.729e+03 1.106e-10
  5.83360    -60.7 7.660e+03 9.725e-11
  5.85505    -61.4 7.390e+03 6.991e-11
  5.89748    -59.0 7.379e+03 7.009e-11
  5.92385    -56.4 7.386e+03 7.498e-11
  5.93472    -56.7 7.228e+03 6.503e-11
  5.95125    -56.7 7.223e+03 6.052e-11
  5.98327    -53.9 7.231e+03 6.145e-11
  6.01409    -51.1 7.253e+03 6.165e-11
  6.03554    -51.5 7.170e+03 5.108e-11
  6.06905    -49.3 7.280e+03 5.170e-11
  6.10434    -47.6 7.486e+03 5.641e-11
  6.12578    -49.3 7.617e+03 6.246e-11
  6.15484    -47.8 7.773e+03 9.172e-11
  6.19458    -45.9 7.933e+03 1.399e-10
  6.21603    -47.2 8.474e+03 2.378e-10
  6.24062    -45.7 8.860e+03 2.935e-10
  6.28351    -45.2 9.449e+03 3.783e-10
  6.30628    -45.9 1.026e+04 5.918e-10
  6.32772    -49.2 1.083e+04 9.512e-10
  6.36930    -49.9 1.167e+04 1.399e-09
  6.39642    -51.9 1.271e+04 2.090e-09
  6.40705    -53.5 1.265e+04 1.960e-09
  6.42272    -54.7 1.272e+04 2.043e-09
  6.44145    -55.8 1.249e+04 2.055e-09
  6.45217    -57.6 1.156e+04 1.454e-09
  6.46561    -57.9 1.126e+04 1.378e-09
  6.48657    -58.0 1.098e+04 1.169e-09
  6.49730    -59.3 1.028e+04 7.495e-10
  6.50850    -59.7 9.879e+03 5.662e-10
  6.52995    -60.2 9.430e+03 4.206e-10
  6.54242    -60.6 9.070e+03 3.337e-10
  6.55314    -61.5 8.888e+03 2.908e-10
  6.57692    -61.0 8.759e+03 2.689e-10
  6.59846    -61.7 8.353e+03 1.956e-10
  6.62665    -60.9 8.096e+03 1.701e-10
  6.66726    -59.9 8.051e+03 1.684e-10
  6.68870    -60.2 8.001e+03 1.470e-10
  6.71243    -58.8 8.078e+03 1.715e-10
  6.75532    -57.1 8.151e+03 1.937e-10
  6.77895    -55.3 8.207e+03 2.079e-10
  6.80040    -55.5 8.328e+03 2.201e-10
  6.84111    -53.8 8.399e+03 2.392e-10
  6.86920    -52.0 8.418e+03 2.477e-10
  6.89064    -52.2 8.512e+03 2.647e-10
  6.92689    -50.2 8.473e+03 2.648e-10
  6.95944    -48.2 8.346e+03 2.492e-10
  6.98089    -48.1 8.265e+03 2.324e-10
  7.01268    -45.9 8.068e+03 1.870e-10
  7.04969    -43.8 7.863e+03 1.461e-10
  7.07113    -43.8 7.728e+03 1.164e-10
  7.09846    -41.9 7.600e+03 9.506e-11
  7.13993    -40.2 7.554e+03 8.740e-11
  7.16138    -40.4 7.578e+03 8.041e-11
  7.18424    -39.3 7.796e+03 9.306e-11
  7.22714    -38.9 8.168e+03 1.532e-10
  7.25162    -37.6 8.734e+03 3.056e-10
  7.27307    -38.0 9.025e+03 3.976e-10
  7.29665    -36.2 9.348e+03 5.189e-10
  7.30728    -36.2 9.357e+03 5.293e-10
  7.32345    -36.0 9.378e+03 5.418e-10
  7.34167    -34.5 9.491e+03 6.090e-10
  7.36322    -34.1 9.424e+03 5.255e-10
  7.39870    -32.6 9.257e+03 3.945e-10
  7.43212    -31.5 8.784e+03 2.503e-10
  7.45356    -31.6 8.342e+03 1.451e-10
  7.48449    -30.7 8.045e+03 1.094e-10
  7.52236    -29.5 7.927e+03 9.609e-11
  7.54381    -29.8 7.885e+03 8.421e-11
  7.57027    -28.3 7.913e+03 8.886e-11
  7.61261    -27.3 8.070e+03 1.044e-10
  7.63405    -27.2 8.097e+03 1.041e-10
  7.65606    -26.3 8.316e+03 1.477e-10
  7.69895    -25.5 8.693e+03 2.109e-10
  7.72430    -24.9 9.137e+03 2.873e-10
  7.72978    -25.1 9.162e+03 3.081e-10
  7.74732    -25.0 9.442e+03 3.959e-10
  7.78473    -23.9 9.582e+03 4.509e-10
  7.81454    -22.2 9.455e+03 3.645e-10
  7.83599    -21.4 9.222e+03 2.832e-10
  7.87052    -20.1 9.156e+03 1.646e-10
  7.90479    -19.6 9.031e+03 1.132e-10
  7.92624    -19.3 8.935e+03 7.425e-11
  7.95630    -18.0 8.754e+03 7.339e-11
  7.99504    -16.1 8.765e+03 7.880e-11
  8.01648    -15.6 8.723e+03 6.601e-11
  8.04209    -13.5 8.819e+03 7.748e-11
  8.08498    -11.5 8.950e+03 9.438e-11
  8.10673     -9.6 9.102e+03 1.208e-10
  8.12817     -9.0 9.094e+03 1.161e-10
  8.17076     -7.0 9.264e+03 1.550e-10
  8.19697     -4.9 9.474e+03 2.049e-10
  8.21842     -4.3 9.424e+03 1.908e-10
  8.25655     -2.2 9.616e+03 2.228e-10
  8.28722     -0.2 9.814e+03 2.350e-10
  8.30866      0.3 9.748e+03 2.039e-10
  8.34233      2.2 9.830e+03 1.963e-10
  8.37746      4.1 9.911e+03 1.719e-10
  8.39891      4.6 9.849e+03 1.640e-10
  8.42811      6.5 9.937e+03 1.383e-10
  8.46771      8.4 1.003e+04 1.175e-10
  8.48916      9.1 1.000e+04 1.224e-10
  8.51390     11.1 1.007e+04 1.102e-10
  8.55679     13.3 1.008e+04 1.099e-10
  8.57940     15.5 1.013e+04 1.130e-10
  8.60085     16.3 1.016e+04 1.184e-10
  8.64257     18.5 1.027e+04 1.275e-10
  8.66965     20.8 1.038e+04 1.495e-10
  8.69109     21.5 1.039e+04 1.499e-10
  8.72836     23.7 1.053e+04 1.845e-10
  8.75989     26.1 1.070e+04 2.298e-10
  8.78134     26.9 1.065e+04 2.003e-10
  8.81414     29.3 1.081e+04 2.363e-10
  8.85014     31.6 1.095e+04 2.687e-10
  8.87158     32.4 1.087e+04 2.059e-10
  8.89993     34.6 1.098e+04 2.279e-10
  8.94038     36.7 1.104e+04 2.564e-10
  8.96183     37.2 1.107e+04 2.139e-10
  8.98571     39.1 1.114e+04 2.699e-10
  9.02860     40.9 1.127e+04 3.676e-10
  9.05208     42.7 1.150e+04 5.314e-10
  9.07352     43.0 1.171e+04 6.059e-10
  9.11439     44.6 1.210e+04 9.622e-10
  9.14232     45.6 1.265e+04 1.478e-09
  9.16377     45.7 1.277e+04 1.655e-09
  9.18735     46.0 1.322e+04 2.331e-09
  9.19797     46.1 1.324e+04 2.384e-09
  9.21070     47.0 1.364e+04 3.189e-09
  9.23214     48.1 1.394e+04 3.569e-09
  9.24309     49.1 1.400e+04 3.382e-09
  9.25382     49.3 1.376e+04 2.501e-09
  9.27504     49.7 1.365e+04 1.819e-09
  9.28822     49.2 1.331e+04 1.154e-09
  9.29894     48.3 1.261e+04 7.245e-10
  9.31793     47.2 1.176e+04 5.331e-10
  9.33334     46.3 1.089e+04 4.751e-10
  9.34416     46.0 1.059e+04 3.444e-10
  9.37174     45.6 1.001e+04 3.344e-10
  9.41306     46.2 9.953e+03 3.800e-10
  9.43450     46.0 9.585e+03 2.514e-10
  9.45752     47.2 9.680e+03 3.162e-10
  9.50042     48.3 9.765e+03 3.643e-10
  9.52475     49.0 1.008e+04 4.930e-10
  9.54620     49.0 9.935e+03 3.876e-10
  9.58620     49.6 1.011e+04 4.527e-10
  9.61500     50.0 1.044e+04 6.059e-10
  9.63644     50.1 1.007e+04 4.528e-10
  9.67198     50.8 1.036e+04 6.264e-10
  9.70524     51.5 1.053e+04 7.795e-10
  9.72669     51.5 9.920e+03 4.896e-10
  9.75777     52.0 9.921e+03 5.303e-10
  9.79549     52.6 9.844e+03 5.191e-10
  9.81693     52.7 9.470e+03 3.970e-10
  9.84355     53.8 9.382e+03 3.846e-10
  9.88573     55.1 9.142e+03 3.397e-10
  9.90718     55.6 9.076e+03 3.157e-10
  9.92934     57.1 8.883e+03 2.703e-10
  9.97223     58.6 8.651e+03 2.111e-10
  9.99742     60.2 8.413e+03 1.560e-10
 10.01887     60.7 8.450e+03 1.598e-10
 10.05801     62.3 8.246e+03 1.134e-10
 10.08767     63.8 8.079e+03 8.089e-11
 10.10912     64.1 8.128e+03 7.904e-11
 10.14380     65.4 8.009e+03 6.122e-11
 10.17792     66.9 8.011e+03 5.850e-11
 10.19936     67.1 8.175e+03 6.598e-11
 10.22958     68.6 8.197e+03 6.786e-11
 10.26816     70.1 8.266e+03 7.494e-11
 10.28961     70.0 8.436e+03 1.034e-10
 10.31536     71.3 8.636e+03 1.275e-10
 10.35826     72.4 8.895e+03 1.584e-10
 10.40115     72.5 9.773e+03 3.263e-10
 10.44404     73.4 9.967e+03 3.502e-10
 10.47010     74.4 1.003e+04 3.512e-10
 10.49154     73.7 1.052e+04 5.388e-10
 10.52982     75.1 1.044e+04 4.915e-10
 10.56034     76.7 1.032e+04 4.396e-10
 10.58179     76.4 1.042e+04 4.696e-10
 10.61561     78.2 1.022e+04 4.114e-10
 10.65059     80.2 1.002e+04 3.644e-10
 10.67204     80.1 9.807e+03 3.028e-10
 10.70139     82.3 9.598e+03 2.531e-10
 10.74083     84.5 9.414e+03 2.133e-10
 10.76228     84.7 9.319e+03 1.798e-10
 10.78718     87.1 9.206e+03 1.618e-10
 10.83007     89.6 9.112e+03 1.544e-10
 10.85253     92.2 9.093e+03 1.546e-10
 10.87397     92.7 9.143e+03 1.566e-10
 10.91585     95.4 9.163e+03 1.639e-10
 10.94277     98.0 9.227e+03 1.788e-10
 10.96422     98.5 9.396e+03 2.328e-10
