# Columns:
#   distance along LOS (in CHIMPs)
#   peculiar velocity  (in km/s)
#   temperature (K)
#   HI number density
# pos=(177.008,61.7116,74.8483), angles=(1.73637,2.96913)
  0.00082     97.6 1.203e+04 1.001e-09
  0.01872     99.3 1.196e+04 8.860e-10
  0.03882     97.5 1.119e+04 5.050e-10
  0.06193     99.3 1.110e+04 4.360e-10
  0.08779    101.1 1.111e+04 4.197e-10
  0.10789    100.4 1.106e+04 3.991e-10
  0.13219    101.5 1.101e+04 4.034e-10
  0.14657    102.3 1.102e+04 4.279e-10
  0.15662    101.5 1.073e+04 3.674e-10
  0.17229    102.3 1.078e+04 4.058e-10
  0.19239    103.0 1.094e+04 4.743e-10
  0.20715    103.7 1.113e+04 5.600e-10
  0.21720    103.2 1.107e+04 5.610e-10
  0.23259    104.0 1.122e+04 6.596e-10
  0.25269    104.7 1.137e+04 7.725e-10
  0.26456    105.4 1.152e+04 8.951e-10
  0.27461    105.0 1.147e+04 8.398e-10
  0.29289    105.8 1.163e+04 9.515e-10
  0.31299    106.4 1.178e+04 1.066e-09
  0.32670    107.1 1.193e+04 1.190e-09
  0.33675    106.6 1.180e+04 1.089e-09
  0.35319    107.1 1.199e+04 1.231e-09
  0.37251    107.5 1.223e+04 1.424e-09
  0.38256    107.3 1.211e+04 1.218e-09
  0.39339    107.6 1.243e+04 1.466e-09
  0.41349    107.7 1.290e+04 1.872e-09
  0.43359    107.8 1.350e+04 2.525e-09
  0.44625    107.9 1.421e+04 3.515e-09
  0.45630    107.8 1.396e+04 3.180e-09
  0.47379    108.2 1.467e+04 4.327e-09
  0.49050    108.5 1.538e+04 5.647e-09
  0.50055    107.9 1.504e+04 4.577e-09
  0.51399    108.0 1.558e+04 5.653e-09
  0.53409    107.8 1.595e+04 6.119e-09
  0.55419    107.4 1.600e+04 6.092e-09
  0.56581    106.8 1.594e+04 5.838e-09
  0.57586    106.7 1.550e+04 5.066e-09
  0.59439    106.2 1.545e+04 4.826e-09
  0.60850    105.7 1.530e+04 4.428e-09
  0.61855    105.0 1.406e+04 2.542e-09
  0.63459    104.4 1.369e+04 2.127e-09
  0.65469    103.9 1.318e+04 1.701e-09
  0.67480    103.3 1.256e+04 1.304e-09
  0.68536    102.9 1.187e+04 9.808e-10
  0.69541    103.1 1.166e+04 8.558e-10
  0.71500    102.7 1.097e+04 6.459e-10
  0.72649    102.3 1.037e+04 5.067e-10
  0.73654    101.4 9.548e+03 3.719e-10
  0.75520    101.3 9.415e+03 3.485e-10
  0.77530    101.4 9.351e+03 3.411e-10
  0.79486    101.4 9.357e+03 3.422e-10
  0.80491    101.9 9.383e+03 3.418e-10
  0.81550    101.8 9.446e+03 3.505e-10
  0.83444    101.3 9.714e+03 3.975e-10
  0.84449    100.9 9.386e+03 3.732e-10
  0.85570     99.8 9.838e+03 4.813e-10
  0.87580     98.5 1.057e+04 7.235e-10
  0.89590     97.4 1.136e+04 1.143e-09
  0.91441     96.7 1.208e+04 1.720e-09
  0.92446     97.4 1.189e+04 1.588e-09
  0.93610     96.8 1.243e+04 2.064e-09
  0.95243     95.9 1.267e+04 2.159e-09
  0.96248     94.9 1.236e+04 1.937e-09
  0.97630     93.4 1.235e+04 1.910e-09
  0.99640     91.6 1.220e+04 1.742e-09
  1.01650     89.8 1.179e+04 1.436e-09
  1.03397     87.8 1.125e+04 1.135e-09
  1.04402     88.6 1.116e+04 1.092e-09
  1.05670     86.7 1.066e+04 8.893e-10
  1.07043     85.0 1.023e+04 7.597e-10
  1.08048     84.7 1.016e+04 7.220e-10
  1.09690     83.6 9.968e+03 6.920e-10
  1.11700     82.9 1.003e+04 7.078e-10
  1.13710     80.8 1.080e+04 8.808e-10
  1.15352     76.5 1.292e+04 1.514e-09
  1.16357     76.6 1.264e+04 1.350e-09
  1.17223     72.6 1.442e+04 2.156e-09
  1.18223     67.9 1.715e+04 3.867e-09
  1.18832     62.9 1.963e+04 8.227e-09
  1.19335     62.6 1.923e+04 7.953e-09
  1.20233     59.1 2.042e+04 1.564e-08
  1.21238     56.2 2.246e+04 3.750e-08
  1.21822     52.8 2.420e+04 1.345e-07
  1.22325     55.2 2.347e+04 8.111e-08
  1.23248     50.7 2.459e+04 2.126e-07
  1.24229     45.0 2.524e+04 2.599e-07
  1.24732     46.5 2.567e+04 1.475e-07
  1.25258     41.8 2.602e+04 1.317e-07
  1.26263     36.7 2.719e+04 8.901e-08
  1.27268     31.4 2.764e+04 5.465e-08
  1.27800     27.0 2.678e+04 3.842e-08
  1.28303     30.9 2.658e+04 3.989e-08
  1.29278     27.3 2.616e+04 3.126e-08
  1.30129     25.0 2.525e+04 2.599e-08
  1.30632     26.8 2.550e+04 2.698e-08
  1.31288     25.5 2.451e+04 2.367e-08
  1.32293     24.0 2.368e+04 2.161e-08
  1.33805     24.1 2.187e+04 1.912e-08
  1.35820     23.5 1.868e+04 1.494e-08
  1.37830     23.9 1.702e+04 1.089e-08
  1.39263     24.7 1.634e+04 6.748e-09
  1.40268     26.1 1.679e+04 1.000e-08
  1.41436     26.6 1.636e+04 6.477e-09
  1.42441     27.2 1.675e+04 9.312e-09
  1.43860     27.6 1.610e+04 6.033e-09
  1.45870     27.5 1.503e+04 3.422e-09
  1.47880     27.0 1.341e+04 1.839e-09
  1.49891     26.6 1.175e+04 1.031e-09
  1.51218     26.5 1.046e+04 6.496e-10
  1.52223     28.2 1.156e+04 9.913e-10
  1.53235     28.0 1.039e+04 6.335e-10
  1.54240     30.1 1.163e+04 9.066e-10
  1.55921     29.5 1.035e+04 5.479e-10
  1.57931     29.6 9.480e+03 3.793e-10
  1.59941     29.8 9.277e+03 3.393e-10
  1.61951     31.5 8.745e+03 2.688e-10
  1.63173     31.6 8.783e+03 2.701e-10
  1.64178     31.8 8.723e+03 2.695e-10
  1.65045     33.6 8.307e+03 2.071e-10
  1.67064     34.2 8.449e+03 2.289e-10
  1.71015     36.3 8.376e+03 2.148e-10
  1.74143     38.5 8.197e+03 1.841e-10
  1.76153     39.4 8.307e+03 2.167e-10
  1.79055     41.5 8.185e+03 1.991e-10
  1.83075     43.5 8.133e+03 1.879e-10
  1.86643     45.4 8.112e+03 1.868e-10
  1.88653     45.4 8.306e+03 2.116e-10
  1.91116     47.2 8.299e+03 2.136e-10
  1.95136     49.1 8.315e+03 2.245e-10
  1.98054     51.0 8.367e+03 2.424e-10
  2.00064     51.6 8.824e+03 3.443e-10
  2.03176     53.3 8.889e+03 3.547e-10
  2.07196     55.0 8.945e+03 3.637e-10
  2.10242     56.8 8.997e+03 3.775e-10
  2.12252     56.5 9.001e+03 3.831e-10
  2.14221     57.8 8.999e+03 4.017e-10
  2.16221     58.4 9.052e+03 4.291e-10
  2.18231     59.4 9.166e+03 4.908e-10
  2.20241     60.5 9.324e+03 5.603e-10
  2.21945     61.5 9.515e+03 6.377e-10
  2.22721     61.6 9.695e+03 7.147e-10
  2.23027     61.4 9.899e+03 7.893e-10
  2.24261     62.3 1.014e+04 8.994e-10
  2.26271     63.2 1.039e+04 1.014e-09
  2.28281     64.0 1.072e+04 1.148e-09
  2.30292     64.5 1.108e+04 1.303e-09
  2.32302     64.8 1.144e+04 1.481e-09
  2.33822     65.1 1.178e+04 1.692e-09
  2.34415     64.0 1.257e+04 2.325e-09
  2.34905     64.2 1.290e+04 2.615e-09
  2.36322     64.6 1.298e+04 2.738e-09
  2.38332     64.9 1.301e+04 2.761e-09
  2.40342     64.7 1.306e+04 2.712e-09
  2.42352     63.9 1.338e+04 2.890e-09
  2.44362     61.6 1.446e+04 3.480e-09
  2.45621     57.7 1.622e+04 5.207e-09
  2.46110     56.8 1.475e+04 3.330e-09
  2.46860     57.2 1.449e+04 3.074e-09
  2.48382     55.0 1.548e+04 4.478e-09
  2.50392     54.0 1.585e+04 5.410e-09
  2.52402     53.3 1.566e+04 5.130e-09
  2.54412     53.2 1.496e+04 3.946e-09
  2.56416     52.5 1.407e+04 2.515e-09
  2.59441     49.8 1.168e+04 1.071e-09
  2.63476     49.5 1.149e+04 1.038e-09
  2.67496     50.2 1.151e+04 1.105e-09
  2.69786     51.2 1.164e+04 1.142e-09
  2.71796     53.2 1.227e+04 1.477e-09
  2.75537     54.5 1.239e+04 1.531e-09
  2.79029     56.0 1.226e+04 1.284e-09
  2.81039     54.9 1.167e+04 9.435e-10
  2.83577     55.7 1.112e+04 6.093e-10
  2.87597     55.9 1.076e+04 4.752e-10
  2.91617     56.3 1.078e+04 4.990e-10
  2.93696     56.6 1.106e+04 6.807e-10
  2.95706     58.1 1.103e+04 6.330e-10
  2.99657     58.2 1.138e+04 8.998e-10
  3.02618     57.9 1.171e+04 1.264e-09
  3.03614     57.9 1.193e+04 1.364e-09
  3.04627     57.8 1.226e+04 1.705e-09
  3.05632     58.2 1.234e+04 1.680e-09
  3.06672     58.3 1.265e+04 2.026e-09
  3.08682     58.4 1.263e+04 2.034e-09
  3.10692     58.7 1.232e+04 1.870e-09
  3.12703     59.1 1.181e+04 1.466e-09
  3.14408     59.2 1.129e+04 1.013e-09
  3.15413     59.2 1.150e+04 1.143e-09
  3.16582     59.0 1.106e+04 7.634e-10
  3.17587     60.0 1.122e+04 8.955e-10
  3.18733     59.3 1.079e+04 5.611e-10
  3.20743     57.8 1.021e+04 3.570e-10
  3.22753     56.3 9.646e+03 2.585e-10
  3.24763     55.3 9.342e+03 2.209e-10
  3.26208     54.3 9.518e+03 2.328e-10
  3.27213     55.7 9.594e+03 2.511e-10
  3.28538     53.1 1.030e+04 3.075e-10
  3.29543     54.3 1.019e+04 3.075e-10
  3.30793     50.8 1.110e+04 4.943e-10
  3.32803     47.4 1.169e+04 9.599e-10
  3.34813     45.2 1.237e+04 1.778e-09
  3.36823     44.1 1.288e+04 2.514e-09
  3.38007     43.5 1.282e+04 2.473e-09
  3.39012     43.3 1.327e+04 2.995e-09
  3.40493     42.2 1.299e+04 2.463e-09
  3.41498     42.3 1.310e+04 2.569e-09
  3.42853     40.3 1.249e+04 1.578e-09
  3.44863     37.2 1.139e+04 8.541e-10
  3.46873     34.0 1.022e+04 5.042e-10
  3.48802     31.5 9.899e+03 3.807e-10
  3.49807     30.2 9.952e+03 3.832e-10
  3.50893     28.8 1.002e+04 3.773e-10
  3.52448     27.3 1.013e+04 3.936e-10
  3.53453     26.9 9.923e+03 3.147e-10
  3.54913     26.3 9.720e+03 3.860e-10
  3.56923     26.4 9.783e+03 4.304e-10
  3.58933     26.6 9.830e+03 4.742e-10
  3.60601     26.8 9.833e+03 4.769e-10
  3.61606     26.6 9.813e+03 4.455e-10
  3.63408     26.7 9.855e+03 3.852e-10
  3.65428     26.4 9.785e+03 4.185e-10
  3.67998     26.3 9.743e+03 3.943e-10
  3.71415     26.7 9.612e+03 3.439e-10
  3.73425     26.7 9.681e+03 3.381e-10
  3.76038     27.3 9.673e+03 3.137e-10
  3.80058     27.7 9.667e+03 2.760e-10
  3.84078     27.8 9.726e+03 2.655e-10
  3.87083     27.5 9.873e+03 3.177e-10
  3.88314     27.5 9.937e+03 3.335e-10
  3.89329     27.5 1.012e+04 3.778e-10
  3.91103     26.5 1.071e+04 5.543e-10
  3.93104     25.5 1.126e+04 7.146e-10
  3.94995     24.0 1.186e+04 9.983e-10
  3.96000     23.7 1.220e+04 1.334e-09
  3.97124     24.0 1.228e+04 1.920e-09
  3.99134     24.9 1.273e+04 2.319e-09
  4.00269     24.8 1.353e+04 2.311e-09
  4.01274     25.8 1.336e+04 2.274e-09
  4.03154     23.6 1.412e+04 2.151e-09
  4.05164     19.9 1.382e+04 2.325e-09
  4.06794     16.6 1.351e+04 2.581e-09
  4.07794     16.3 1.382e+04 2.965e-09
  4.08671     14.1 1.397e+04 3.397e-09
  4.09676     13.5 1.440e+04 3.681e-09
  4.10681     11.5 1.538e+04 4.352e-09
  4.11686     10.1 1.676e+04 5.014e-09
  4.12215      7.7 1.797e+04 5.669e-09
  4.12710      8.9 1.744e+04 5.885e-09
  4.13187      6.7 1.924e+04 9.743e-09
  4.13696      5.5 1.983e+04 1.095e-08
  4.14702      3.1 1.949e+04 1.125e-08
  4.15707      2.2 1.970e+04 1.325e-08
  4.17219      0.9 1.889e+04 1.297e-08
  4.18594     -0.9 1.871e+04 1.668e-08
  4.19599     -1.9 1.932e+04 2.035e-08
  4.21244     -1.9 1.933e+04 2.138e-08
  4.23175     -1.6 1.917e+04 2.166e-08
  4.24180     -1.3 1.971e+04 2.683e-08
  4.24488     -0.3 1.971e+04 3.059e-08
  4.24986     -0.6 1.960e+04 2.600e-08
  4.25757     -0.1 1.944e+04 2.386e-08
  4.26762      0.2 1.916e+04 1.820e-08
  4.27767      0.4 1.881e+04 1.507e-08
  4.29279      0.7 1.848e+04 1.172e-08
  4.30393      0.1 1.736e+04 6.233e-09
  4.31398     -1.7 1.624e+04 3.531e-09
  4.33304     -3.1 1.456e+04 1.754e-09
  4.35130     -4.2 1.300e+04 1.112e-09
  4.36135     -2.3 1.426e+04 1.767e-09
  4.37324     -3.0 1.274e+04 1.211e-09
  4.39334     -2.6 1.229e+04 1.065e-09
  4.41188     -2.3 1.207e+04 1.018e-09
  4.42202     -2.0 1.236e+04 1.246e-09
  4.44379     -0.4 1.212e+04 1.121e-09
  4.48399      1.5 1.195e+04 1.049e-09
  4.52419      3.2 1.170e+04 9.468e-10
  4.56439      5.1 1.139e+04 7.789e-10
  4.59060      6.8 1.106e+04 5.826e-10
  4.61070      8.2 1.136e+04 7.546e-10
  4.63464      8.9 1.113e+04 5.950e-10
  4.64786      9.3 1.102e+04 5.699e-10
  4.65791      9.5 1.091e+04 4.879e-10
  4.67474     10.2 1.084e+04 4.406e-10
  4.69484     10.5 1.076e+04 4.324e-10
  4.72509     12.1 1.085e+04 4.596e-10
  4.76539     13.4 1.079e+04 5.233e-10
  4.80559     14.7 1.069e+04 5.565e-10
  4.82971     15.9 1.050e+04 5.088e-10
  4.84981     17.2 1.077e+04 6.847e-10
  4.87400     18.4 1.049e+04 5.348e-10
  4.89410     18.4 1.046e+04 4.784e-10
  4.92619     19.2 1.044e+04 4.688e-10
  4.96639     19.9 1.035e+04 4.463e-10
  5.00659     21.1 1.027e+04 4.473e-10
  5.04679     22.4 1.010e+04 4.230e-10
  5.06882     23.8 9.899e+03 3.478e-10
  5.08892     24.9 9.861e+03 3.071e-10
  5.10999     26.2 9.814e+03 3.164e-10
  5.13009     26.3 9.780e+03 2.998e-10
  5.16740     27.6 9.601e+03 2.735e-10
  5.20760     29.0 9.400e+03 2.668e-10
  5.24780     30.5 9.351e+03 2.532e-10
  5.28782     31.7 9.388e+03 2.503e-10
  5.32570     34.0 9.460e+03 3.056e-10
  5.34598     34.1 9.405e+03 3.007e-10
  5.36840     36.2 9.485e+03 3.351e-10
  5.40860     37.9 9.633e+03 3.544e-10
  5.44880     39.1 9.822e+03 3.842e-10
  5.47885     39.4 1.013e+04 4.774e-10
  5.49885     39.5 1.041e+04 5.910e-10
  5.51895     39.7 1.069e+04 7.633e-10
  5.53678     40.0 1.096e+04 9.418e-10
  5.54683     40.6 1.088e+04 8.740e-10
  5.55916     40.9 1.112e+04 1.052e-09
  5.57172     41.3 1.132e+04 1.217e-09
  5.58177     41.8 1.110e+04 1.083e-09
  5.59936     41.9 1.133e+04 1.119e-09
  5.61946     41.6 1.148e+04 1.148e-09
  5.63956     41.2 1.141e+04 1.143e-09
  5.65634     41.2 1.121e+04 1.129e-09
  5.66639     41.9 1.132e+04 1.213e-09
  5.67967     42.4 1.100e+04 1.129e-09
  5.69977     42.9 1.069e+04 9.878e-10
  5.71996     43.8 1.054e+04 8.595e-10
  5.74006     44.4 1.048e+04 7.289e-10
  5.76016     44.8 1.035e+04 6.052e-10
  5.77589     44.8 1.023e+04 5.051e-10
  5.78594     45.4 1.044e+04 5.743e-10
  5.79766     46.1 1.000e+04 4.868e-10
  5.80771     45.9 1.015e+04 5.198e-10
  5.82046     45.9 1.014e+04 5.167e-10
  5.85071     47.3 1.035e+04 6.006e-10
  5.89100     48.5 1.074e+04 7.640e-10
  5.93120     48.8 1.175e+04 1.260e-09
  5.96126     49.1 1.263e+04 1.933e-09
  5.98126     50.1 1.301e+04 2.407e-09
  6.00136     51.4 1.315e+04 2.510e-09
  6.01500     52.3 1.326e+04 2.462e-09
  6.02505     52.9 1.358e+04 3.035e-09
  6.03365     53.0 1.368e+04 2.772e-09
  6.04370     52.3 1.284e+04 1.594e-09
  6.06166     52.2 1.294e+04 1.635e-09
  6.08176     51.7 1.315e+04 1.730e-09
  6.10186     51.2 1.352e+04 2.032e-09
  6.12196     50.8 1.401e+04 2.657e-09
  6.13455     50.9 1.446e+04 3.515e-09
  6.14413     51.4 1.486e+04 4.274e-09
  6.15165     51.8 1.417e+04 2.598e-09
  6.16216     52.1 1.449e+04 3.292e-09
  6.18226     52.6 1.483e+04 3.970e-09
  6.20236     52.7 1.520e+04 4.611e-09
  6.22246     52.3 1.561e+04 5.354e-09
  6.24256     51.6 1.590e+04 6.218e-09
  6.25410     51.2 1.585e+04 6.863e-09
  6.26108     51.6 1.636e+04 8.003e-09
  6.26964     51.5 1.561e+04 5.781e-09
  6.28276     51.8 1.542e+04 6.063e-09
  6.30286     51.9 1.535e+04 5.385e-09
  6.32296     47.8 1.760e+04 6.638e-09
  6.33799     44.4 1.813e+04 7.888e-09
  6.34799     43.8 1.782e+04 7.791e-09
  6.35804     42.4 1.671e+04 8.487e-09
  6.36809     42.3 1.611e+04 8.281e-09
  6.37361     43.6 1.518e+04 7.106e-09
  6.37803     44.4 1.540e+04 7.622e-09
  6.38764     43.7 1.478e+04 5.567e-09
  6.40337     43.6 1.396e+04 3.154e-09
  6.42347     42.0 1.315e+04 1.413e-09
  6.44357     38.6 1.166e+04 6.153e-10
  6.46367     36.7 9.786e+03 3.752e-10
  6.48316     36.7 9.475e+03 2.599e-10
  6.49321     36.8 9.489e+03 2.698e-10
  6.49558     37.3 9.300e+03 2.418e-10
  6.50563     37.9 9.285e+03 2.374e-10
  6.53411     40.1 8.941e+03 1.963e-10
  6.57441     42.7 8.434e+03 1.318e-10
  6.61461     45.1 8.252e+03 8.861e-11
  6.65481     46.9 8.183e+03 6.614e-11
  6.69501     48.9 8.055e+03 6.442e-11
  6.72172     50.5 8.075e+03 7.363e-11
  6.72906     50.6 8.058e+03 7.517e-11
  6.74256     51.2 8.046e+03 7.830e-11
  6.77542     52.9 8.083e+03 1.031e-10
  6.81562     54.6 8.228e+03 1.427e-10
  6.85582     55.7 8.543e+03 1.946e-10
  6.89602     55.3 9.161e+03 3.053e-10
  6.93622     54.5 1.046e+04 7.007e-10
  6.95761     55.2 1.053e+04 8.579e-10
  6.96286     55.7 1.011e+04 6.422e-10
  6.98167     56.0 9.942e+03 5.979e-10
  7.00647     56.8 9.876e+03 5.954e-10
  7.02647     57.1 9.819e+03 5.603e-10
  7.04657     57.3 9.598e+03 4.315e-10
  7.06546     57.2 9.581e+03 3.706e-10
  7.07551     57.3 9.580e+03 3.716e-10
  7.08092     57.1 9.611e+03 3.293e-10
  7.09097     57.0 9.580e+03 3.352e-10
  7.10687     56.8 9.683e+03 3.513e-10
  7.12697     55.9 1.016e+04 4.613e-10
  7.14707     56.3 1.041e+04 6.150e-10
  7.16717     56.5 1.098e+04 8.969e-10
  7.18345     57.1 1.142e+04 1.216e-09
  7.19350     57.7 1.122e+04 1.080e-09
  7.20048     58.1 1.178e+04 1.443e-09
  7.21053     58.0 1.174e+04 1.424e-09
  7.22748     58.4 1.216e+04 1.769e-09
  7.24758     59.0 1.234e+04 1.948e-09
  7.26768     59.0 1.246e+04 1.987e-09
  7.28778     59.4 1.222e+04 1.844e-09
  7.30145     59.5 1.197e+04 1.662e-09
  7.31150     59.7 1.196e+04 1.656e-09
  7.32003     60.2 1.147e+04 1.348e-09
  7.33008     60.2 1.112e+04 1.138e-09
  7.34808     60.2 1.083e+04 9.744e-10
  7.36818     60.5 1.048e+04 8.249e-10
  7.38828     60.7 1.025e+04 7.288e-10
  7.40838     61.0 1.002e+04 6.426e-10
  7.41944     61.2 9.823e+03 5.678e-10
  7.42949     61.2 9.818e+03 5.634e-10
  7.43958     61.1 9.679e+03 5.308e-10
  7.44963     61.6 9.655e+03 5.314e-10
  7.46868     61.7 9.675e+03 5.339e-10
  7.48878     61.8 9.708e+03 5.443e-10
  7.50888     62.0 9.737e+03 5.729e-10
  7.52739     62.3 9.758e+03 6.128e-10
  7.53744     62.4 9.727e+03 6.091e-10
  7.54908     63.0 9.721e+03 6.429e-10
  7.56918     64.1 1.007e+04 7.859e-10
  7.58928     64.8 1.022e+04 8.352e-10
  7.60938     65.1 1.067e+04 9.415e-10
  7.62948     65.4 1.120e+04 1.108e-09
  7.64538     66.1 1.149e+04 1.257e-09
  7.65543     66.6 1.063e+04 8.538e-10
  7.66864     67.0 1.070e+04 8.925e-10
  7.67869     67.7 1.152e+04 1.312e-09
  7.68978     68.2 1.145e+04 1.309e-09
  7.70988     68.8 1.122e+04 1.266e-09
  7.72998     69.3 1.091e+04 1.201e-09
  7.75008     69.9 1.082e+04 1.141e-09
  7.76338     70.6 1.088e+04 1.120e-09
  7.77343     70.8 1.069e+04 1.103e-09
  7.78819     71.9 1.072e+04 1.098e-09
  7.79824     72.6 1.122e+04 1.331e-09
  7.81038     73.6 1.114e+04 1.235e-09
  7.83048     74.5 1.099e+04 1.122e-09
  7.85058     75.1 1.078e+04 1.011e-09
  7.87068     75.6 1.055e+04 9.104e-10
  7.88137     75.9 1.056e+04 8.020e-10
  7.89142     76.3 1.029e+04 8.089e-10
  7.90774     76.1 1.013e+04 7.183e-10
  7.91779     77.2 1.090e+04 8.889e-10
  7.93098     74.2 1.215e+04 1.043e-09
  7.94601     64.9 1.550e+04 1.878e-09
  7.95601     62.2 1.638e+04 2.273e-09
  7.96606     52.8 1.819e+04 5.887e-09
  7.97245     52.2 1.758e+04 9.572e-09
  7.97747     51.1 1.775e+04 1.156e-08
  7.98616     50.4 1.860e+04 1.745e-08
  7.99424     50.3 1.912e+04 1.979e-08
  7.99927     49.7 1.914e+04 1.985e-08
  8.01134     48.5 1.928e+04 1.770e-08
  8.02730     46.0 1.946e+04 1.105e-08
  8.03735     41.2 2.074e+04 1.060e-08
  8.05159     34.0 1.842e+04 5.016e-09
  8.07169     27.6 1.520e+04 3.214e-09
  8.09179     26.4 1.473e+04 3.443e-09
  8.10731     26.8 1.479e+04 4.135e-09
  8.11736     27.5 1.491e+04 4.132e-09
  8.13199     28.3 1.499e+04 4.924e-09
  8.14685     29.9 1.500e+04 5.511e-09
  8.15690     29.4 1.580e+04 7.470e-09
  8.17219     31.2 1.582e+04 7.540e-09
  8.19229     32.9 1.564e+04 6.721e-09
  8.21239     34.2 1.530e+04 5.375e-09
  8.22530     35.1 1.456e+04 3.827e-09
  8.23535     35.7 1.493e+04 4.342e-09
  8.25259     35.9 1.396e+04 3.215e-09
  8.26640     36.2 1.294e+04 2.325e-09
  8.27645     35.3 1.307e+04 2.392e-09
  8.29279     36.1 1.232e+04 1.843e-09
  8.31289     37.0 1.184e+04 1.596e-09
  8.33299     38.3 1.156e+04 1.279e-09
  8.34330     39.4 1.119e+04 1.096e-09
  8.35335     39.4 1.136e+04 1.204e-09
  8.37319     40.6 1.124e+04 1.077e-09
  8.38596     41.6 1.123e+04 1.043e-09
  8.39601     41.3 1.126e+04 1.112e-09
  8.42354     42.9 1.115e+04 1.035e-09
  8.46384     44.9 1.118e+04 1.057e-09
  8.50404     46.9 1.171e+04 1.314e-09
  8.53409     47.0 1.233e+04 1.725e-09
  8.55409     47.4 1.295e+04 2.269e-09
  8.56924     48.4 1.340e+04 2.882e-09
  8.57929     48.2 1.314e+04 2.469e-09
  8.59429     49.2 1.361e+04 3.014e-09
  8.61439     50.1 1.408e+04 3.470e-09
  8.62506     50.6 1.446e+04 3.824e-09
  8.63511     49.7 1.408e+04 3.392e-09
  8.65459     49.8 1.430e+04 3.855e-09
  8.67469     50.0 1.462e+04 4.358e-09
  8.68723     50.2 1.483e+04 4.734e-09
  8.69728     49.6 1.475e+04 4.779e-09
  8.71489     50.1 1.498e+04 4.974e-09
  8.73457     50.2 1.514e+04 4.998e-09
  8.74462     49.9 1.566e+04 6.275e-09
  8.75509     50.0 1.564e+04 6.182e-09
  8.77519     50.1 1.540e+04 5.799e-09
  8.79518     50.2 1.496e+04 5.098e-09
  8.80523     50.2 1.429e+04 3.851e-09
