# Columns:
#   distance along LOS (in CHIMPs)
#   peculiar velocity  (in km/s)
#   temperature (K)
#   HI number density
# pos=(120.506,180.327,156.057), angles=(1.49292,4.6505)
  0.00621     76.7 9.740e+03 2.399e-10
  0.01452     78.7 1.003e+04 2.680e-10
  0.03415     77.2 1.010e+04 2.679e-10
  0.07131     78.5 1.022e+04 3.028e-10
  0.11057     79.3 1.024e+04 3.624e-10
  0.13349     79.6 1.017e+04 4.083e-10
  0.14320     80.1 1.018e+04 4.191e-10
  0.15944     80.8 1.017e+04 4.767e-10
  0.17907     81.5 1.021e+04 5.262e-10
  0.19870     82.1 1.025e+04 5.431e-10
  0.21833     82.5 1.024e+04 5.476e-10
  0.23796     82.7 1.022e+04 5.410e-10
  0.25759     82.7 1.020e+04 5.338e-10
  0.27721     82.5 1.021e+04 5.351e-10
  0.29684     82.2 1.024e+04 5.461e-10
  0.31647     81.8 1.033e+04 5.763e-10
  0.32973     81.3 1.048e+04 6.297e-10
  0.33954     81.0 1.074e+04 6.893e-10
  0.35573     80.1 1.116e+04 8.521e-10
  0.37535     79.4 1.156e+04 1.008e-09
  0.38649     78.7 1.164e+04 1.034e-09
  0.39631     79.6 1.152e+04 1.002e-09
  0.41461     79.0 1.146e+04 9.631e-10
  0.43424     78.5 1.125e+04 8.519e-10
  0.45387     78.2 1.098e+04 7.181e-10
  0.47350     77.8 1.074e+04 5.990e-10
  0.49312     77.4 1.057e+04 5.083e-10
  0.51275     77.3 1.048e+04 4.504e-10
  0.53238     77.3 1.052e+04 4.313e-10
  0.55201     77.4 1.051e+04 4.302e-10
  0.57164     77.8 1.055e+04 4.329e-10
  0.59127     78.0 1.070e+04 4.479e-10
  0.61089     77.7 1.111e+04 5.001e-10
  0.62978     74.5 1.332e+04 8.672e-10
  0.63959     77.5 1.244e+04 7.067e-10
  0.64514     69.8 1.688e+04 2.714e-09
  0.65495     70.4 1.604e+04 2.047e-09
  0.66978     65.1 1.783e+04 7.053e-09
  0.68445     63.5 1.764e+04 9.061e-09
  0.69422     63.1 1.754e+04 9.099e-09
  0.70899     63.4 1.717e+04 7.703e-09
  0.72866     62.9 1.639e+04 3.676e-09
  0.74829     58.7 1.652e+04 9.140e-10
  0.76792     48.8 1.363e+04 2.442e-10
  0.78755     44.8 1.113e+04 2.023e-10
  0.80718     44.8 1.104e+04 1.995e-10
  0.82680     44.8 1.103e+04 2.003e-10
  0.85634     44.9 1.092e+04 2.132e-10
  0.88308     45.2 1.074e+04 2.299e-10
  0.90271     45.5 1.102e+04 3.044e-10
  0.93495     46.1 1.087e+04 2.972e-10
  0.97421     46.6 1.065e+04 2.592e-10
  1.01347     47.0 1.048e+04 2.166e-10
  1.05272     47.1 1.054e+04 2.129e-10
  1.09198     46.5 1.093e+04 2.503e-10
  1.12132     45.6 1.111e+04 2.967e-10
  1.13599     45.0 1.119e+04 3.505e-10
  1.14580     44.9 1.137e+04 4.175e-10
  1.16048     44.6 1.148e+04 5.740e-10
  1.18011     44.2 1.187e+04 7.439e-10
  1.19974     43.2 1.240e+04 9.414e-10
  1.21937     42.1 1.266e+04 1.150e-09
  1.23900     41.0 1.278e+04 1.342e-09
  1.25862     39.1 1.329e+04 1.613e-09
  1.27595     35.6 1.435e+04 2.258e-09
  1.28576     35.6 1.417e+04 1.730e-09
  1.29788     33.1 1.396e+04 2.637e-09
  1.31751     33.2 1.357e+04 3.290e-09
  1.33714     33.8 1.330e+04 2.997e-09
  1.35677     34.9 1.239e+04 1.555e-09
  1.37639     34.2 1.220e+04 1.316e-09
  1.38919     34.1 1.132e+04 6.467e-10
  1.40891     32.5 1.140e+04 5.532e-10
  1.44529     30.5 1.018e+04 2.273e-10
  1.48454     30.4 9.416e+03 1.492e-10
  1.52380     31.7 9.120e+03 1.162e-10
  1.56306     33.2 9.028e+03 9.863e-11
  1.60231     34.7 8.987e+03 8.547e-11
  1.64157     36.0 8.918e+03 7.930e-11
  1.68083     37.4 8.920e+03 8.061e-11
  1.72008     38.4 8.973e+03 8.983e-11
  1.75934     39.6 9.014e+03 1.115e-10
  1.79860     41.0 9.085e+03 1.360e-10
  1.83785     42.6 9.120e+03 1.544e-10
  1.87586     44.1 9.159e+03 1.624e-10
  1.89549     44.1 9.142e+03 1.387e-10
  1.90695     45.5 9.184e+03 1.347e-10
  1.92658     44.9 9.238e+03 1.405e-10
  1.95562     46.1 9.301e+03 1.465e-10
  1.99488     47.1 9.443e+03 1.787e-10
  2.03413     48.5 9.611e+03 2.456e-10
  2.07339     50.2 9.787e+03 3.109e-10
  2.11265     51.7 9.844e+03 3.148e-10
  2.15190     53.1 9.820e+03 2.931e-10
  2.19116     54.4 9.728e+03 2.478e-10
  2.23042     55.3 9.597e+03 2.144e-10
  2.26967     56.3 9.542e+03 2.136e-10
  2.30893     57.2 9.555e+03 2.317e-10
  2.34818     58.2 9.693e+03 2.825e-10
  2.38206     59.1 9.903e+03 3.660e-10
  2.40169     59.0 9.970e+03 3.831e-10
  2.42670     59.9 1.036e+04 5.413e-10
  2.46595     60.6 1.060e+04 6.327e-10
  2.50521     60.5 1.071e+04 6.482e-10
  2.53776     60.0 1.081e+04 6.179e-10
  2.55739     59.9 1.048e+04 4.959e-10
  2.58372     59.0 1.041e+04 4.641e-10
  2.62298     58.3 1.034e+04 4.727e-10
  2.66224     58.0 1.053e+04 5.336e-10
  2.70149     57.8 1.082e+04 5.738e-10
  2.73084     56.8 1.115e+04 6.747e-10
  2.75037     56.4 1.129e+04 8.027e-10
  2.77000     56.4 1.141e+04 9.464e-10
  2.78962     56.5 1.150e+04 1.086e-09
  2.80925     56.7 1.164e+04 1.215e-09
  2.82888     56.8 1.184e+04 1.308e-09
  2.84851     56.9 1.192e+04 1.350e-09
  2.86279     57.0 1.199e+04 1.350e-09
  2.87260     58.0 1.195e+04 1.396e-09
  2.88777     57.9 1.207e+04 1.419e-09
  2.89789     57.6 1.220e+04 1.458e-09
  2.90770     56.4 1.209e+04 1.390e-09
  2.92702     55.8 1.208e+04 1.454e-09
  2.94665     55.3 1.204e+04 1.505e-09
  2.96628     54.2 1.227e+04 1.641e-09
  2.98591     50.1 1.371e+04 2.306e-09
  3.00553     44.0 1.596e+04 4.615e-09
  3.02516     40.4 1.675e+04 7.884e-09
  3.04479     38.0 1.709e+04 9.080e-09
  3.06442     34.9 1.722e+04 8.684e-09
  3.08405     31.3 1.646e+04 6.424e-09
  3.10368     28.0 1.471e+04 4.402e-09
  3.12330     26.3 1.344e+04 3.135e-09
  3.14118     26.0 1.282e+04 2.387e-09
  3.15099     26.5 1.250e+04 2.061e-09
  3.16256     26.9 1.213e+04 1.548e-09
  3.17819     26.8 1.197e+04 1.334e-09
  3.18801     25.9 1.205e+04 1.348e-09
  3.20182     26.2 1.158e+04 1.092e-09
  3.22144     26.5 1.139e+04 9.293e-10
  3.24107     27.0 1.125e+04 8.486e-10
  3.26070     27.5 1.130e+04 8.775e-10
  3.28033     27.7 1.144e+04 9.684e-10
  3.29996     27.9 1.161e+04 1.152e-09
  3.31959     28.4 1.196e+04 1.492e-09
  3.33921     28.8 1.253e+04 2.016e-09
  3.35884     29.0 1.326e+04 2.754e-09
  3.37847     28.9 1.407e+04 3.790e-09
  3.39428     29.0 1.463e+04 4.923e-09
  3.40409     29.3 1.468e+04 4.885e-09
  3.41773     29.7 1.497e+04 5.815e-09
  3.43736     30.0 1.509e+04 5.977e-09
  3.45698     30.3 1.495e+04 5.588e-09
  3.47661     29.5 1.520e+04 5.087e-09
  3.49360     27.2 1.615e+04 5.493e-09
  3.50341     27.2 1.518e+04 4.468e-09
  3.51587     25.1 1.555e+04 4.819e-09
  3.53550     24.1 1.563e+04 5.266e-09
  3.55512     23.5 1.545e+04 5.431e-09
  3.57475     23.7 1.525e+04 4.931e-09
  3.59438     23.5 1.517e+04 3.866e-09
  3.61401     22.4 1.486e+04 3.005e-09
  3.63364     20.5 1.428e+04 2.525e-09
  3.64738     18.8 1.423e+04 2.600e-09
  3.65719     19.3 1.430e+04 2.706e-09
  3.67289     17.9 1.439e+04 2.886e-09
  3.69252     17.5 1.417e+04 3.259e-09
  3.71215     18.2 1.362e+04 3.380e-09
  3.73178     19.4 1.385e+04 2.652e-09
  3.75141     19.4 1.411e+04 1.808e-09
  3.77103     17.7 1.371e+04 1.170e-09
  3.79929     15.9 1.277e+04 9.495e-10
  3.81891     17.6 1.284e+04 8.448e-10
  3.83983     17.8 1.199e+04 7.236e-10
  3.87919     18.3 1.156e+04 5.432e-10
  3.90068     19.6 1.156e+04 5.044e-10
  3.92031     19.7 1.140e+04 4.845e-10
  3.95770     21.6 1.133e+04 4.495e-10
  3.99695     24.1 1.111e+04 3.794e-10
  4.03621     27.1 1.096e+04 2.785e-10
  4.07547     29.8 1.096e+04 1.934e-10
  4.11472     31.9 1.105e+04 1.474e-10
  4.15398     34.5 1.095e+04 1.406e-10
  4.19324     37.2 1.099e+04 1.471e-10
  4.23249     40.1 1.103e+04 1.666e-10
  4.27175     43.2 1.105e+04 1.988e-10
  4.31101     46.2 1.109e+04 2.318e-10
  4.35026     49.2 1.111e+04 2.567e-10
  4.38725     52.1 1.107e+04 2.737e-10
  4.40688     52.4 1.138e+04 3.930e-10
  4.42878     55.3 1.140e+04 4.460e-10
  4.44982     58.2 1.155e+04 4.902e-10
  4.46945     59.3 1.165e+04 5.257e-10
  4.50729     61.8 1.175e+04 5.345e-10
  4.53663     63.0 1.156e+04 4.205e-10
  4.55616     63.6 1.149e+04 3.726e-10
  4.57579     64.5 1.150e+04 3.624e-10
  4.59542     65.1 1.151e+04 3.667e-10
  4.61505     65.7 1.157e+04 3.867e-10
  4.63468     66.2 1.170e+04 4.390e-10
  4.64998     66.7 1.191e+04 5.264e-10
  4.65979     66.4 1.213e+04 6.111e-10
  4.67393     66.6 1.231e+04 7.338e-10
  4.69356     66.7 1.250e+04 8.991e-10
  4.71319     67.0 1.268e+04 1.114e-09
  4.73282     67.4 1.281e+04 1.327e-09
  4.75245     68.0 1.299e+04 1.472e-09
  4.76503     68.6 1.310e+04 1.467e-09
  4.77485     68.4 1.329e+04 1.596e-09
  4.79170     68.6 1.334e+04 1.573e-09
  4.82124     69.8 1.323e+04 1.399e-09
  4.85068     70.0 1.322e+04 1.245e-09
  4.87021     70.2 1.323e+04 1.154e-09
  4.89336     71.9 1.328e+04 1.128e-09
  4.91299     70.6 1.320e+04 1.027e-09
  4.92910     71.0 1.320e+04 1.021e-09
  4.94873     71.5 1.328e+04 1.064e-09
  4.96836     72.2 1.345e+04 1.155e-09
  4.98798     72.7 1.375e+04 1.316e-09
  5.00761     72.5 1.423e+04 1.629e-09
  5.02724     71.9 1.502e+04 2.270e-09
  5.04687     70.9 1.606e+04 3.421e-09
  5.06650     70.2 1.713e+04 5.287e-09
  5.08044     69.8 1.770e+04 6.879e-09
  5.09025     68.0 1.603e+04 3.759e-09
  5.10575     67.1 1.576e+04 3.597e-09
  5.12538     66.3 1.484e+04 2.976e-09
  5.14501     65.6 1.365e+04 2.114e-09
  5.15618     65.0 1.267e+04 1.385e-09
  5.16600     64.9 1.256e+04 1.332e-09
  5.18427     64.4 1.211e+04 9.521e-10
  5.20389     64.5 1.174e+04 6.957e-10
  5.22352     64.6 1.151e+04 5.459e-10
  5.25306     65.2 1.100e+04 4.115e-10
  5.29242     66.5 1.085e+04 3.848e-10
  5.33167     68.0 1.094e+04 4.139e-10
  5.37093     69.4 1.124e+04 5.374e-10
  5.39966     70.7 1.163e+04 7.684e-10
  5.41929     70.9 1.148e+04 7.264e-10
  5.44944     72.3 1.181e+04 9.476e-10
  5.48870     73.7 1.192e+04 1.015e-09
  5.52795     75.2 1.181e+04 9.245e-10
  5.56721     76.7 1.159e+04 7.425e-10
  5.60647     78.3 1.139e+04 6.013e-10
  5.63581     79.3 1.131e+04 6.041e-10
  5.65257     80.3 1.129e+04 6.048e-10
  5.66239     80.3 1.107e+04 4.900e-10
  5.67497     81.2 1.107e+04 5.007e-10
  5.69460     82.2 1.109e+04 5.224e-10
  5.71125     83.3 1.114e+04 5.567e-10
  5.72106     83.4 1.120e+04 5.967e-10
  5.73386     84.3 1.126e+04 6.321e-10
  5.75348     85.2 1.135e+04 6.849e-10
  5.77311     86.1 1.146e+04 7.547e-10
  5.79274     86.8 1.160e+04 8.304e-10
  5.81237     87.4 1.193e+04 9.357e-10
  5.83200     87.9 1.226e+04 1.079e-09
  5.85162     88.2 1.256e+04 1.246e-09
  5.87125     88.4 1.281e+04 1.411e-09
  5.89088     88.4 1.297e+04 1.551e-09
  5.90567     88.5 1.292e+04 1.630e-09
  5.91549     88.5 1.323e+04 1.949e-09
  5.93014     88.6 1.317e+04 1.948e-09
  5.94977     88.7 1.302e+04 1.900e-09
  5.96939     89.0 1.276e+04 1.759e-09
  5.98902     89.4 1.241e+04 1.546e-09
  6.00865     90.0 1.203e+04 1.303e-09
  6.02665     90.6 1.165e+04 1.080e-09
  6.03647     90.6 1.157e+04 1.039e-09
  6.04791     91.2 1.132e+04 9.011e-10
  6.06754     91.9 1.112e+04 7.906e-10
  6.08716     92.5 1.097e+04 7.141e-10
  6.10679     93.1 1.085e+04 6.712e-10
  6.12642     93.8 1.079e+04 6.659e-10
  6.14605     94.4 1.080e+04 6.836e-10
  6.15878     94.9 1.088e+04 7.401e-10
  6.16859     94.6 1.086e+04 6.757e-10
  6.18530     95.1 1.094e+04 7.316e-10
  6.20493     95.8 1.103e+04 8.058e-10
  6.22456     96.5 1.109e+04 8.768e-10
  6.24419     97.3 1.107e+04 9.127e-10
  6.26382     98.0 1.104e+04 9.116e-10
  6.28345     98.8 1.094e+04 8.837e-10
  6.30307     99.5 1.080e+04 8.221e-10
  6.32270    100.2 1.065e+04 7.467e-10
  6.34206    100.7 1.054e+04 6.851e-10
  6.35187    100.7 1.052e+04 7.054e-10
  6.36196    101.1 1.048e+04 6.797e-10
  6.38159    101.6 1.053e+04 6.843e-10
  6.40121    102.0 1.066e+04 7.266e-10
  6.41188    102.1 1.098e+04 8.401e-10
  6.42169    100.9 1.119e+04 8.520e-10
  6.44047    100.7 1.160e+04 1.057e-09
  6.46010    100.5 1.204e+04 1.355e-09
  6.47973    100.3 1.252e+04 1.756e-09
  6.49936    100.2 1.291e+04 2.212e-09
  6.51898    100.0 1.313e+04 2.493e-09
  6.53861     99.5 1.311e+04 2.480e-09
  6.55824     98.6 1.292e+04 2.341e-09
  6.57787     97.4 1.258e+04 2.056e-09
  6.59750     96.0 1.217e+04 1.744e-09
  6.61712     94.3 1.176e+04 1.471e-09
  6.63675     93.5 1.151e+04 1.342e-09
  6.66629     92.1 1.136e+04 1.278e-09
  6.70565     90.4 1.073e+04 9.298e-10
  6.74490     88.9 9.937e+03 5.987e-10
  6.78416     87.6 9.233e+03 4.046e-10
  6.82342     87.1 9.041e+03 3.615e-10
  6.86267     86.9 9.068e+03 3.691e-10
  6.89865     86.9 9.243e+03 4.234e-10
  6.91828     87.2 9.120e+03 3.888e-10
  6.94119     87.4 9.402e+03 4.610e-10
  6.97307     87.6 9.750e+03 5.476e-10
  6.99269     87.0 9.690e+03 5.224e-10
  7.01970     87.6 9.790e+03 5.309e-10
  7.05895     88.4 9.739e+03 5.018e-10
  7.09821     89.2 9.605e+03 4.443e-10
  7.13747     90.1 9.505e+03 4.013e-10
  7.17672     91.3 9.534e+03 3.906e-10
  7.21598     92.6 9.669e+03 4.040e-10
  7.25524     94.1 1.009e+04 4.545e-10
  7.28458     95.3 1.004e+04 4.585e-10
  7.29809     95.8 1.038e+04 5.284e-10
  7.30790     97.3 9.869e+03 4.292e-10
  7.32374     97.5 1.007e+04 4.842e-10
  7.34337     97.4 1.070e+04 6.140e-10
  7.36300     97.2 1.211e+04 8.423e-10
  7.38262     97.1 1.340e+04 1.208e-09
  7.40225     97.2 1.432e+04 1.698e-09
  7.41447     97.4 1.491e+04 2.262e-09
  7.42429     98.5 1.399e+04 1.420e-09
  7.44151     98.5 1.466e+04 1.873e-09
  7.46114     98.6 1.507e+04 2.368e-09
  7.48077     98.6 1.535e+04 2.898e-09
  7.50039     98.5 1.561e+04 3.474e-09
  7.52002     98.5 1.591e+04 4.097e-09
  7.53965     98.6 1.623e+04 4.757e-09
  7.55928     98.7 1.656e+04 5.377e-09
  7.57891     98.9 1.681e+04 5.796e-09
  7.59854     99.2 1.691e+04 5.949e-09
  7.61350     99.7 1.697e+04 5.873e-09
  7.62331    100.7 1.661e+04 5.104e-09
  7.63779    101.0 1.687e+04 5.355e-09
  7.65742    101.1 1.708e+04 5.407e-09
  7.66758    101.1 1.731e+04 5.367e-09
  7.67739    101.1 1.632e+04 4.278e-09
  7.69668    100.9 1.655e+04 4.247e-09
  7.71630    100.2 1.673e+04 4.168e-09
  7.73593     99.2 1.678e+04 4.105e-09
  7.75556     98.1 1.675e+04 4.340e-09
  7.77519     97.2 1.701e+04 4.926e-09
  7.79482     96.5 1.740e+04 5.499e-09
  7.81445     95.6 1.754e+04 5.705e-09
  7.83407     94.6 1.754e+04 5.539e-09
  7.85370     93.6 1.737e+04 4.934e-09
  7.87333     92.2 1.688e+04 4.226e-09
  7.89296     90.5 1.638e+04 3.618e-09
  7.91086     88.9 1.590e+04 3.198e-09
  7.92068     89.5 1.358e+04 2.253e-09
  7.92890     88.8 1.335e+04 1.915e-09
  7.93872     90.0 1.287e+04 1.817e-09
  7.95184     89.3 1.249e+04 1.429e-09
  7.97147     88.5 1.205e+04 1.113e-09
  7.99110     88.0 1.160e+04 8.900e-10
  8.01073     87.9 1.121e+04 7.664e-10
  8.03036     88.1 1.098e+04 6.943e-10
  8.04998     88.5 1.082e+04 6.432e-10
  8.06961     89.0 1.069e+04 6.025e-10
  8.08924     89.6 1.056e+04 5.669e-10
  8.10887     90.3 1.044e+04 5.339e-10
  8.12850     91.0 1.032e+04 5.045e-10
  8.14813     91.7 1.014e+04 4.474e-10
  8.16397     92.0 1.004e+04 4.194e-10
  8.17378     93.1 1.015e+04 4.584e-10
  8.19729     93.8 9.896e+03 3.946e-10
  8.23469     95.4 9.617e+03 3.394e-10
  8.25432     95.8 9.776e+03 3.558e-10
  8.27590     97.3 9.542e+03 3.150e-10
  8.31516     98.8 9.320e+03 2.813e-10
  8.35442    100.4 9.120e+03 2.460e-10
  8.39367    102.0 8.881e+03 2.039e-10
  8.41726    103.3 8.594e+03 1.569e-10
  8.43689    104.1 8.611e+03 1.596e-10
  8.47219    105.5 8.338e+03 1.180e-10
  8.51144    106.8 8.150e+03 9.034e-11
  8.55070    108.1 8.091e+03 7.552e-11
  8.58996    109.6 8.125e+03 7.237e-11
  8.62921    111.3 8.134e+03 7.258e-11
  8.66847    113.1 8.158e+03 7.358e-11
  8.70772    115.1 8.183e+03 7.662e-11
  8.74698    117.3 8.207e+03 8.361e-11
  8.78624    119.6 8.313e+03 1.082e-10
  8.82549    122.1 8.689e+03 1.550e-10
  8.86475    124.5 9.266e+03 2.277e-10
  8.88513    126.8 9.732e+03 3.167e-10
  8.90459    127.1 1.008e+04 3.643e-10
  8.94310    130.3 1.012e+04 3.878e-10
  8.97261    131.1 1.015e+04 4.497e-10
  8.99214    131.9 1.016e+04 5.015e-10
  9.01177    132.9 1.015e+04 5.714e-10
  9.03139    134.0 1.013e+04 6.128e-10
  9.05102    135.0 1.015e+04 6.202e-10
  9.07065    136.0 1.011e+04 6.115e-10
  9.09028    136.9 1.003e+04 5.880e-10
  9.10991    137.9 9.904e+03 5.516e-10
  9.12954    139.0 9.755e+03 5.089e-10
  9.14916    140.1 9.601e+03 4.673e-10
  9.16656    141.2 9.467e+03 4.333e-10
  9.17638    141.8 9.643e+03 4.662e-10
  9.18842    142.9 9.499e+03 4.333e-10
  9.20034    144.1 9.391e+03 4.145e-10
  9.21015    144.6 9.697e+03 5.022e-10
  9.22768    146.1 9.666e+03 5.003e-10
  9.24730    147.8 9.687e+03 5.048e-10
  9.26693    149.5 9.759e+03 5.216e-10
  9.28656    151.2 9.941e+03 5.604e-10
  9.30619    153.0 1.021e+04 6.248e-10
  9.32582    154.8 1.058e+04 7.113e-10
  9.34545    156.6 1.110e+04 8.197e-10
  9.36507    158.5 1.249e+04 9.203e-10
  9.38470    160.4 1.618e+04 9.719e-10
  9.40433    160.9 2.214e+04 1.043e-09
  9.41967    160.0 3.107e+04 1.382e-09
  9.42948    164.0 1.734e+04 1.274e-09
  9.44359    165.3 2.361e+04 1.256e-09
  9.46322    165.1 3.315e+04 1.298e-09
  9.48284    166.5 3.567e+04 1.598e-09
  9.49752    165.6 4.482e+04 1.833e-09
  9.50728    162.9 4.675e+04 3.744e-09
  9.51564    157.0 3.991e+04 1.883e-08
  9.52055    154.3 3.233e+04 8.584e-08
  9.52691    149.9 2.795e+04 2.040e-07
  9.53425    148.6 2.795e+04 2.126e-07
  9.53913    146.1 2.563e+04 4.010e-07
  9.54403    143.3 2.304e+04 9.561e-07
  9.54852    140.9 2.183e+04 1.555e-06
  9.55098    141.9 2.209e+04 1.390e-06
  9.55385    139.2 2.151e+04 1.841e-06
  9.55876    136.3 2.208e+04 1.594e-06
  9.56366    131.2 2.585e+04 6.500e-07
  9.56857    128.0 2.913e+04 3.121e-07
  9.57596    120.1 3.901e+04 5.643e-08
  9.58579    101.8 4.489e+04 5.358e-09
  9.59561     85.9 1.825e+04 4.722e-09
  9.60542     81.4 1.688e+04 3.503e-09
  9.61524     77.2 1.647e+04 2.279e-09
  9.62505     75.1 1.617e+04 1.759e-09
  9.63982     69.3 1.458e+04 9.403e-10
  9.65950     60.8 1.122e+04 4.588e-10
  9.67277     58.1 9.583e+03 3.016e-10
  9.68258     52.9 1.418e+04 2.994e-10
  9.69875     54.3 1.013e+04 2.825e-10
  9.71838     55.1 9.557e+03 2.664e-10
  9.73801     55.8 9.594e+03 2.797e-10
  9.75764     57.2 9.651e+03 2.967e-10
  9.77727     57.9 9.839e+03 3.297e-10
  9.79689     58.7 1.001e+04 3.762e-10
  9.81652     59.3 1.021e+04 4.269e-10
  9.83115     60.1 1.038e+04 5.065e-10
  9.84096     60.3 1.018e+04 4.635e-10
  9.85578     61.0 1.039e+04 5.370e-10
  9.87541     61.7 1.051e+04 6.060e-10
  9.89504     62.4 1.063e+04 6.532e-10
  9.91466     62.9 1.076e+04 6.762e-10
  9.92587     63.2 1.089e+04 6.909e-10
  9.93568     60.7 1.189e+04 1.038e-09
  9.95392     60.8 1.200e+04 1.074e-09
  9.97355     61.0 1.207e+04 1.127e-09
  9.99318     61.0 1.224e+04 1.222e-09
 10.01280     60.7 1.258e+04 1.406e-09
 10.03243     60.0 1.326e+04 1.801e-09
 10.05206     58.3 1.456e+04 2.735e-09
 10.07169     55.9 1.634e+04 4.909e-09
 10.09132     53.6 1.818e+04 9.999e-09
 10.11095     52.3 1.980e+04 1.804e-08
 10.12562     50.2 2.135e+04 2.721e-08
 10.13538     48.6 2.222e+04 3.476e-08
 10.14520     47.4 2.203e+04 3.358e-08
 10.15136     46.4 2.174e+04 3.025e-08
 10.15627     46.4 2.129e+04 2.549e-08
 10.16911     45.4 2.018e+04 1.682e-08
 10.17897     42.6 2.010e+04 1.611e-08
 10.18946     40.2 1.830e+04 8.842e-09
 10.20909     37.7 1.644e+04 4.453e-09
 10.22872     34.9 1.467e+04 2.049e-09
 10.24834     31.8 1.303e+04 9.218e-10
 10.26797     28.6 1.132e+04 4.749e-10
 10.28760     26.4 1.002e+04 3.706e-10
 10.30723     25.8 9.811e+03 3.693e-10
 10.32686     25.7 9.880e+03 3.884e-10
 10.34648     25.9 1.005e+04 4.288e-10
 10.36611     25.7 1.042e+04 4.931e-10
 10.38574     24.5 1.117e+04 6.490e-10
 10.40537     22.0 1.234e+04 9.681e-10
 10.42226     19.6 1.328e+04 1.696e-09
 10.43207     18.7 1.316e+04 1.848e-09
 10.44463     17.9 1.350e+04 2.686e-09
 10.46196     18.2 1.393e+04 3.434e-09
 10.47177     18.2 1.430e+04 3.963e-09
 10.48388     17.6 1.465e+04 3.798e-09
 10.50351     16.6 1.435e+04 2.715e-09
 10.52314     13.9 1.346e+04 1.628e-09
 10.54277     10.7 1.227e+04 9.916e-10
 10.56239      8.2 1.155e+04 7.661e-10
 10.58202      6.7 1.137e+04 7.067e-10
 10.60165      5.9 1.128e+04 6.888e-10
 10.62128      5.3 1.119e+04 6.873e-10
 10.64091      5.0 1.116e+04 6.957e-10
