# Columns:
#   distance along LOS (in CHIMPs)
#   peculiar velocity  (in km/s)
#   temperature (K)
#   HI number density
# pos=(201.083,24.7486,210.423), angles=(2.83341,1.98758)
  0.00060    159.7 8.524e+03 9.499e-11
  0.01502    161.7 8.594e+03 9.975e-11
  0.04934    162.4 8.705e+03 1.175e-10
  0.08769    162.7 8.926e+03 1.536e-10
  0.10819    162.0 9.166e+03 1.903e-10
  0.12643    162.3 9.517e+03 2.726e-10
  0.14693    164.3 9.607e+03 2.740e-10
  0.17232    164.5 9.992e+03 3.681e-10
  0.21331    164.6 1.025e+04 4.073e-10
  0.25431    164.5 1.027e+04 3.932e-10
  0.27884    164.1 1.014e+04 3.434e-10
  0.29933    165.2 1.047e+04 4.058e-10
  0.33629    164.3 1.041e+04 3.573e-10
  0.37729    162.8 1.035e+04 3.498e-10
  0.41072    161.2 1.036e+04 3.560e-10
  0.43122    159.9 1.022e+04 3.079e-10
  0.45928    157.6 1.025e+04 3.226e-10
  0.48685    156.2 1.020e+04 3.462e-10
  0.49700    156.7 1.016e+04 3.535e-10
  0.51032    155.8 1.014e+04 4.305e-10
  0.53082    154.6 1.053e+04 5.776e-10
  0.55132    153.3 1.101e+04 7.132e-10
  0.56305    151.5 1.142e+04 7.515e-10
  0.57330    151.2 1.190e+04 9.702e-10
  0.58229    150.3 1.203e+04 9.992e-10
  0.59254    150.4 1.188e+04 9.662e-10
  0.61281    148.1 1.250e+04 1.213e-09
  0.62891    145.2 1.334e+04 1.742e-09
  0.63916    144.3 1.364e+04 2.048e-09
  0.65380    141.9 1.424e+04 2.721e-09
  0.67430    139.4 1.451e+04 2.970e-09
  0.69479    137.7 1.433e+04 2.776e-09
  0.71529    136.1 1.380e+04 1.890e-09
  0.73366    132.6 1.270e+04 8.549e-10
  0.75425    133.6 1.306e+04 1.097e-09
  0.78723    130.8 1.143e+04 4.316e-10
  0.82697    129.6 1.005e+04 2.076e-10
  0.84746    130.0 1.028e+04 2.235e-10
  0.86921    130.1 9.886e+03 1.894e-10
  0.91021    130.6 9.872e+03 1.901e-10
  0.95120    131.4 9.975e+03 2.065e-10
  0.97937    131.6 1.032e+04 2.735e-10
  0.99987    132.1 1.047e+04 3.023e-10
  1.03319    132.1 1.078e+04 4.248e-10
  1.05678    132.1 1.079e+04 5.215e-10
  1.07728    132.4 1.086e+04 5.378e-10
  1.11128    132.3 1.082e+04 5.588e-10
  1.13178    132.6 1.079e+04 5.426e-10
  1.15617    132.6 1.060e+04 5.045e-10
  1.19717    132.8 1.027e+04 4.068e-10
  1.23816    133.2 9.914e+03 3.056e-10
  1.26369    133.9 9.607e+03 2.393e-10
  1.28418    134.4 9.624e+03 2.547e-10
  1.32015    135.5 9.522e+03 2.461e-10
  1.35932    136.9 9.514e+03 2.473e-10
  1.37982    136.8 9.649e+03 2.690e-10
  1.39560    138.3 9.659e+03 2.738e-10
  1.41609    139.1 9.862e+03 3.255e-10
  1.44313    140.6 9.955e+03 3.491e-10
  1.48412    141.8 1.010e+04 3.946e-10
  1.52512    142.7 1.037e+04 4.843e-10
  1.54800    143.7 1.071e+04 6.250e-10
  1.56850    144.0 1.095e+04 7.246e-10
  1.60710    144.7 1.122e+04 8.683e-10
  1.63775    144.4 1.143e+04 9.734e-10
  1.65815    143.9 1.157e+04 1.020e-09
  1.67865    143.3 1.162e+04 1.019e-09
  1.68996    142.6 1.166e+04 9.941e-10
  1.69347    142.4 1.167e+04 9.885e-10
  1.70265    141.7 1.214e+04 1.165e-09
  1.71964    139.9 1.243e+04 1.221e-09
  1.74014    137.4 1.284e+04 1.343e-09
  1.75592    134.6 1.315e+04 1.538e-09
  1.76616    134.3 1.305e+04 1.490e-09
  1.78113    131.7 1.308e+04 1.631e-09
  1.80163    129.6 1.286e+04 1.683e-09
  1.82187    128.1 1.263e+04 1.570e-09
  1.83212    127.9 1.240e+04 1.440e-09
  1.84262    126.7 1.201e+04 1.206e-09
  1.85392    125.7 1.163e+04 9.378e-10
  1.86417    124.6 1.160e+04 8.479e-10
  1.88362    123.2 1.119e+04 6.134e-10
  1.89807    121.8 1.088e+04 4.928e-10
  1.90832    121.7 1.086e+04 5.173e-10
  1.92461    120.7 1.074e+04 5.189e-10
  1.94511    120.1 1.072e+04 5.374e-10
  1.96403    119.9 1.076e+04 5.734e-10
  1.97428    119.9 1.092e+04 6.689e-10
  1.98610    119.8 1.101e+04 7.022e-10
  2.00519    119.8 1.105e+04 7.063e-10
  2.01544    119.2 1.119e+04 7.355e-10
  2.02710    119.3 1.110e+04 6.892e-10
  2.04023    119.5 1.100e+04 6.262e-10
  2.05048    119.2 1.126e+04 7.036e-10
  2.06809    119.3 1.110e+04 6.194e-10
  2.08859    119.2 1.106e+04 5.765e-10
  2.10618    119.2 1.102e+04 5.522e-10
  2.11653    118.8 1.110e+04 5.670e-10
  2.14003    119.1 1.105e+04 5.535e-10
  2.18102    119.7 1.105e+04 5.726e-10
  2.22201    120.4 1.118e+04 6.395e-10
  2.24854    121.0 1.142e+04 7.486e-10
  2.26903    120.3 1.155e+04 8.358e-10
  2.30400    120.4 1.184e+04 9.288e-10
  2.32841    120.3 1.187e+04 9.184e-10
  2.34891    119.6 1.170e+04 8.433e-10
  2.38044    119.5 1.162e+04 7.437e-10
  2.40094    117.9 1.135e+04 6.161e-10
  2.42698    118.0 1.094e+04 3.918e-10
  2.46798    118.0 1.056e+04 2.386e-10
  2.50897    118.1 1.037e+04 1.692e-10
  2.53285    118.3 1.021e+04 1.547e-10
  2.55335    116.6 9.695e+03 1.005e-10
  2.59096    116.7 9.733e+03 1.172e-10
  2.63095    116.7 9.853e+03 1.364e-10
  2.65145    116.6 9.772e+03 1.229e-10
  2.66476    116.8 9.895e+03 1.383e-10
  2.68525    116.3 9.881e+03 1.382e-10
  2.71394    116.5 9.997e+03 1.522e-10
  2.75493    116.6 1.009e+04 1.651e-10
  2.79593    116.7 1.023e+04 1.880e-10
  2.81716    116.7 1.053e+04 2.377e-10
  2.83766    115.5 1.070e+04 3.034e-10
  2.87792    115.1 1.101e+04 3.953e-10
  2.91891    114.7 1.122e+04 4.930e-10
  2.94907    114.0 1.140e+04 5.737e-10
  2.96365    112.1 1.121e+04 5.246e-10
  2.97448    112.5 1.118e+04 5.282e-10
  3.00090    111.7 1.115e+04 5.247e-10
  3.04189    111.1 1.112e+04 5.397e-10
  3.08098    110.5 1.103e+04 5.576e-10
  3.10148    108.7 1.088e+04 4.864e-10
  3.12388    108.3 1.076e+04 4.752e-10
  3.16487    108.2 1.053e+04 4.275e-10
  3.20587    107.1 1.031e+04 3.675e-10
  3.23339    105.8 1.021e+04 3.371e-10
  3.24354    104.6 1.044e+04 3.940e-10
  3.25691    104.0 1.047e+04 4.097e-10
  3.27682    103.1 1.055e+04 4.637e-10
  3.28706    103.0 1.080e+04 6.100e-10
  3.29791    102.3 1.088e+04 6.753e-10
  3.30939    101.6 1.099e+04 7.509e-10
  3.31964    100.9 1.110e+04 7.964e-10
  3.33890    100.2 1.120e+04 8.142e-10
  3.35940     99.4 1.136e+04 8.512e-10
  3.37535     98.3 1.156e+04 8.891e-10
  3.38560     96.8 1.160e+04 7.914e-10
  3.40039     94.7 1.202e+04 8.564e-10
  3.42089     92.4 1.231e+04 1.029e-09
  3.43833     90.6 1.236e+04 1.231e-09
  3.44849     90.6 1.215e+04 1.162e-09
  3.46180     88.3 1.191e+04 1.101e-09
  3.48238     87.5 1.169e+04 9.133e-10
  3.50288     86.7 1.138e+04 6.610e-10
  3.51750     85.4 1.106e+04 4.128e-10
  3.52775     83.6 1.086e+04 2.894e-10
  3.54387     82.1 1.046e+04 2.030e-10
  3.56437     79.8 9.897e+03 1.413e-10
  3.58346     78.6 9.497e+03 1.290e-10
  3.59371     78.3 9.495e+03 1.292e-10
  3.59985     77.5 9.397e+03 1.263e-10
  3.62044     78.2 9.342e+03 1.193e-10
  3.64645     77.6 9.358e+03 1.272e-10
  3.65966     76.4 1.003e+04 1.595e-10
  3.66991     77.1 9.642e+03 1.482e-10
  3.68735     74.6 1.090e+04 2.559e-10
  3.70785     70.7 1.281e+04 7.970e-10
  3.72561     68.5 1.402e+04 2.167e-09
  3.73586     68.7 1.371e+04 1.795e-09
  3.74884     68.2 1.476e+04 3.689e-09
  3.76136     68.0 1.566e+04 4.627e-09
  3.77161     69.0 1.506e+04 4.144e-09
  3.78983     68.4 1.553e+04 4.153e-09
  3.80182     67.3 1.546e+04 3.456e-09
  3.81207     67.9 1.546e+04 3.694e-09
  3.83083     66.0 1.496e+04 2.465e-09
  3.85133     63.4 1.342e+04 1.517e-09
  3.86777     61.5 1.179e+04 1.050e-09
  3.87802     61.3 1.242e+04 1.293e-09
  3.89232     60.8 1.160e+04 1.096e-09
  3.91263     60.8 1.136e+04 9.663e-10
  3.92288     61.4 1.147e+04 1.024e-09
  3.93382     61.9 1.138e+04 8.490e-10
  3.95432     61.0 1.182e+04 1.061e-09
  3.98465     61.2 1.192e+04 1.104e-09
  4.02575     61.7 1.156e+04 9.371e-10
  4.06583     62.7 1.123e+04 8.042e-10
  4.08633     60.2 1.188e+04 1.004e-09
  4.10773     61.1 1.136e+04 7.316e-10
  4.14873     61.5 1.083e+04 5.758e-10
  4.18972     61.6 1.068e+04 5.396e-10
  4.21823     61.5 1.075e+04 5.538e-10
  4.23363     58.4 1.055e+04 4.366e-10
  4.24611     59.4 1.063e+04 4.492e-10
  4.27171     59.3 1.068e+04 4.665e-10
  4.31270     59.1 1.068e+04 4.481e-10
  4.35014     58.6 1.052e+04 3.612e-10
  4.37064     56.7 1.012e+04 1.999e-10
  4.39469     55.7 1.003e+04 1.543e-10
  4.43568     54.1 1.019e+04 1.607e-10
  4.46633     53.2 1.046e+04 1.824e-10
  4.48673     51.9 1.090e+04 2.418e-10
  4.50235     50.7 1.118e+04 3.500e-10
  4.51260     50.2 1.136e+04 3.586e-10
  4.52773     48.9 1.174e+04 5.149e-10
  4.54822     45.9 1.410e+04 9.002e-10
  4.55869     34.9 2.225e+04 3.413e-09
  4.56853     39.5 1.879e+04 2.451e-09
  4.57856     43.5 1.485e+04 1.635e-09
  4.58922     33.0 2.138e+04 5.189e-09
  4.60454     25.5 2.243e+04 1.449e-08
  4.61143     22.6 2.232e+04 2.464e-08
  4.61656     23.4 2.201e+04 1.786e-08
  4.62499     21.1 2.208e+04 3.026e-08
  4.63423     18.6 2.357e+04 4.497e-08
  4.63935     19.2 2.317e+04 4.562e-08
  4.64441     16.8 2.463e+04 6.933e-08
  4.64954     17.9 2.407e+04 5.137e-08
  4.65573     15.2 2.524e+04 7.586e-08
  4.66598     12.4 2.561e+04 8.762e-08
  4.67623      9.5 2.508e+04 8.373e-08
  4.68251      6.8 2.335e+04 5.211e-08
  4.68764      7.3 2.439e+04 7.424e-08
  4.69673      4.3 2.249e+04 4.675e-08
  4.70698      2.9 2.120e+04 3.167e-08
  4.71499      2.5 2.047e+04 2.226e-08
  4.71838      3.2 2.279e+04 2.869e-08
  4.72061      2.3 2.320e+04 5.258e-08
  4.72747      2.1 2.267e+04 3.109e-08
  4.73772      2.1 2.213e+04 1.808e-08
  4.74797     -0.4 2.098e+04 9.353e-09
  4.75359     -0.5 2.056e+04 8.767e-09
  4.75872      0.3 2.076e+04 1.100e-08
  4.77364     -3.0 1.855e+04 5.204e-09
  4.78667     -4.3 1.515e+04 2.237e-09
  4.79691     -2.5 1.675e+04 3.858e-09
  4.81468     -3.8 1.470e+04 2.398e-09
  4.83518     -3.5 1.436e+04 2.129e-09
  4.85262     -2.7 1.428e+04 2.101e-09
  4.86287     -1.6 1.490e+04 2.629e-09
  4.87148     -1.1 1.493e+04 2.575e-09
  4.88173     -0.7 1.507e+04 2.846e-09
  4.89667     -0.4 1.541e+04 2.885e-09
  4.91717     -0.2 1.545e+04 3.221e-09
  4.92882      0.2 1.524e+04 3.651e-09
  4.93907      0.8 1.617e+04 4.443e-09
  4.95816      1.2 1.612e+04 5.345e-09
  4.97866      2.1 1.603e+04 6.023e-09
  4.99478      3.1 1.600e+04 5.895e-09
  5.00503      3.8 1.689e+04 8.923e-09
  5.01965      4.9 1.698e+04 8.978e-09
  5.03299      5.7 1.703e+04 7.380e-09
  5.04324      5.8 1.770e+04 1.047e-08
  5.06065      5.7 1.793e+04 8.382e-09
  5.08114      4.7 1.924e+04 1.293e-08
  5.10164      3.8 1.935e+04 1.162e-08
  5.11370      3.4 1.910e+04 9.680e-09
  5.11878      3.3 1.951e+04 1.271e-08
  5.12716      3.3 1.929e+04 1.153e-08
  5.13684      3.0 1.861e+04 9.437e-09
  5.14196      3.6 1.954e+04 1.595e-08
  5.14766      3.7 1.894e+04 1.288e-08
  5.15791      3.7 1.821e+04 1.035e-08
  5.16816      3.7 1.748e+04 8.499e-09
  5.17494      3.8 1.690e+04 7.307e-09
  5.18006      4.2 1.784e+04 1.019e-08
  5.18865      4.2 1.736e+04 8.328e-09
  5.19441      3.8 1.665e+04 6.894e-09
  5.19953      3.3 1.647e+04 6.106e-09
  5.20791      3.1 1.623e+04 5.732e-09
  5.21309      3.1 1.657e+04 5.816e-09
  5.22462      2.0 1.608e+04 5.069e-09
  5.24512      0.4 1.627e+04 5.039e-09
  5.26562     -2.2 1.724e+04 6.639e-09
  5.27909     -4.1 1.831e+04 9.580e-09
  5.28934     -4.4 1.717e+04 6.651e-09
  5.30661     -5.8 1.791e+04 8.815e-09
  5.32711     -7.3 1.817e+04 9.845e-09
  5.34505     -8.9 1.771e+04 8.956e-09
  5.35347     -8.9 1.671e+04 7.465e-09
  5.35602     -9.2 1.588e+04 6.027e-09
  5.36810    -10.3 1.516e+04 4.269e-09
  5.38860    -12.0 1.406e+04 2.382e-09
  5.40909    -14.2 1.272e+04 1.292e-09
  5.42125    -16.0 1.170e+04 8.195e-10
  5.43150    -15.0 1.180e+04 8.491e-10
  5.45009    -16.2 1.117e+04 6.241e-10
  5.47059    -16.6 1.083e+04 5.084e-10
  5.48720    -16.9 1.056e+04 4.270e-10
  5.49745    -16.3 1.070e+04 4.689e-10
  5.50729    -16.7 1.047e+04 4.110e-10
  5.51754    -17.0 1.032e+04 3.610e-10
  5.53208    -17.3 1.018e+04 3.227e-10
  5.55257    -17.4 1.016e+04 3.166e-10
  5.58342    -17.2 1.021e+04 3.199e-10
  5.61931    -17.4 1.028e+04 3.220e-10
  5.63970    -17.6 1.037e+04 3.753e-10
  5.65506    -18.0 1.046e+04 3.829e-10
  5.66881    -18.3 1.054e+04 3.908e-10
  5.67906    -17.9 1.046e+04 3.436e-10
  5.69531    -18.5 1.060e+04 3.546e-10
  5.70556    -18.9 1.065e+04 3.898e-10
  5.71655    -19.3 1.070e+04 3.970e-10
  5.73705    -19.9 1.081e+04 4.076e-10
  5.75754    -20.2 1.089e+04 4.073e-10
  5.77152    -20.7 1.102e+04 4.034e-10
  5.78176    -21.5 1.102e+04 3.966e-10
  5.79854    -21.9 1.103e+04 3.836e-10
  5.82017    -22.9 1.095e+04 3.650e-10
  5.84077    -22.1 1.071e+04 3.160e-10
  5.87047    -22.6 1.039e+04 2.882e-10
  5.90362    -22.8 1.024e+04 2.817e-10
  5.92412    -23.7 9.824e+03 2.173e-10
  5.95246    -23.5 9.758e+03 2.272e-10
  5.99345    -23.2 9.676e+03 2.391e-10
  6.03445    -22.6 9.513e+03 2.446e-10
  6.05602    -21.8 9.253e+03 2.237e-10
  6.07652    -22.3 9.223e+03 2.247e-10
  6.11643    -21.1 9.053e+03 1.831e-10
  6.14330    -19.8 8.831e+03 1.349e-10
  6.16380    -19.1 8.845e+03 1.364e-10
  6.18793    -18.0 8.693e+03 1.039e-10
  6.20843    -17.9 8.704e+03 1.158e-10
  6.23942    -16.7 8.608e+03 9.453e-11
  6.28041    -15.4 8.531e+03 8.401e-11
  6.31984    -14.0 8.482e+03 7.813e-11
  6.34034    -13.8 8.490e+03 8.051e-11
  6.36240    -12.3 8.451e+03 7.399e-11
  6.40339    -10.8 8.443e+03 7.034e-11
  6.44439     -9.2 8.443e+03 6.969e-11
  6.46633     -7.7 8.395e+03 7.451e-11
  6.47370     -7.0 8.569e+03 7.548e-11
  6.49274     -6.6 8.540e+03 7.976e-11
  6.52637     -4.9 8.591e+03 8.398e-11
  6.56737     -3.2 8.620e+03 9.046e-11
  6.60415     -1.5 8.715e+03 9.609e-11
  6.62465     -0.8 8.703e+03 9.575e-11
  6.64936      0.7 8.843e+03 1.053e-10
  6.69035      2.1 8.995e+03 1.308e-10
  6.73134      3.6 9.158e+03 1.743e-10
  6.75656      5.5 9.339e+03 2.152e-10
  6.77359      5.9 9.507e+03 2.382e-10
  6.78936      6.3 9.553e+03 2.484e-10
  6.81333      8.1 9.706e+03 2.836e-10
  6.85432      9.6 9.691e+03 2.831e-10
  6.88847     11.2 9.399e+03 2.273e-10
  6.90897     11.3 9.501e+03 2.274e-10
  6.93631     12.7 9.209e+03 1.749e-10
  6.97731     14.1 8.984e+03 1.441e-10
  7.01830     15.7 8.916e+03 1.311e-10
  7.04087     17.2 8.911e+03 1.284e-10
  7.06137     17.2 8.930e+03 1.239e-10
  7.09190     18.3 9.061e+03 1.298e-10
  7.11240     18.4 8.961e+03 1.150e-10
  7.14128     18.9 9.173e+03 1.577e-10
  7.17278     19.7 9.402e+03 2.367e-10
  7.19328     18.9 9.559e+03 2.718e-10
  7.22327     20.7 9.993e+03 3.724e-10
  7.26426     21.9 1.020e+04 3.903e-10
  7.30469     22.2 1.034e+04 3.718e-10
  7.32519     21.3 1.037e+04 3.464e-10
  7.34625     21.1 1.018e+04 2.897e-10
  7.38725     21.0 1.024e+04 2.941e-10
  7.41493     20.8 1.046e+04 3.624e-10
  7.43543     20.9 1.033e+04 3.388e-10
  7.45710     21.0 1.054e+04 4.398e-10
  7.47759     19.7 9.980e+03 2.965e-10
  7.51023     20.1 1.009e+04 3.447e-10
  7.55122     20.1 1.013e+04 3.552e-10
  7.58900     19.6 1.013e+04 3.414e-10
  7.60950     18.1 9.517e+03 2.598e-10
  7.63321     16.8 9.714e+03 2.960e-10
  7.66386     15.7 9.945e+03 3.312e-10
  7.67526     14.0 1.011e+04 4.142e-10
  7.68551     13.3 1.012e+04 4.168e-10
  7.70475     11.9 1.055e+04 5.460e-10
  7.72525      9.3 1.150e+04 7.648e-10
  7.73777      5.5 1.277e+04 1.203e-09
  7.74348      5.4 1.273e+04 1.208e-09
  7.75146      3.4 1.295e+04 1.491e-09
  7.76624      0.5 1.355e+04 2.129e-09
  7.78674     -1.9 1.410e+04 2.618e-09
  7.80717     -4.3 1.449e+04 2.793e-09
  7.82767     -9.0 1.391e+04 1.830e-09
  7.84823    -13.3 1.280e+04 1.245e-09
  7.86873    -16.8 1.171e+04 8.619e-10
  7.88337    -19.0 1.124e+04 6.213e-10
  7.89343    -19.9 1.094e+04 4.748e-10
  7.89928    -19.6 1.091e+04 4.583e-10
  7.92007    -22.0 1.034e+04 3.189e-10
  7.96116    -24.8 9.733e+03 2.429e-10
  8.00215    -27.2 9.577e+03 2.203e-10
  8.02572    -28.7 9.527e+03 2.116e-10
  8.04357    -29.9 9.613e+03 2.289e-10
  8.06099    -30.0 9.576e+03 2.240e-10
  8.08414    -32.0 9.822e+03 2.418e-10
  8.12514    -34.2 1.013e+04 2.552e-10
  8.15763    -36.6 1.053e+04 2.733e-10
  8.17813    -38.8 1.107e+04 3.484e-10
  8.19678    -39.6 1.118e+04 3.738e-10
  8.21207    -40.3 1.135e+04 4.290e-10
  8.22231    -40.6 1.137e+04 4.364e-10
  8.23364    -42.0 1.151e+04 5.679e-10
  8.24389    -43.5 1.157e+04 6.621e-10
  8.25817    -44.0 1.153e+04 6.493e-10
  8.27867    -44.4 1.149e+04 6.345e-10
  8.29916    -44.8 1.143e+04 5.836e-10
  8.30984    -45.5 1.133e+04 5.196e-10
  8.32009    -47.4 1.119e+04 4.081e-10
  8.34016    -48.5 1.118e+04 3.852e-10
  8.36066    -49.7 1.124e+04 3.872e-10
  8.37358    -51.4 1.154e+04 4.581e-10
  8.37847    -52.2 1.166e+04 5.253e-10
  8.38604    -54.0 1.152e+04 5.526e-10
  8.40165    -55.3 1.189e+04 7.526e-10
  8.42215    -56.8 1.260e+04 1.149e-09
  8.44175    -58.6 1.355e+04 1.799e-09
  8.45200    -59.7 1.360e+04 1.847e-09
  8.46314    -61.8 1.464e+04 2.874e-09
  8.48364    -63.8 1.545e+04 4.208e-09
  8.50413    -65.6 1.592e+04 5.436e-09
  8.51795    -67.3 1.599e+04 5.947e-09
  8.52820    -68.2 1.601e+04 6.044e-09
  8.53510    -69.7 1.590e+04 6.064e-09
  8.54535    -70.8 1.560e+04 5.631e-09
  8.56562    -71.7 1.479e+04 4.190e-09
  8.58391    -73.0 1.383e+04 2.783e-09
  8.59415    -74.0 1.379e+04 2.633e-09
  8.60662    -75.7 1.272e+04 1.683e-09
  8.62712    -77.2 1.173e+04 1.109e-09
  8.64761    -78.2 1.095e+04 7.682e-10
  8.66011    -78.9 1.041e+04 5.584e-10
  8.67036    -79.4 1.028e+04 5.341e-10
  8.68636    -79.9 9.928e+03 4.130e-10
  8.69661    -80.7 9.934e+03 4.165e-10
  8.70910    -81.2 9.747e+03 3.578e-10
  8.72616    -81.4 9.623e+03 3.180e-10
  8.74676    -81.9 9.649e+03 3.320e-10
  8.78104    -82.1 9.443e+03 2.895e-10
  8.82203    -82.4 9.250e+03 2.595e-10
  8.85817    -82.7 9.131e+03 2.420e-10
  8.87866    -82.8 9.460e+03 3.440e-10
  8.90402    -83.1 9.484e+03 3.524e-10
  8.94501    -84.0 9.654e+03 3.742e-10
  8.97566    -85.8 1.014e+04 4.990e-10
  8.99606    -86.9 1.048e+04 5.993e-10
  9.00940    -88.1 1.082e+04 7.294e-10
  9.01346    -88.8 1.089e+04 7.769e-10
  9.02063    -89.0 1.109e+04 9.337e-10
  9.03705    -90.1 1.136e+04 1.056e-09
  9.05755    -91.5 1.157e+04 1.147e-09
  9.07633    -93.0 1.173e+04 1.207e-09
  9.08658    -92.8 1.170e+04 1.255e-09
  9.09855    -94.0 1.179e+04 1.265e-09
  9.11904    -95.7 1.192e+04 1.288e-09
  9.13954    -97.6 1.209e+04 1.340e-09
  9.15253    -99.8 1.236e+04 1.453e-09
  9.16278   -100.5 1.253e+04 1.509e-09
  9.17091   -103.0 1.300e+04 1.870e-09
  9.18116   -104.0 1.299e+04 1.863e-09
  9.20103   -106.0 1.345e+04 2.293e-09
  9.21849   -107.8 1.387e+04 2.636e-09
  9.22874   -109.1 1.494e+04 4.176e-09
  9.24202   -111.3 1.550e+04 4.879e-09
  9.26252   -113.8 1.598e+04 5.364e-09
  9.28302   -116.6 1.639e+04 5.815e-09
  9.29469   -119.5 1.680e+04 6.373e-09
  9.30494   -121.2 1.795e+04 1.044e-08
  9.32218   -123.7 1.811e+04 1.054e-08
  9.33243   -125.1 1.862e+04 1.282e-08
  9.34451   -127.3 1.850e+04 1.217e-08
  9.36064   -129.2 1.815e+04 1.056e-08
  9.37089   -130.7 1.733e+04 8.259e-09
  9.38550   -132.6 1.659e+04 5.941e-09
  9.40600   -134.9 1.589e+04 4.259e-09
  9.42650   -137.3 1.541e+04 3.183e-09
  9.43685   -139.8 1.513e+04 2.513e-09
  9.44710   -142.2 1.311e+04 1.255e-09
  9.46749   -144.4 1.268e+04 1.077e-09
  9.48369   -146.3 1.251e+04 1.021e-09
  9.49394   -146.0 1.230e+04 9.479e-10
  9.50280   -147.7 1.229e+04 9.275e-10
  9.51305   -147.9 1.174e+04 8.545e-10
  9.52898   -149.1 1.177e+04 8.419e-10
  9.54948   -150.4 1.181e+04 8.404e-10
  9.56876   -151.6 1.207e+04 9.100e-10
  9.57900   -150.8 1.199e+04 8.400e-10
  9.59047   -151.9 1.234e+04 1.035e-09
  9.61097   -152.5 1.270e+04 1.352e-09
  9.63147   -152.8 1.304e+04 1.707e-09
  9.64496   -153.0 1.336e+04 2.004e-09
  9.64845   -153.5 1.396e+04 2.462e-09
  9.65546   -152.3 1.347e+04 1.951e-09
  9.67246   -152.8 1.407e+04 2.503e-09
  9.69296   -153.5 1.469e+04 3.087e-09
  9.71091   -154.6 1.522e+04 3.693e-09
  9.72116   -155.6 1.627e+04 6.082e-09
  9.73395   -156.3 1.659e+04 7.449e-09
  9.75445   -156.8 1.670e+04 8.383e-09
  9.77495   -157.2 1.674e+04 8.680e-09
  9.78711   -157.6 1.645e+04 8.022e-09
  9.79736   -157.2 1.646e+04 7.576e-09
  9.80673   -157.5 1.581e+04 5.773e-09
  9.81697   -156.7 1.645e+04 7.568e-09
  9.83644   -157.1 1.563e+04 5.402e-09
  9.85307   -157.5 1.480e+04 3.628e-09
  9.86332   -158.0 1.458e+04 2.019e-09
  9.87743   -159.0 1.379e+04 1.288e-09
