# Columns:
#   distance along LOS (in CHIMPs)
#   peculiar velocity  (in km/s)
#   temperature (K)
#   HI number density
# pos=(240.571,237.8,120.126), angles=(1.77764,3.19558)
  0.00065   -240.3 1.245e+04 1.328e-09
  0.00645   -240.9 1.253e+04 1.535e-09
  0.02160   -240.0 1.268e+04 1.590e-09
  0.04158   -239.2 1.273e+04 1.598e-09
  0.06157   -238.6 1.272e+04 1.480e-09
  0.08155   -238.1 1.265e+04 1.319e-09
  0.09407   -237.7 1.253e+04 1.174e-09
  0.10407   -237.4 1.291e+04 1.752e-09
  0.12152   -236.8 1.285e+04 1.589e-09
  0.14026   -236.3 1.283e+04 1.488e-09
  0.15026   -235.8 1.238e+04 1.145e-09
  0.16150   -235.3 1.237e+04 1.040e-09
  0.18148   -235.1 1.241e+04 9.820e-10
  0.20147   -235.2 1.260e+04 1.116e-09
  0.23154   -235.6 1.265e+04 1.072e-09
  0.26922   -236.3 1.309e+04 1.377e-09
  0.28910   -236.1 1.360e+04 1.832e-09
  0.30140   -236.7 1.416e+04 2.266e-09
  0.32138   -238.0 1.479e+04 2.871e-09
  0.34137   -239.8 1.529e+04 3.473e-09
  0.36135   -242.1 1.551e+04 3.819e-09
  0.37653   -244.6 1.554e+04 3.889e-09
  0.38652   -245.4 1.662e+04 5.697e-09
  0.40133   -247.6 1.628e+04 5.365e-09
  0.42131   -249.6 1.552e+04 4.261e-09
  0.44130   -251.3 1.460e+04 3.222e-09
  0.46128   -252.7 1.377e+04 2.467e-09
  0.47404   -253.5 1.316e+04 1.945e-09
  0.48404   -253.5 1.321e+04 1.850e-09
  0.50125   -253.8 1.261e+04 1.385e-09
  0.51506   -253.9 1.214e+04 1.115e-09
  0.52505   -254.1 1.169e+04 8.476e-10
  0.54123   -253.7 1.155e+04 7.381e-10
  0.56121   -253.1 1.155e+04 6.956e-10
  0.57156   -252.5 1.156e+04 6.897e-10
  0.58155   -252.3 1.134e+04 6.094e-10
  0.60118   -251.6 1.145e+04 6.125e-10
  0.62117   -251.1 1.177e+04 6.628e-10
  0.64115   -250.6 1.205e+04 7.673e-10
  0.65908   -250.1 1.228e+04 8.998e-10
  0.66907   -249.7 1.230e+04 8.188e-10
  0.68113   -249.3 1.254e+04 9.560e-10
  0.70111   -249.0 1.265e+04 1.094e-09
  0.72110   -248.7 1.264e+04 1.206e-09
  0.74108   -248.5 1.262e+04 1.279e-09
  0.75660   -248.3 1.262e+04 1.343e-09
  0.76659   -248.5 1.311e+04 1.529e-09
  0.78106   -248.3 1.321e+04 1.705e-09
  0.80104   -248.0 1.333e+04 1.868e-09
  0.82103   -247.6 1.341e+04 1.963e-09
  0.84101   -247.2 1.343e+04 1.983e-09
  0.85411   -246.8 1.341e+04 1.976e-09
  0.86410   -246.8 1.404e+04 2.603e-09
  0.87987   -246.3 1.392e+04 2.448e-09
  0.88986   -246.0 1.381e+04 2.913e-09
  0.90097   -245.4 1.379e+04 2.910e-09
  0.92096   -244.8 1.370e+04 2.813e-09
  0.94094   -244.2 1.359e+04 2.647e-09
  0.95163   -243.7 1.348e+04 2.468e-09
  0.96162   -244.0 1.432e+04 3.228e-09
  0.98091   -243.6 1.427e+04 3.052e-09
  1.00090   -243.2 1.419e+04 2.852e-09
  1.02088   -242.8 1.406e+04 2.607e-09
  1.03915   -242.4 1.387e+04 2.301e-09
  1.04914   -243.1 1.472e+04 3.140e-09
  1.06086   -242.6 1.433e+04 2.690e-09
  1.08084   -241.8 1.390e+04 2.254e-09
  1.10083   -241.0 1.348e+04 1.897e-09
  1.12081   -240.0 1.317e+04 1.679e-09
  1.13666   -239.1 1.296e+04 1.581e-09
  1.14666   -239.6 1.319e+04 1.683e-09
  1.16078   -238.3 1.300e+04 1.597e-09
  1.19086   -237.0 1.288e+04 1.569e-09
  1.22438   -234.4 1.279e+04 1.553e-09
  1.24437   -235.0 1.294e+04 1.581e-09
  1.27090   -232.4 1.284e+04 1.607e-09
  1.31087   -230.1 1.292e+04 1.741e-09
  1.35084   -227.8 1.298e+04 1.876e-09
  1.39082   -225.7 1.304e+04 1.963e-09
  1.41941   -223.8 1.303e+04 1.992e-09
  1.43940   -223.5 1.260e+04 1.461e-09
  1.47076   -221.3 1.257e+04 1.525e-09
  1.51073   -219.0 1.243e+04 1.551e-09
  1.55070   -216.5 1.235e+04 1.441e-09
  1.59067   -214.0 1.228e+04 1.315e-09
  1.61444   -211.7 1.230e+04 1.262e-09
  1.62345   -210.8 1.233e+04 1.296e-09
  1.63965   -210.9 1.234e+04 1.248e-09
  1.67062   -208.8 1.250e+04 1.303e-09
  1.71059   -206.9 1.262e+04 1.346e-09
  1.75056   -205.1 1.271e+04 1.363e-09
  1.78948   -203.5 1.278e+04 1.365e-09
  1.80947   -202.9 1.289e+04 1.422e-09
  1.83050   -201.3 1.295e+04 1.423e-09
  1.87047   -200.0 1.296e+04 1.425e-09
  1.91045   -198.8 1.297e+04 1.421e-09
  1.95042   -197.8 1.298e+04 1.404e-09
  1.98452   -196.7 1.301e+04 1.374e-09
  2.00450   -195.9 1.291e+04 1.262e-09
  2.03036   -194.8 1.296e+04 1.276e-09
  2.07033   -193.7 1.304e+04 1.303e-09
  2.09193   -193.4 1.311e+04 1.345e-09
  2.10182   -192.6 1.314e+04 1.354e-09
  2.12010   -192.4 1.306e+04 1.335e-09
  2.14009   -192.0 1.291e+04 1.289e-09
  2.16007   -191.5 1.273e+04 1.203e-09
  2.17935   -191.0 1.253e+04 1.085e-09
  2.18934   -190.4 1.270e+04 1.188e-09
  2.20004   -189.8 1.248e+04 1.055e-09
  2.22003   -189.1 1.227e+04 9.132e-10
  2.24002   -188.4 1.208e+04 7.819e-10
  2.26000   -187.7 1.192e+04 6.721e-10
  2.27686   -186.9 1.182e+04 5.859e-10
  2.28686   -186.3 1.193e+04 6.432e-10
  2.29997   -185.5 1.184e+04 5.684e-10
  2.31996   -184.7 1.179e+04 5.136e-10
  2.33994   -184.0 1.178e+04 4.727e-10
  2.35907   -183.3 1.174e+04 4.430e-10
  2.36916   -184.1 1.148e+04 4.217e-10
  2.37458   -182.3 1.140e+04 4.019e-10
  2.39456   -181.2 1.162e+04 4.379e-10
  2.43008   -179.3 1.158e+04 4.318e-10
  2.47005   -177.4 1.157e+04 4.314e-10
  2.51002   -175.6 1.160e+04 4.271e-10
  2.54962   -173.9 1.161e+04 4.093e-10
  2.56961   -173.0 1.204e+04 5.240e-10
  2.58996   -171.3 1.208e+04 5.323e-10
  2.62993   -169.5 1.201e+04 5.243e-10
  2.66991   -167.6 1.192e+04 5.103e-10
  2.70988   -165.7 1.186e+04 5.004e-10
  2.74465   -163.8 1.185e+04 5.009e-10
  2.76464   -163.1 1.256e+04 8.019e-10
  2.78982   -161.6 1.268e+04 8.962e-10
  2.82979   -160.1 1.275e+04 9.840e-10
  2.86976   -158.8 1.274e+04 1.036e-09
  2.90973   -157.5 1.270e+04 1.049e-09
  2.93968   -156.3 1.259e+04 1.028e-09
  2.95967   -156.2 1.303e+04 1.387e-09
  2.98968   -155.0 1.279e+04 1.181e-09
  3.02965   -153.8 1.251e+04 9.314e-10
  3.06962   -152.5 1.219e+04 6.943e-10
  3.09887   -151.2 1.189e+04 5.080e-10
  3.11886   -150.9 1.196e+04 5.999e-10
  3.13471   -149.7 1.172e+04 4.577e-10
  3.15470   -149.7 1.181e+04 4.678e-10
  3.18954   -148.4 1.163e+04 3.806e-10
  3.22951   -147.1 1.159e+04 3.452e-10
  3.26948   -145.8 1.157e+04 3.303e-10
  3.30945   -144.4 1.156e+04 3.225e-10
  3.32974   -143.1 1.156e+04 3.171e-10
  3.34973   -143.1 1.156e+04 3.118e-10
  3.38939   -141.7 1.156e+04 3.115e-10
  3.42936   -140.3 1.156e+04 3.125e-10
  3.46934   -138.9 1.160e+04 3.216e-10
  3.50478   -137.6 1.164e+04 3.437e-10
  3.52477   -137.7 1.160e+04 3.409e-10
  3.54928   -136.5 1.165e+04 3.735e-10
  3.58925   -135.2 1.167e+04 3.960e-10
  3.62922   -133.9 1.166e+04 4.004e-10
  3.66919   -132.5 1.156e+04 3.934e-10
  3.69981   -130.9 1.141e+04 3.397e-10
  3.71980   -130.9 1.140e+04 3.445e-10
  3.74914   -129.1 1.124e+04 2.685e-10
  3.78911   -127.4 1.110e+04 1.990e-10
  3.82848   -125.7 1.097e+04 1.556e-10
  3.84847   -125.9 1.107e+04 1.773e-10
  3.86905   -124.2 1.103e+04 1.717e-10
  3.89484   -122.4 1.099e+04 1.743e-10
  3.91483   -122.4 1.094e+04 1.535e-10
  3.94899   -120.7 1.085e+04 1.720e-10
  3.98897   -118.9 1.074e+04 1.941e-10
  4.02894   -117.1 1.068e+04 2.012e-10
  4.06891   -115.2 1.058e+04 2.002e-10
  4.08987   -113.1 1.031e+04 1.732e-10
  4.10986   -113.2 1.025e+04 1.557e-10
  4.14885   -111.0 1.014e+04 1.276e-10
  4.18882   -108.8 1.009e+04 1.046e-10
  4.22879   -106.7 1.003e+04 8.878e-11
  4.26492   -104.4 9.978e+03 7.887e-11
  4.28490   -104.5 9.940e+03 7.714e-11
  4.30874   -102.2 9.888e+03 7.100e-11
  4.34871   -100.0 9.834e+03 6.696e-11
  4.38868    -97.7 9.787e+03 6.465e-11
  4.42865    -95.5 9.772e+03 6.390e-11
  4.45995    -93.4 9.777e+03 6.401e-11
  4.47994    -93.5 9.758e+03 6.284e-11
  4.50860    -91.6 9.735e+03 6.943e-11
  4.54857    -89.6 9.679e+03 8.024e-11
  4.57808    -87.6 9.625e+03 8.926e-11
  4.59806    -87.2 9.614e+03 9.530e-11
  4.62851    -85.1 9.594e+03 9.730e-11
  4.65498    -83.0 9.515e+03 9.680e-11
  4.67497    -83.1 9.442e+03 9.092e-11
  4.70845    -80.8 9.350e+03 7.834e-11
  4.74842    -78.6 9.316e+03 6.455e-11
  4.78840    -76.5 9.290e+03 5.416e-11
  4.82837    -74.5 9.238e+03 4.816e-11
  4.85001    -72.6 9.175e+03 4.557e-11
  4.87000    -72.7 9.175e+03 4.339e-11
  4.90831    -70.7 9.148e+03 4.311e-11
  4.94828    -68.6 9.115e+03 4.411e-11
  4.98825    -66.5 9.086e+03 4.556e-11
  5.02505    -64.4 9.069e+03 4.648e-11
  5.04504    -64.8 9.099e+03 4.669e-11
  5.06820    -62.7 9.086e+03 4.736e-11
  5.10817    -60.6 9.067e+03 4.713e-11
  5.14814    -58.6 9.053e+03 4.660e-11
  5.18811    -56.6 9.035e+03 4.652e-11
  5.22008    -54.6 9.012e+03 4.778e-11
  5.24007    -55.0 9.034e+03 5.665e-11
  5.26805    -53.0 8.981e+03 5.758e-11
  5.30769    -50.8 8.913e+03 5.829e-11
  5.32767    -50.3 8.991e+03 6.782e-11
  5.34800    -48.1 8.945e+03 6.622e-11
  5.38797    -45.9 8.918e+03 6.018e-11
  5.41511    -44.0 8.875e+03 5.409e-11
  5.43510    -44.1 8.877e+03 5.280e-11
  5.46791    -42.2 8.767e+03 5.026e-11
  5.50788    -40.0 8.650e+03 5.137e-11
  5.54786    -37.6 8.591e+03 5.463e-11
  5.58783    -35.4 8.683e+03 5.351e-11
  5.61014    -33.8 8.872e+03 5.216e-11
  5.63013    -34.2 9.013e+03 6.888e-11
  5.66777    -32.4 8.799e+03 8.995e-11
  5.70774    -29.9 8.629e+03 1.088e-10
  5.74771    -27.2 8.681e+03 1.035e-10
  5.78519    -25.0 8.734e+03 8.958e-11
  5.80517    -25.0 8.761e+03 8.521e-11
  5.82766    -23.3 8.676e+03 7.494e-11
  5.86763    -21.4 8.556e+03 7.227e-11
  5.90760    -19.2 8.521e+03 7.368e-11
  5.94757    -16.9 8.515e+03 7.589e-11
  5.98022    -14.5 8.522e+03 7.739e-11
  6.00020    -14.5 8.532e+03 7.566e-11
  6.02751    -12.2 8.543e+03 7.846e-11
  6.05728    -10.0 8.589e+03 8.492e-11
  6.07727     -9.9 8.578e+03 9.303e-11
  6.10746     -7.8 8.666e+03 1.086e-10
  6.14743     -5.7 8.804e+03 1.371e-10
  6.17525     -3.7 9.009e+03 1.882e-10
  6.19523     -3.6 9.126e+03 2.142e-10
  6.22737     -1.5 9.401e+03 2.975e-10
  6.26734      0.6 9.661e+03 3.892e-10
  6.30731      2.7 9.853e+03 4.648e-10
  6.34729      4.7 9.978e+03 5.033e-10
  6.37028      6.5 1.002e+04 5.071e-10
  6.39026      6.4 1.006e+04 5.152e-10
  6.42723      8.2 1.007e+04 5.125e-10
  6.46720     10.1 1.005e+04 5.059e-10
  6.50717     11.9 1.006e+04 4.988e-10
  6.54532     13.8 1.012e+04 5.102e-10
  6.56531     13.6 1.026e+04 5.587e-10
  6.58711     15.2 1.042e+04 6.202e-10
  6.62709     16.6 1.061e+04 7.216e-10
  6.66706     17.9 1.084e+04 8.523e-10
  6.70703     19.1 1.101e+04 9.756e-10
  6.74035     20.1 1.109e+04 1.045e-09
  6.76034     19.7 1.103e+04 9.780e-10
  6.78689     20.3 1.097e+04 9.112e-10
  6.81678     21.7 1.114e+04 9.708e-10
  6.83674     21.5 1.108e+04 9.122e-10
  6.84767     21.1 1.088e+04 8.479e-10
  6.85766     20.6 1.067e+04 7.723e-10
  6.87671     20.4 1.051e+04 7.482e-10
  6.89670     20.1 1.058e+04 7.736e-10
  6.91668     19.0 1.077e+04 8.363e-10
  6.93519     15.7 1.218e+04 9.839e-10
  6.94518     10.5 1.495e+04 1.653e-09
  6.95666      7.2 1.564e+04 3.106e-09
  6.97664      5.4 1.565e+04 4.668e-09
  6.99663      4.1 1.549e+04 5.442e-09
  7.01661      2.5 1.539e+04 5.240e-09
  7.03270     -0.1 1.525e+04 4.529e-09
  7.04270     -2.7 1.533e+04 4.447e-09
  7.05659     -6.4 1.437e+04 3.233e-09
  7.07657     -9.5 1.311e+04 2.482e-09
  7.09656    -11.1 1.221e+04 2.063e-09
  7.11654    -11.7 1.177e+04 1.777e-09
  7.13022    -12.0 1.149e+04 1.485e-09
  7.14021    -12.4 1.103e+04 1.177e-09
  7.15651    -13.0 1.073e+04 9.064e-10
  7.17149    -14.0 1.045e+04 7.137e-10
  7.18148    -16.2 1.049e+04 7.233e-10
  7.19649    -17.3 1.044e+04 7.145e-10
  7.21647    -18.3 1.068e+04 8.163e-10
  7.22773    -18.7 1.106e+04 1.035e-09
  7.23773    -17.7 1.016e+04 6.624e-10
  7.25644    -17.7 1.055e+04 8.524e-10
  7.27643    -17.7 1.123e+04 1.197e-09
  7.29641    -18.4 1.297e+04 1.998e-09
  7.31526    -19.7 1.490e+04 3.730e-09
  7.32525    -17.7 1.307e+04 1.868e-09
  7.33639    -18.9 1.459e+04 3.491e-09
  7.35637    -19.1 1.532e+04 5.871e-09
  7.37636    -18.3 1.550e+04 7.862e-09
  7.39634    -17.3 1.579e+04 9.000e-09
  7.41277    -17.0 1.618e+04 9.187e-09
  7.42276    -16.1 1.539e+04 7.781e-09
  7.43631    -16.0 1.592e+04 8.073e-09
  7.45630    -16.5 1.613e+04 7.646e-09
  7.47629    -17.3 1.592e+04 6.596e-09
  7.49627    -18.0 1.530e+04 5.263e-09
  7.51029    -18.5 1.442e+04 3.982e-09
  7.52028    -17.6 1.508e+04 4.962e-09
  7.53624    -17.7 1.420e+04 3.699e-09
  7.55623    -18.3 1.234e+04 1.986e-09
  7.57621    -17.9 1.187e+04 1.499e-09
  7.59620    -17.1 1.145e+04 1.106e-09
  7.62628    -15.8 1.100e+04 7.520e-10
  7.66635    -14.9 1.031e+04 4.527e-10
  7.69552    -13.3 9.824e+03 3.580e-10
  7.71550    -13.7 9.805e+03 3.476e-10
  7.74629    -11.2 9.799e+03 3.475e-10
  7.77617     -9.4 9.860e+03 3.725e-10
  7.79284     -8.3 9.960e+03 4.036e-10
  7.80283     -8.9 9.906e+03 3.933e-10
  7.81604     -7.7 9.947e+03 4.149e-10
  7.83603     -6.4 1.002e+04 4.401e-10
  7.85602     -5.0 1.018e+04 4.895e-10
  7.87600     -3.8 1.045e+04 5.691e-10
  7.89035     -2.8 1.072e+04 6.651e-10
  7.90035     -3.4 1.062e+04 6.390e-10
  7.91109     -2.5 1.083e+04 7.488e-10
  7.92109     -1.9 1.077e+04 7.323e-10
  7.93596     -1.1 1.105e+04 9.043e-10
  7.95594     -0.2 1.145e+04 1.172e-09
  7.97593      0.5 1.181e+04 1.532e-09
  7.98787      1.4 1.215e+04 1.930e-09
  7.99786      1.3 1.164e+04 1.608e-09
  8.01590      2.6 1.193e+04 1.839e-09
  8.03589      3.8 1.228e+04 2.039e-09
  8.05587      4.7 1.268e+04 2.219e-09
  8.07539      5.4 1.306e+04 2.397e-09
  8.08538      5.5 1.225e+04 1.432e-09
  8.09584      6.1 1.248e+04 1.487e-09
  8.11583      6.5 1.265e+04 1.595e-09
  8.13582      7.1 1.271e+04 1.745e-09
  8.15580      8.0 1.274e+04 1.933e-09
  8.17291      8.9 1.289e+04 2.177e-09
  8.18290      8.9 1.194e+04 1.259e-09
  8.19577      9.6 1.232e+04 1.492e-09
  8.21576     10.0 1.292e+04 1.895e-09
  8.23575     10.2 1.378e+04 2.620e-09
  8.25573     10.4 1.475e+04 3.783e-09
  8.27042     10.8 1.567e+04 5.343e-09
  8.28041     10.8 1.457e+04 3.748e-09
  8.28589     11.5 1.522e+04 4.755e-09
  8.29588     11.4 1.595e+04 5.534e-09
  8.31569     12.0 1.631e+04 6.387e-09
  8.33567     12.4 1.630e+04 6.467e-09
  8.35566     12.8 1.609e+04 6.249e-09
  8.36794     13.3 1.566e+04 5.703e-09
  8.37793     13.2 1.470e+04 3.782e-09
  8.39563     13.6 1.430e+04 3.420e-09
  8.41562     14.2 1.393e+04 3.129e-09
  8.43560     14.9 1.377e+04 2.992e-09
  8.45546     15.7 1.379e+04 3.000e-09
  8.46545     15.7 1.313e+04 1.880e-09
  8.47557     16.6 1.321e+04 1.914e-09
  8.49556     17.4 1.355e+04 2.090e-09
  8.51555     17.9 1.418e+04 2.605e-09
  8.53553     18.0 1.488e+04 3.595e-09
  8.55297     18.0 1.557e+04 5.275e-09
  8.56297     17.7 1.465e+04 3.167e-09
  8.57550     17.4 1.554e+04 5.278e-09
  8.59549     17.2 1.657e+04 9.320e-09
  8.61547     17.5 1.756e+04 1.522e-08
  8.63546     17.8 1.803e+04 1.754e-08
  8.65049     17.9 1.792e+04 1.672e-08
  8.65573     18.0 1.750e+04 1.442e-08
  8.66069     17.9 1.838e+04 1.861e-08
  8.67543     18.3 1.782e+04 1.468e-08
  8.69542     18.4 1.729e+04 1.042e-08
  8.71540     17.2 1.729e+04 7.748e-09
  8.73539     15.3 1.739e+04 7.225e-09
  8.74800     13.6 1.742e+04 7.489e-09
  8.75800     13.5 1.770e+04 7.593e-09
  8.77536     12.0 1.777e+04 8.744e-09
  8.79535     11.1 1.772e+04 1.053e-08
  8.81533     10.5 1.781e+04 1.288e-08
  8.83532     10.1 1.812e+04 1.596e-08
  8.84552      9.6 1.851e+04 1.948e-08
  8.85551      8.7 1.820e+04 1.539e-08
  8.87529      7.7 1.822e+04 1.732e-08
  8.89528      6.5 1.799e+04 1.724e-08
  8.91526      5.4 1.727e+04 1.566e-08
  8.93304      4.6 1.627e+04 1.262e-08
  8.94303      3.9 1.558e+04 8.766e-09
  8.95523      3.7 1.449e+04 6.915e-09
  8.97522      4.0 1.367e+04 5.206e-09
  8.99520      4.0 1.318e+04 3.790e-09
  9.01519      3.8 1.285e+04 2.640e-09
  9.02549      3.1 1.258e+04 1.718e-09
  9.03087      1.9 1.220e+04 1.183e-09
  9.04055      1.7 1.206e+04 1.177e-09
  9.05516      0.5 1.105e+04 7.567e-10
  9.07515     -0.6 1.010e+04 5.345e-10
  9.09513     -1.3 9.680e+03 4.223e-10
  9.11512     -1.9 9.606e+03 3.658e-10
  9.12807     -2.5 9.596e+03 3.603e-10
  9.13806     -3.2 9.676e+03 3.676e-10
  9.15509     -4.5 9.881e+03 3.955e-10
  9.17508     -6.3 1.025e+04 5.022e-10
  9.19506     -7.5 1.045e+04 6.894e-10
  9.21505     -7.4 1.060e+04 9.160e-10
  9.22559     -7.0 1.070e+04 1.039e-09
  9.23558     -7.3 1.078e+04 1.049e-09
  9.25502     -6.7 1.077e+04 1.036e-09
  9.27500     -6.7 1.086e+04 9.390e-10
  9.29499     -7.1 1.086e+04 7.922e-10
  9.31311     -7.8 1.069e+04 6.763e-10
  9.32310     -8.6 1.055e+04 6.553e-10
  9.33496     -9.1 1.024e+04 6.207e-10
  9.35495     -9.0 9.996e+03 6.266e-10
  9.37493     -8.6 9.818e+03 6.232e-10
  9.39030     -8.1 9.725e+03 6.225e-10
  9.40029     -7.0 9.934e+03 6.119e-10
  9.41062     -6.5 9.868e+03 6.369e-10
  9.42062     -6.3 9.643e+03 5.521e-10
  9.43489     -5.9 9.631e+03 5.525e-10
  9.45488     -5.0 9.622e+03 5.385e-10
  9.47486     -4.6 9.658e+03 5.415e-10
  9.49485     -3.9 9.729e+03 5.520e-10
  9.50814     -3.3 9.835e+03 5.730e-10
  9.51813     -3.4 9.460e+03 4.113e-10
  9.53482     -2.6 9.611e+03 4.426e-10
  9.55481     -2.1 9.729e+03 4.666e-10
  9.57479     -1.6 9.887e+03 5.112e-10
  9.59478     -1.2 1.007e+04 5.519e-10
  9.60565     -0.9 1.026e+04 5.963e-10
  9.61565     -0.9 1.007e+04 5.184e-10
  9.63475     -0.6 1.033e+04 5.915e-10
  9.65473     -0.5 1.080e+04 7.318e-10
  9.67472     -0.3 1.093e+04 7.712e-10
  9.69317     -0.1 1.111e+04 8.631e-10
  9.70317      0.1 1.105e+04 8.539e-10
  9.71469      0.5 1.137e+04 1.015e-09
  9.73468      0.8 1.156e+04 1.109e-09
  9.75466      1.4 1.155e+04 1.100e-09
  9.76510      2.0 1.143e+04 1.038e-09
  9.77509      2.7 1.140e+04 9.520e-10
  9.79069      3.3 1.126e+04 9.035e-10
  9.80068      3.7 1.127e+04 9.050e-10
  9.81462      4.5 1.106e+04 7.918e-10
  9.83461      5.2 1.086e+04 6.652e-10
  9.85459      5.8 1.072e+04 5.537e-10
  9.87458      6.3 1.064e+04 4.709e-10
  9.88821      6.6 1.059e+04 4.184e-10
  9.89820      6.5 1.077e+04 4.334e-10
  9.91455      6.7 1.074e+04 4.137e-10
  9.93454      7.1 1.075e+04 4.223e-10
  9.95452      7.4 1.085e+04 4.571e-10
  9.97451      7.7 1.100e+04 5.331e-10
  9.98572      8.1 1.117e+04 6.541e-10
  9.99571      7.8 1.164e+04 9.337e-10
 10.01448      8.3 1.185e+04 1.157e-09
 10.03446      8.9 1.207e+04 1.408e-09
 10.05445      9.7 1.229e+04 1.659e-09
 10.07324     10.4 1.246e+04 1.848e-09
 10.08324     10.4 1.283e+04 2.166e-09
 10.09442     11.0 1.279e+04 2.143e-09
 10.11441     11.7 1.261e+04 2.010e-09
 10.12990     12.3 1.236e+04 1.802e-09
 10.13990     12.8 1.246e+04 1.891e-09
 10.15438     13.4 1.219e+04 1.685e-09
 10.17076     14.0 1.194e+04 1.493e-09
 10.18075     13.8 1.181e+04 1.394e-09
 10.19435     14.3 1.153e+04 1.206e-09
 10.21434     14.7 1.128e+04 1.069e-09
 10.23432     15.4 1.110e+04 9.749e-10
 10.25431     16.1 1.100e+04 9.128e-10
 10.26827     16.7 1.090e+04 8.571e-10
 10.27827     16.7 1.072e+04 7.621e-10
 10.29428     17.5 1.062e+04 7.183e-10
 10.31426     18.4 1.056e+04 6.843e-10
 10.33425     19.1 1.049e+04 6.540e-10
 10.35424     19.9 1.039e+04 6.292e-10
 10.36579     20.8 1.037e+04 6.279e-10
 10.37578     21.0 1.021e+04 5.681e-10
 10.39421     21.9 1.023e+04 5.773e-10
 10.41419     22.9 1.025e+04 5.972e-10
 10.43418     24.0 1.031e+04 6.351e-10
 10.45331     25.2 1.048e+04 7.054e-10
 10.46330     25.5 1.028e+04 6.252e-10
 10.47415     26.5 1.056e+04 7.216e-10
 10.49414     27.4 1.099e+04 8.811e-10
 10.50470     27.6 1.164e+04 1.185e-09
 10.51469     28.2 1.177e+04 1.273e-09
 10.53411     28.1 1.289e+04 1.947e-09
 10.55082     27.3 1.439e+04 3.447e-09
 10.56082     27.9 1.358e+04 2.728e-09
 10.57408     27.9 1.520e+04 5.181e-09
 10.59407     28.6 1.677e+04 9.428e-09
 10.61405     29.4 1.810e+04 1.468e-08
 10.63404     30.2 1.900e+04 1.706e-08
 10.64834     30.8 1.920e+04 1.637e-08
 10.65833     32.1 1.771e+04 1.217e-08
 10.67401     32.6 1.787e+04 1.114e-08
 10.69399     32.6 1.793e+04 8.366e-09
 10.71398     31.4 1.804e+04 6.216e-09
 10.73397     29.4 1.818e+04 6.063e-09
 10.74585     27.6 1.834e+04 6.542e-09
 10.75585     29.6 1.682e+04 5.125e-09
 10.77394     27.6 1.706e+04 5.994e-09
 10.79392     25.8 1.710e+04 7.166e-09
 10.81391     24.4 1.720e+04 7.623e-09
 10.83338     22.9 1.726e+04 6.949e-09
 10.84337     22.2 1.721e+04 7.101e-09
