# Columns:
#   distance along LOS (in CHIMPs)
#   peculiar velocity  (in km/s)
#   temperature (K)
#   HI number density
# pos=(210.855,191.946,251.064), angles=(1.52612,1.6759)
  0.00432    -54.8 1.163e+04 5.212e-10
  0.01847    -54.0 1.149e+04 4.728e-10
  0.03813    -53.1 1.148e+04 4.577e-10
  0.05779    -52.2 1.150e+04 4.588e-10
  0.07745    -51.5 1.161e+04 4.793e-10
  0.09710    -50.9 1.172e+04 5.247e-10
  0.11676    -50.2 1.183e+04 5.977e-10
  0.13642    -49.7 1.191e+04 6.962e-10
  0.15118    -49.1 1.200e+04 8.099e-10
  0.16101    -48.9 1.185e+04 7.278e-10
  0.18567    -48.4 1.204e+04 8.635e-10
  0.22508    -47.4 1.214e+04 1.042e-09
  0.26440    -46.6 1.209e+04 1.082e-09
  0.30372    -45.7 1.177e+04 9.402e-10
  0.34304    -44.7 1.141e+04 6.824e-10
  0.38236    -43.9 1.114e+04 5.097e-10
  0.42168    -43.1 1.095e+04 4.502e-10
  0.46100    -42.0 1.087e+04 4.368e-10
  0.50031    -40.6 1.079e+04 4.226e-10
  0.52450    -39.2 1.068e+04 3.851e-10
  0.54416    -38.5 1.075e+04 3.928e-10
  0.57895    -37.3 1.068e+04 3.378e-10
  0.61827    -36.3 1.069e+04 3.078e-10
  0.64437    -35.5 1.081e+04 3.086e-10
  0.66403    -35.1 1.049e+04 2.498e-10
  0.69691    -34.3 1.065e+04 3.105e-10
  0.73623    -33.7 1.087e+04 3.920e-10
  0.76562    -33.6 1.101e+04 5.570e-10
  0.78518    -33.0 1.103e+04 6.145e-10
  0.81476    -32.4 1.094e+04 5.949e-10
  0.85418    -31.5 1.091e+04 6.605e-10
  0.88779    -30.4 1.085e+04 6.669e-10
  0.90745    -30.3 1.122e+04 9.193e-10
  0.93282    -29.3 1.083e+04 6.391e-10
  0.97214    -29.0 1.058e+04 4.175e-10
  1.01145    -29.4 1.050e+04 3.628e-10
  1.05077    -30.0 1.064e+04 4.256e-10
  1.09009    -30.5 1.092e+04 6.677e-10
  1.12941    -30.4 1.109e+04 8.532e-10
  1.16873    -30.4 1.094e+04 8.046e-10
  1.20805    -30.6 1.023e+04 4.109e-10
  1.24737    -31.7 9.370e+03 1.613e-10
  1.27074    -33.0 8.866e+03 9.749e-11
  1.29040    -31.5 8.928e+03 9.178e-11
  1.32600    -31.9 8.654e+03 7.829e-11
  1.36532    -31.6 8.548e+03 8.201e-11
  1.40464    -31.2 8.588e+03 1.060e-10
  1.44396    -31.0 8.726e+03 1.342e-10
  1.48328    -31.3 9.018e+03 1.714e-10
  1.51419    -32.5 9.340e+03 2.275e-10
  1.53385    -31.4 9.317e+03 2.089e-10
  1.56191    -33.1 9.442e+03 2.580e-10
  1.60123    -34.5 9.422e+03 2.755e-10
  1.63403    -35.2 9.132e+03 2.486e-10
  1.65369    -33.7 9.261e+03 2.658e-10
  1.67987    -34.2 8.875e+03 1.725e-10
  1.71919    -35.0 8.522e+03 1.001e-10
  1.75851    -35.7 8.388e+03 8.280e-11
  1.79782    -36.1 8.390e+03 8.493e-11
  1.83714    -36.4 8.640e+03 1.501e-10
  1.87646    -36.1 9.025e+03 2.807e-10
  1.91578    -35.2 9.413e+03 4.064e-10
  1.95510    -34.7 9.673e+03 4.491e-10
  1.99442    -34.7 9.779e+03 4.400e-10
  2.01698    -35.7 9.941e+03 3.991e-10
  2.03664    -34.9 1.007e+04 4.115e-10
  2.07305    -36.7 1.037e+04 4.102e-10
  2.10244    -38.3 1.075e+04 5.153e-10
  2.12201    -39.1 1.100e+04 7.370e-10
  2.14167    -39.3 1.127e+04 1.070e-09
  2.16133    -38.9 1.156e+04 1.312e-09
  2.18098    -38.3 1.169e+04 1.384e-09
  2.19843    -37.9 1.170e+04 1.347e-09
  2.20826    -37.6 1.174e+04 1.361e-09
  2.22030    -37.3 1.165e+04 1.028e-09
  2.23996    -37.4 1.144e+04 7.274e-10
  2.25962    -38.2 1.111e+04 5.295e-10
  2.27928    -38.7 1.069e+04 4.201e-10
  2.29894    -38.9 1.041e+04 3.709e-10
  2.31860    -38.8 1.029e+04 3.521e-10
  2.34819    -38.5 1.028e+04 3.337e-10
  2.38027    -37.1 1.033e+04 2.779e-10
  2.39634    -36.7 9.972e+03 2.527e-10
  2.40368    -36.3 1.042e+04 3.249e-10
  2.42692    -34.7 1.035e+04 2.929e-10
  2.46624    -33.1 1.035e+04 2.531e-10
  2.50556    -31.8 1.040e+04 2.377e-10
  2.54488    -31.2 1.078e+04 2.515e-10
  2.58419    -31.4 1.117e+04 3.720e-10
  2.61359    -33.5 1.144e+04 5.432e-10
  2.63315    -34.9 1.178e+04 7.460e-10
  2.65281    -37.7 1.293e+04 1.213e-09
  2.67247    -41.8 1.427e+04 1.941e-09
  2.69212    -46.1 1.504e+04 3.092e-09
  2.71178    -49.7 1.498e+04 4.122e-09
  2.73144    -52.2 1.484e+04 4.446e-09
  2.75110    -53.6 1.455e+04 4.355e-09
  2.76302    -54.4 1.424e+04 3.240e-09
  2.77285    -54.6 1.402e+04 2.549e-09
  2.79042    -56.6 1.363e+04 1.624e-09
  2.81008    -59.0 1.301e+04 1.211e-09
  2.82856    -60.4 1.268e+04 1.123e-09
  2.83839    -62.2 1.330e+04 1.838e-09
  2.84940    -62.5 1.358e+04 2.238e-09
  2.86906    -62.3 1.396e+04 2.755e-09
  2.88872    -61.9 1.439e+04 3.261e-09
  2.90838    -61.6 1.479e+04 3.703e-09
  2.92804    -61.6 1.509e+04 4.033e-09
  2.94467    -61.7 1.526e+04 4.338e-09
  2.95450    -62.4 1.545e+04 5.363e-09
  2.96735    -62.2 1.530e+04 5.673e-09
  2.98701    -62.0 1.510e+04 5.903e-09
  3.00667    -61.7 1.483e+04 5.765e-09
  3.02633    -61.3 1.450e+04 5.095e-09
  3.04599    -60.8 1.418e+04 4.271e-09
  3.06565    -60.5 1.412e+04 3.240e-09
  3.08531    -60.5 1.419e+04 2.256e-09
  3.10497    -61.0 1.400e+04 1.538e-09
  3.12463    -62.0 1.320e+04 1.087e-09
  3.13614    -62.6 1.217e+04 8.452e-10
  3.14597    -62.8 1.175e+04 6.832e-10
  3.16395    -62.8 1.133e+04 6.126e-10
  3.18361    -62.1 1.118e+04 5.876e-10
  3.20326    -61.4 1.112e+04 5.796e-10
  3.22292    -60.7 1.107e+04 5.703e-10
  3.24258    -59.9 1.102e+04 5.519e-10
  3.26224    -59.2 1.096e+04 5.219e-10
  3.27340    -58.4 1.086e+04 4.779e-10
  3.29316    -58.4 1.077e+04 5.261e-10
  3.33125    -56.9 1.062e+04 4.867e-10
  3.37056    -55.3 1.046e+04 4.092e-10
  3.40988    -53.8 1.037e+04 3.292e-10
  3.44920    -52.7 1.035e+04 2.775e-10
  3.48852    -51.8 1.036e+04 2.663e-10
  3.50946    -51.1 1.052e+04 2.756e-10
  3.52912    -51.2 1.071e+04 3.192e-10
  3.56716    -50.8 1.090e+04 4.236e-10
  3.60647    -50.6 1.106e+04 5.386e-10
  3.64579    -50.6 1.123e+04 6.567e-10
  3.68511    -50.8 1.147e+04 8.127e-10
  3.72443    -50.9 1.175e+04 1.011e-09
  3.76375    -50.9 1.192e+04 1.137e-09
  3.80307    -50.9 1.183e+04 1.000e-09
  3.84239    -50.6 1.159e+04 7.478e-10
  3.87275    -50.3 1.126e+04 5.017e-10
  3.89241    -50.7 1.113e+04 4.174e-10
  3.92102    -50.7 1.093e+04 3.301e-10
  3.96034    -50.5 1.088e+04 3.166e-10
  3.99966    -50.3 1.096e+04 3.536e-10
  4.03898    -50.2 1.113e+04 4.603e-10
  4.07830    -50.1 1.125e+04 5.824e-10
  4.11762    -50.2 1.133e+04 6.423e-10
  4.14332    -50.9 1.125e+04 6.302e-10
  4.16298    -51.5 1.101e+04 4.776e-10
  4.19625    -52.3 1.065e+04 3.439e-10
  4.23557    -53.2 1.025e+04 2.159e-10
  4.25570    -53.9 9.876e+03 1.447e-10
  4.27536    -54.4 9.414e+03 1.295e-10
  4.31421    -54.6 9.346e+03 1.213e-10
  4.35353    -54.6 9.343e+03 1.200e-10
  4.39284    -54.9 9.437e+03 1.219e-10
  4.43216    -58.2 1.031e+04 2.317e-10
  4.47148    -62.2 1.214e+04 8.230e-10
  4.50087    -65.0 1.347e+04 2.022e-09
  4.52043    -66.3 1.423e+04 2.950e-09
  4.54009    -67.8 1.458e+04 3.446e-09
  4.55975    -69.7 1.459e+04 3.465e-09
  4.57803    -72.0 1.443e+04 2.880e-09
  4.58786    -71.4 1.421e+04 2.599e-09
  4.59907    -74.7 1.437e+04 2.397e-09
  4.61873    -79.0 1.463e+04 2.385e-09
  4.63839    -82.6 1.537e+04 3.210e-09
  4.65805    -85.6 1.568e+04 4.502e-09
  4.67771    -87.8 1.600e+04 5.123e-09
  4.69737    -91.0 1.633e+04 5.109e-09
  4.71703    -97.2 1.737e+04 4.663e-09
  4.73669   -107.2 1.939e+04 4.379e-09
  4.75635   -116.8 2.074e+04 7.938e-09
  4.77600   -121.2 2.072e+04 2.014e-08
  4.79070   -122.7 2.104e+04 3.173e-08
  4.80031   -123.8 2.116e+04 3.515e-08
  4.80522   -123.7 2.098e+04 3.450e-08
  4.81017   -124.5 2.089e+04 3.440e-08
  4.82005   -124.7 1.985e+04 2.130e-08
  4.83498   -125.7 1.850e+04 1.156e-08
  4.85464   -126.8 1.696e+04 5.237e-09
  4.87430   -129.2 1.453e+04 1.887e-09
  4.89396   -131.8 1.314e+04 1.010e-09
  4.91362   -133.3 1.255e+04 8.306e-10
  4.93328   -133.9 1.235e+04 8.114e-10
  4.95294   -134.2 1.227e+04 1.022e-09
  4.97260   -134.3 1.264e+04 1.451e-09
  4.99191   -134.0 1.297e+04 1.941e-09
  5.00174   -134.2 1.284e+04 1.860e-09
  5.01192   -134.1 1.294e+04 2.035e-09
  5.02277   -134.1 1.295e+04 2.061e-09
  5.03260   -134.6 1.329e+04 2.490e-09
  5.05123   -134.5 1.300e+04 2.135e-09
  5.07089   -134.6 1.244e+04 1.545e-09
  5.09055   -135.2 1.172e+04 1.046e-09
  5.11021   -135.8 1.099e+04 7.067e-10
  5.12987   -136.2 1.044e+04 5.028e-10
  5.14953   -136.3 1.014e+04 3.970e-10
  5.17912   -136.3 9.912e+03 3.337e-10
  5.21853   -135.2 9.536e+03 2.491e-10
  5.25785   -133.2 9.087e+03 1.700e-10
  5.29717   -131.1 8.778e+03 1.169e-10
  5.33649   -129.2 8.656e+03 8.693e-11
  5.36523   -127.4 8.602e+03 7.001e-11
  5.38489   -127.6 8.569e+03 6.502e-11
  5.41513   -125.9 8.497e+03 5.646e-11
  5.45444   -124.3 8.428e+03 5.330e-11
  5.49376   -122.7 8.399e+03 5.229e-11
  5.53308   -121.1 8.385e+03 5.192e-11
  5.57240   -119.7 8.359e+03 5.391e-11
  5.61172   -118.3 8.322e+03 5.914e-11
  5.65104   -116.9 8.289e+03 6.511e-11
  5.69035   -115.5 8.264e+03 7.039e-11
  5.72852   -114.1 8.257e+03 7.460e-11
  5.74818   -114.5 8.313e+03 8.691e-11
  5.76899   -113.1 8.320e+03 8.878e-11
  5.80831   -111.6 8.317e+03 8.910e-11
  5.84763   -109.9 8.267e+03 8.522e-11
  5.88296   -108.2 8.210e+03 7.783e-11
  5.90262   -109.5 8.252e+03 7.623e-11
  5.92627   -107.6 8.180e+03 6.641e-11
  5.96558   -105.8 8.119e+03 5.820e-11
  6.00490   -103.9 8.080e+03 5.196e-11
  6.04422   -102.0 8.058e+03 4.780e-11
  6.08354   -100.1 8.079e+03 4.533e-11
  6.11147    -98.2 8.097e+03 4.480e-11
  6.13113    -98.4 8.103e+03 4.411e-11
  6.16218    -96.6 8.148e+03 4.546e-11
  6.20149    -94.8 8.176e+03 4.964e-11
  6.24081    -92.9 8.194e+03 5.549e-11
  6.28013    -91.0 8.219e+03 6.172e-11
  6.31945    -89.1 8.262e+03 6.685e-11
  6.35877    -87.2 8.299e+03 7.016e-11
  6.39809    -85.3 8.321e+03 7.205e-11
  6.43741    -83.5 8.339e+03 7.315e-11
  6.47476    -81.8 8.358e+03 7.447e-11
  6.49442    -82.5 8.444e+03 8.463e-11
  6.51604    -81.1 8.576e+03 9.483e-11
  6.55536    -80.0 8.798e+03 1.155e-10
  6.59468    -79.0 9.084e+03 1.521e-10
  6.63400    -78.0 9.379e+03 2.052e-10
  6.67332    -77.0 9.637e+03 2.660e-10
  6.71264    -76.0 9.834e+03 3.193e-10
  6.75195    -75.0 9.984e+03 3.584e-10
  6.77244    -74.2 1.015e+04 3.849e-10
  6.79210    -76.4 1.032e+04 4.236e-10
  6.83059    -76.0 1.051e+04 4.484e-10
  6.85771    -75.9 1.077e+04 5.130e-10
  6.87737    -76.9 1.062e+04 4.225e-10
  6.90923    -76.6 1.084e+04 6.044e-10
  6.94855    -75.9 1.092e+04 7.479e-10
  6.98786    -75.2 1.092e+04 7.755e-10
  7.02718    -74.2 1.060e+04 7.076e-10
  7.06650    -72.8 1.009e+04 5.105e-10
  7.10582    -71.4 9.618e+03 3.348e-10
  7.14514    -70.3 9.339e+03 2.330e-10
  7.18446    -69.3 9.221e+03 1.886e-10
  7.22100    -68.4 9.187e+03 1.773e-10
  7.24066    -69.3 9.191e+03 1.840e-10
  7.26309    -68.3 9.261e+03 2.122e-10
  7.30241    -67.3 9.338e+03 2.526e-10
  7.34173    -66.2 9.396e+03 2.953e-10
  7.38105    -65.1 9.402e+03 3.216e-10
  7.42037    -63.9 9.321e+03 3.146e-10
  7.45969    -62.6 9.122e+03 2.500e-10
  7.49900    -61.5 8.883e+03 1.768e-10
  7.53832    -60.5 8.687e+03 1.165e-10
  7.57764    -59.8 8.582e+03 8.073e-11
  7.60395    -59.2 8.567e+03 6.760e-11
  7.62361    -59.1 8.364e+03 5.770e-11
  7.64226    -58.2 8.391e+03 5.444e-11
  7.66192    -59.2 8.403e+03 5.450e-11
  7.69560    -58.8 8.669e+03 5.561e-11
  7.73492    -58.4 8.866e+03 7.108e-11
  7.77423    -57.9 8.939e+03 9.384e-11
  7.81355    -57.4 9.009e+03 1.158e-10
  7.85287    -57.1 9.110e+03 1.331e-10
  7.89219    -56.8 9.208e+03 1.427e-10
  7.93151    -56.6 9.238e+03 1.508e-10
  7.96724    -56.3 9.224e+03 1.536e-10
  7.98690    -55.9 9.436e+03 1.792e-10
  8.01015    -55.3 9.333e+03 1.722e-10
  8.04946    -54.3 9.231e+03 1.494e-10
  8.08878    -53.2 9.200e+03 1.252e-10
  8.12810    -52.1 9.189e+03 1.085e-10
  8.16742    -50.8 9.196e+03 9.859e-11
  8.20674    -49.5 9.206e+03 9.375e-11
  8.24606    -48.2 9.218e+03 9.324e-11
  8.28537    -47.1 9.363e+03 9.476e-11
  8.32469    -46.6 9.594e+03 1.187e-10
  8.35019    -46.1 9.735e+03 1.737e-10
  8.36985    -45.5 9.913e+03 2.245e-10
  8.40333    -45.1 1.018e+04 3.192e-10
  8.44265    -44.8 1.050e+04 4.178e-10
  8.48197    -44.8 1.078e+04 4.961e-10
  8.51136    -45.0 1.088e+04 4.916e-10
  8.52172    -45.0 1.088e+04 5.030e-10
  8.53155    -45.5 1.090e+04 4.867e-10
  8.54147    -45.4 1.093e+04 4.948e-10
  8.55130    -45.7 1.098e+04 5.550e-10
  8.57024    -45.4 1.098e+04 5.411e-10
  8.59982    -45.1 1.105e+04 4.782e-10
  8.63924    -44.4 1.111e+04 3.869e-10
  8.67856    -43.4 1.121e+04 3.324e-10
  8.70795    -42.9 1.121e+04 3.222e-10
  8.72311    -42.6 1.143e+04 3.386e-10
  8.73294    -43.1 1.164e+04 3.491e-10
  8.74717    -46.4 1.380e+04 4.670e-10
  8.76683    -58.3 2.045e+04 2.096e-09
  8.78649    -62.6 2.031e+04 1.588e-08
  8.80119    -63.3 2.075e+04 5.113e-08
  8.81097    -62.9 2.119e+04 7.408e-08
  8.81875    -62.8 2.134e+04 8.084e-08
  8.82367    -62.1 2.098e+04 7.080e-08
  8.83063    -62.2 2.118e+04 6.441e-08
  8.84046    -62.5 2.123e+04 3.872e-08
  8.85028    -65.1 2.077e+04 2.002e-08
  8.86508    -70.0 1.885e+04 9.828e-09
  8.88479    -74.1 1.628e+04 4.803e-09
  8.90445    -76.9 1.402e+04 2.338e-09
  8.91459    -77.5 1.325e+04 1.764e-09
  8.92442    -76.9 1.316e+04 1.653e-09
  8.94376    -76.8 1.296e+04 1.419e-09
  8.95663    -76.5 1.276e+04 1.171e-09
  8.96646    -76.5 1.296e+04 1.391e-09
  8.98308    -76.4 1.274e+04 1.102e-09
  9.00274    -76.5 1.250e+04 8.894e-10
  9.02240    -76.7 1.223e+04 7.588e-10
  9.04206    -76.8 1.208e+04 6.803e-10
  9.06172    -76.7 1.194e+04 6.195e-10
  9.08138    -76.3 1.185e+04 5.698e-10
  9.09633    -75.8 1.178e+04 5.082e-10
  9.11609    -75.7 1.203e+04 6.885e-10
  9.15038    -74.3 1.170e+04 5.342e-10
  9.18970    -73.0 1.151e+04 4.204e-10
  9.22902    -71.6 1.141e+04 3.503e-10
  9.26834    -70.1 1.134e+04 3.122e-10
  9.30766    -68.7 1.129e+04 2.986e-10
  9.34697    -67.2 1.127e+04 2.964e-10
  9.38191    -65.8 1.126e+04 3.012e-10
  9.40157    -66.2 1.127e+04 3.127e-10
  9.42561    -64.6 1.124e+04 3.162e-10
  9.45972    -62.8 1.117e+04 3.075e-10
  9.47938    -63.2 1.113e+04 3.005e-10
  9.50425    -61.3 1.105e+04 2.598e-10
  9.54357    -59.4 1.098e+04 2.150e-10
  9.58288    -57.5 1.093e+04 1.749e-10
  9.62220    -55.6 1.089e+04 1.446e-10
  9.66152    -53.8 1.086e+04 1.261e-10
  9.70084    -51.9 1.084e+04 1.187e-10
  9.74016    -50.1 1.084e+04 1.174e-10
  9.77948    -48.4 1.086e+04 1.190e-10
  9.81880    -46.9 1.085e+04 1.333e-10
  9.84267    -45.3 1.082e+04 1.608e-10
  9.86233    -45.5 1.083e+04 1.726e-10
  9.89743    -43.7 1.086e+04 2.180e-10
  9.93675    -41.9 1.096e+04 2.518e-10
  9.97607    -40.2 1.101e+04 2.605e-10
 10.01539    -38.6 1.104e+04 2.477e-10
 10.05471    -37.1 1.107e+04 2.126e-10
 10.09403    -35.9 1.111e+04 1.951e-10
 10.13334    -35.0 1.129e+04 1.957e-10
 10.17266    -34.5 1.157e+04 2.566e-10
 10.20596    -34.0 1.168e+04 4.399e-10
 10.22562    -35.1 1.196e+04 7.251e-10
 10.25130    -34.0 1.221e+04 1.081e-09
 10.27139    -33.0 1.239e+04 1.269e-09
 10.29105    -33.7 1.262e+04 1.571e-09
 10.32994    -33.0 1.234e+04 1.385e-09
 10.36925    -32.1 1.195e+04 8.743e-10
 10.40857    -31.8 1.158e+04 5.071e-10
 10.44789    -31.4 1.121e+04 3.904e-10
 10.48721    -30.2 1.089e+04 3.340e-10
 10.52653    -28.4 1.067e+04 2.736e-10
 10.56585    -26.5 1.054e+04 2.043e-10
 10.58891    -24.6 1.048e+04 1.474e-10
 10.60857    -25.0 1.047e+04 1.233e-10
 10.64448    -23.2 1.044e+04 9.041e-11
 10.68380    -21.4 1.037e+04 7.577e-11
 10.72312    -19.6 1.030e+04 6.997e-11
 10.76244    -17.6 1.029e+04 6.815e-11
 10.80176    -15.7 1.029e+04 7.041e-11
 10.84108    -13.7 1.031e+04 7.791e-11
 10.88039    -11.5 1.038e+04 8.534e-11
 10.91971     -9.5 1.047e+04 8.839e-11
 10.95220     -7.7 1.047e+04 9.012e-11
 10.97186     -7.6 1.049e+04 8.994e-11
 10.99835     -5.8 1.044e+04 9.294e-11
 11.03767     -3.9 1.039e+04 1.010e-10
 11.07699     -2.0 1.040e+04 1.150e-10
 11.11631     -0.1 1.049e+04 1.314e-10
 11.14121      1.7 1.050e+04 1.505e-10
 11.16087      1.6 1.053e+04 1.668e-10
 11.19494      3.6 1.047e+04 1.814e-10
 11.23426      5.7 1.051e+04 1.771e-10
 11.27358      7.6 1.060e+04 1.680e-10
 11.31290      9.1 1.077e+04 1.740e-10
 11.33515      9.4 1.119e+04 2.269e-10
 11.35481      9.4 1.077e+04 2.066e-10
 11.39154     10.6 1.086e+04 3.374e-10
 11.43085     12.4 1.103e+04 4.797e-10
 11.47017     13.6 1.114e+04 4.778e-10
 11.50949     14.2 1.115e+04 4.414e-10
 11.54881     14.6 1.117e+04 4.517e-10
 11.58813     14.8 1.128e+04 5.331e-10
 11.62745     15.3 1.138e+04 6.889e-10
 11.66676     16.2 1.146e+04 8.121e-10
 11.69844     17.1 1.140e+04 7.809e-10
 11.71810     16.7 1.135e+04 7.153e-10
 11.74540     17.8 1.113e+04 6.267e-10
 11.78472     18.9 1.090e+04 4.728e-10
 11.82404     19.4 1.081e+04 3.484e-10
 11.86336     20.1 1.068e+04 3.148e-10
 11.90268     20.9 1.070e+04 3.297e-10
 11.94199     21.8 1.078e+04 3.982e-10
 11.98131     23.1 1.090e+04 5.026e-10
 12.01103     24.4 1.104e+04 6.095e-10
 12.03069     23.8 1.107e+04 6.148e-10
 12.05995     25.0 1.120e+04 7.209e-10
 12.08139     26.2 1.138e+04 8.585e-10
 12.10105     26.0 1.146e+04 9.176e-10
 12.13859     27.3 1.158e+04 1.029e-09
 12.17790     28.5 1.166e+04 1.109e-09
 12.21722     29.7 1.169e+04 1.096e-09
 12.25654     30.5 1.169e+04 1.021e-09
 12.29586     31.2 1.167e+04 9.689e-10
 12.33518     31.8 1.170e+04 9.656e-10
 12.37450     32.4 1.174e+04 1.002e-09
 12.41382     33.1 1.171e+04 9.682e-10
 12.44468     34.4 1.148e+04 7.903e-10
 12.46434     34.6 1.147e+04 7.631e-10
 12.49245     36.4 1.112e+04 4.844e-10
 12.53177     37.9 1.089e+04 2.411e-10
 12.57109     38.5 1.081e+04 1.167e-10
 12.61041     39.3 1.050e+04 9.301e-11
 12.64973     40.9 1.048e+04 9.473e-11
 12.68905     42.6 1.048e+04 1.078e-10
 12.72836     44.4 1.053e+04 1.382e-10
 12.76768     46.1 1.065e+04 1.851e-10
 12.80700     47.7 1.087e+04 2.525e-10
 12.82763     49.3 1.102e+04 3.387e-10
 12.84729     49.5 1.108e+04 3.850e-10
 12.88085     51.0 1.120e+04 4.288e-10
 12.90051     50.4 1.129e+04 4.615e-10
 12.92496     51.8 1.128e+04 4.555e-10
 12.96427     53.1 1.123e+04 4.389e-10
 13.00359     54.4 1.118e+04 4.200e-10
 13.04291     55.8 1.115e+04 3.985e-10
 13.08223     57.3 1.114e+04 3.711e-10
 13.12155     58.6 1.117e+04 3.365e-10
 13.16087     59.7 1.129e+04 3.054e-10
 13.19092     60.3 1.151e+04 3.237e-10
 13.21058     61.0 1.142e+04 2.735e-10
 13.23950     61.4 1.169e+04 3.388e-10
 13.27882     61.4 1.202e+04 5.073e-10
 13.31814     61.3 1.230e+04 7.671e-10
 13.35746     61.3 1.251e+04 1.032e-09
 13.39678     61.3 1.262e+04 1.160e-09
 13.43610     61.2 1.257e+04 1.074e-09
 13.47541     61.4 1.241e+04 9.163e-10
 13.51473     61.7 1.209e+04 6.919e-10
 13.55405     62.4 1.174e+04 5.016e-10
 13.59337     64.4 1.161e+04 4.527e-10
 13.63269     65.5 1.138e+04 3.307e-10
 13.67201     66.9 1.119e+04 2.622e-10
 13.71133     68.4 1.108e+04 2.361e-10
 13.75064     70.0 1.106e+04 2.287e-10
 13.78996     71.5 1.107e+04 2.374e-10
 13.82928     73.2 1.110e+04 2.494e-10
 13.86860     74.8 1.113e+04 2.582e-10
 13.90792     76.5 1.116e+04 2.630e-10
 13.93716     78.3 1.120e+04 2.669e-10
 13.95682     79.1 1.122e+04 2.652e-10
 13.98656     80.9 1.130e+04 2.768e-10
 14.02587     82.7 1.137e+04 2.964e-10
 14.06519     84.5 1.145e+04 3.246e-10
 14.10451     86.2 1.152e+04 3.546e-10
 14.14383     87.8 1.161e+04 3.951e-10
 14.18315     89.3 1.177e+04 4.616e-10
 14.22247     90.2 1.200e+04 5.678e-10
 14.26178     90.3 1.224e+04 7.168e-10
 14.30045     90.0 1.254e+04 9.314e-10
 14.32011     91.4 1.252e+04 8.817e-10
 14.34042     90.7 1.284e+04 1.118e-09
 14.37974     89.3 1.309e+04 1.340e-09
 14.41906     87.3 1.311e+04 1.341e-09
 14.45838     85.4 1.281e+04 1.142e-09
 14.48777     84.1 1.255e+04 9.847e-10
 14.50156     83.4 1.235e+04 8.659e-10
 14.51139     84.2 1.249e+04 9.290e-10
 14.52699     83.4 1.231e+04 7.976e-10
 14.54665     82.4 1.200e+04 6.771e-10
 14.56631     81.4 1.161e+04 5.860e-10
 14.58597     80.8 1.127e+04 5.345e-10
 14.60563     80.4 1.104e+04 4.943e-10
 14.62529     80.3 1.096e+04 4.784e-10
 14.64006     80.8 1.090e+04 4.654e-10
 14.65982     80.2 1.087e+04 4.356e-10
 14.68340     80.3 1.077e+04 4.221e-10
 14.69313     80.7 1.082e+04 4.748e-10
 14.70392     80.7 1.076e+04 4.585e-10
 14.73351     80.7 1.070e+04 4.466e-10
 14.77293     80.8 1.044e+04 3.864e-10
