# Columns:
#   distance along LOS (in CHIMPs)
#   peculiar velocity  (in km/s)
#   temperature (K)
#   HI number density
# pos=(144.271,224.884,247.068), angles=(1.65356,1.75563)
  0.00896    -64.5 1.066e+04 4.157e-10
  0.01833    -65.5 1.086e+04 5.073e-10
  0.02871    -65.4 1.097e+04 5.758e-10
  0.04865    -65.1 1.107e+04 6.510e-10
  0.06859    -64.8 1.126e+04 7.349e-10
  0.08852    -64.8 1.150e+04 8.336e-10
  0.10846    -64.9 1.180e+04 9.599e-10
  0.12149    -65.3 1.210e+04 1.126e-09
  0.12700    -66.3 1.217e+04 1.173e-09
  0.13391    -65.8 1.207e+04 1.112e-09
  0.14834    -66.2 1.233e+04 1.302e-09
  0.16828    -66.6 1.257e+04 1.501e-09
  0.18821    -66.8 1.277e+04 1.685e-09
  0.20815    -67.1 1.294e+04 1.804e-09
  0.22466    -67.4 1.301e+04 1.837e-09
  0.23463    -68.1 1.289e+04 1.708e-09
  0.24803    -68.5 1.282e+04 1.586e-09
  0.26797    -68.8 1.258e+04 1.325e-09
  0.28790    -69.1 1.222e+04 1.052e-09
  0.30784    -69.5 1.180e+04 8.330e-10
  0.32778    -69.9 1.141e+04 6.822e-10
  0.34772    -70.5 1.104e+04 5.942e-10
  0.36169    -70.4 1.100e+04 5.768e-10
  0.37166    -70.2 1.113e+04 5.753e-10
  0.38759    -70.1 1.111e+04 5.706e-10
  0.40753    -70.2 1.111e+04 5.721e-10
  0.42747    -70.3 1.122e+04 6.062e-10
  0.44096    -70.5 1.136e+04 6.767e-10
  0.45092    -70.5 1.140e+04 6.807e-10
  0.46734    -70.5 1.161e+04 7.761e-10
  0.48728    -70.6 1.182e+04 8.858e-10
  0.50722    -70.6 1.197e+04 9.961e-10
  0.52716    -70.6 1.206e+04 1.092e-09
  0.54412    -70.6 1.208e+04 1.156e-09
  0.55409    -70.8 1.228e+04 1.268e-09
  0.56703    -70.9 1.229e+04 1.324e-09
  0.58697    -70.9 1.229e+04 1.343e-09
  0.59944    -70.9 1.226e+04 1.342e-09
  0.60941    -70.8 1.182e+04 9.778e-10
  0.62685    -70.7 1.177e+04 9.845e-10
  0.64679    -70.6 1.164e+04 9.856e-10
  0.65725    -70.4 1.157e+04 9.643e-10
  0.66722    -71.0 1.185e+04 1.104e-09
  0.68666    -71.1 1.190e+04 1.062e-09
  0.70660    -71.4 1.196e+04 1.045e-09
  0.72654    -71.9 1.206e+04 1.040e-09
  0.74648    -72.6 1.221e+04 1.051e-09
  0.76042    -73.5 1.233e+04 1.094e-09
  0.77039    -75.3 1.249e+04 1.225e-09
  0.78635    -76.2 1.252e+04 1.276e-09
  0.80629    -77.3 1.254e+04 1.309e-09
  0.82623    -78.6 1.267e+04 1.330e-09
  0.83719    -80.2 1.300e+04 1.386e-09
  0.84716    -78.7 1.278e+04 1.503e-09
  0.86358    -80.1 1.295e+04 1.496e-09
  0.87355    -82.1 1.285e+04 1.340e-09
  0.88604    -83.9 1.301e+04 1.327e-09
  0.90598    -85.5 1.303e+04 1.382e-09
  0.92592    -86.6 1.272e+04 1.512e-09
  0.94586    -87.0 1.246e+04 1.601e-09
  0.96579    -87.0 1.230e+04 1.625e-09
  0.97672    -86.5 1.199e+04 1.573e-09
  0.98669    -86.9 1.185e+04 1.332e-09
  1.00567    -86.3 1.188e+04 1.075e-09
  1.02561    -86.1 1.194e+04 8.109e-10
  1.04554    -86.1 1.187e+04 6.069e-10
  1.06497    -86.3 1.155e+04 4.782e-10
  1.07494    -84.8 1.163e+04 6.084e-10
  1.07988    -84.9 1.154e+04 5.201e-10
  1.08985    -85.7 1.131e+04 5.217e-10
  1.10536    -85.5 1.120e+04 4.869e-10
  1.12530    -85.1 1.109e+04 4.659e-10
  1.14523    -84.7 1.102e+04 4.655e-10
  1.16517    -84.5 1.113e+04 4.867e-10
  1.18305    -84.4 1.134e+04 5.246e-10
  1.19302    -85.3 1.184e+04 6.840e-10
  1.20505    -85.6 1.224e+04 8.126e-10
  1.22499    -86.2 1.252e+04 1.010e-09
  1.24492    -86.6 1.265e+04 1.272e-09
  1.26486    -86.8 1.272e+04 1.572e-09
  1.28480    -86.8 1.275e+04 1.869e-09
  1.29618    -86.5 1.283e+04 2.020e-09
  1.30414    -87.1 1.311e+04 2.458e-09
  1.31269    -86.3 1.353e+04 2.744e-09
  1.32468    -86.0 1.354e+04 2.565e-09
  1.34461    -85.9 1.324e+04 2.055e-09
  1.36455    -86.1 1.291e+04 1.502e-09
  1.38449    -86.7 1.237e+04 1.012e-09
  1.39935    -87.3 1.170e+04 7.114e-10
  1.40932    -88.5 1.136e+04 6.376e-10
  1.43443    -87.6 1.107e+04 5.246e-10
  1.47441    -86.0 1.031e+04 3.432e-10
  1.50271    -84.7 9.949e+03 2.420e-10
  1.52264    -86.0 9.859e+03 2.244e-10
  1.54067    -84.8 9.689e+03 1.695e-10
  1.56061    -83.6 9.773e+03 2.013e-10
  1.59403    -82.5 9.653e+03 1.625e-10
  1.63391    -81.4 9.608e+03 1.464e-10
  1.67379    -80.5 9.608e+03 1.435e-10
  1.70904    -79.8 9.644e+03 1.447e-10
  1.72897    -80.5 9.611e+03 1.451e-10
  1.75354    -80.1 9.751e+03 1.686e-10
  1.79341    -79.8 9.885e+03 1.954e-10
  1.83329    -79.7 1.001e+04 2.172e-10
  1.87316    -79.7 1.016e+04 2.290e-10
  1.91304    -79.9 1.034e+04 2.380e-10
  1.93530    -80.3 1.048e+04 2.479e-10
  1.95524    -80.5 1.021e+04 1.803e-10
  1.99279    -80.6 1.030e+04 1.903e-10
  2.01617    -80.6 1.028e+04 2.062e-10
  2.03611    -79.7 1.006e+04 1.379e-10
  2.07254    -79.5 1.002e+04 1.354e-10
  2.11242    -78.9 9.932e+03 1.300e-10
  2.14163    -78.0 9.847e+03 1.218e-10
  2.16157    -77.9 9.757e+03 1.076e-10
  2.19217    -76.8 9.744e+03 1.057e-10
  2.23205    -75.7 9.762e+03 1.064e-10
  2.27192    -74.5 9.796e+03 1.090e-10
  2.31180    -73.4 9.857e+03 1.113e-10
  2.34796    -72.4 9.951e+03 1.137e-10
  2.36790    -72.7 9.950e+03 1.102e-10
  2.39155    -72.1 1.009e+04 1.151e-10
  2.43143    -71.7 1.026e+04 1.278e-10
  2.47130    -71.4 1.037e+04 1.535e-10
  2.49167    -71.1 1.042e+04 1.875e-10
  2.51161    -69.7 1.033e+04 1.298e-10
  2.55105    -69.1 1.033e+04 1.645e-10
  2.57423    -68.4 1.029e+04 1.852e-10
  2.59417    -68.6 1.023e+04 1.882e-10
  2.63081    -67.6 1.016e+04 1.841e-10
  2.67068    -66.4 1.003e+04 1.511e-10
  2.71056    -65.1 9.908e+03 1.142e-10
  2.75043    -63.8 9.806e+03 8.903e-11
  2.78056    -62.3 9.714e+03 7.594e-11
  2.80050    -62.3 9.600e+03 7.313e-11
  2.83019    -60.6 9.536e+03 7.005e-11
  2.87006    -58.8 9.528e+03 6.922e-11
  2.90994    -57.1 9.531e+03 6.925e-11
  2.94724    -55.5 9.638e+03 7.283e-11
  2.96717    -54.7 9.701e+03 7.958e-11
  2.98689    -53.3 9.756e+03 1.053e-10
  3.00683    -53.4 9.771e+03 1.248e-10
  3.02956    -51.9 9.914e+03 1.803e-10
  3.06944    -50.3 1.011e+04 2.388e-10
  3.10932    -48.9 1.025e+04 2.783e-10
  3.14919    -47.6 1.028e+04 2.888e-10
  3.18907    -46.2 1.026e+04 2.521e-10
  3.21316    -44.8 1.021e+04 1.949e-10
  3.23310    -45.0 1.020e+04 1.806e-10
  3.26882    -43.9 1.023e+04 1.487e-10
  3.30870    -43.0 1.025e+04 1.432e-10
  3.34857    -42.2 1.041e+04 1.582e-10
  3.38845    -41.6 1.056e+04 2.114e-10
  3.41949    -40.8 1.066e+04 2.610e-10
  3.43384    -41.3 1.067e+04 2.785e-10
  3.44268    -40.8 1.062e+04 2.328e-10
  3.46820    -40.1 1.063e+04 2.410e-10
  3.50808    -39.0 1.056e+04 2.146e-10
  3.54795    -37.8 1.052e+04 1.514e-10
  3.58783    -36.7 1.053e+04 1.077e-10
  3.62582    -35.7 1.053e+04 9.271e-11
  3.64576    -36.2 1.055e+04 1.053e-10
  3.66758    -34.9 1.055e+04 1.047e-10
  3.70745    -33.5 1.054e+04 1.115e-10
  3.74733    -32.0 1.052e+04 1.174e-10
  3.78721    -30.3 1.047e+04 1.169e-10
  3.82708    -28.6 1.041e+04 1.039e-10
  3.85209    -26.8 1.036e+04 8.298e-11
  3.87203    -27.1 1.036e+04 8.306e-11
  3.89824    -25.3 1.034e+04 6.394e-11
  3.91818    -25.1 1.030e+04 5.658e-11
  3.94671    -23.3 1.030e+04 4.535e-11
  3.98659    -21.4 1.030e+04 3.823e-11
  4.02646    -19.4 1.028e+04 3.407e-11
  4.05842    -17.3 1.027e+04 3.237e-11
  4.07836    -17.4 1.030e+04 3.508e-11
  4.10621    -15.2 1.030e+04 3.482e-11
  4.14609    -13.1 1.035e+04 3.587e-11
  4.18597    -11.0 1.036e+04 3.978e-11
  4.22584     -8.7 1.037e+04 4.541e-11
  4.26475     -6.4 1.041e+04 5.127e-11
  4.28469     -6.4 1.048e+04 5.327e-11
  4.30559     -4.1 1.055e+04 5.644e-11
  4.34547     -1.8 1.061e+04 5.813e-11
  4.37374      0.4 1.066e+04 5.910e-11
  4.39368      0.8 1.057e+04 6.363e-11
  4.42522      3.1 1.064e+04 6.047e-11
  4.46510      5.2 1.071e+04 5.735e-11
  4.49101      7.3 1.074e+04 5.684e-11
  4.51095      7.1 1.072e+04 7.261e-11
  4.54485      9.3 1.067e+04 8.182e-11
  4.58472     11.6 1.062e+04 9.212e-11
  4.62460     14.0 1.057e+04 1.017e-10
  4.66448     16.4 1.053e+04 1.080e-10
  4.69734     18.9 1.047e+04 1.093e-10
  4.71728     18.9 1.045e+04 1.208e-10
  4.74423     21.3 1.041e+04 1.061e-10
  4.78410     23.6 1.037e+04 9.386e-11
  4.82398     25.7 1.034e+04 8.530e-11
  4.84924     27.7 1.032e+04 8.342e-11
  4.86918     28.2 1.034e+04 9.587e-11
  4.90367     30.3 1.014e+04 1.102e-10
  4.94355     32.9 9.953e+03 1.457e-10
  4.98348     35.7 9.971e+03 1.522e-10
  5.02336     38.1 1.002e+04 1.369e-10
  5.06323     40.1 1.005e+04 1.250e-10
  5.10311     42.0 1.004e+04 1.267e-10
  5.12994     43.9 1.002e+04 1.358e-10
  5.14988     44.0 9.929e+03 1.249e-10
  5.18286     45.9 9.971e+03 1.342e-10
  5.22274     47.6 1.002e+04 1.592e-10
  5.26261     49.3 1.006e+04 2.008e-10
  5.30249     51.1 1.016e+04 2.496e-10
  5.32474     52.6 1.030e+04 2.984e-10
  5.33859     52.7 1.019e+04 2.655e-10
  5.35621     52.8 1.008e+04 2.514e-10
  5.38224     54.0 1.024e+04 3.293e-10
  5.42212     55.0 1.053e+04 4.757e-10
  5.46199     55.8 1.089e+04 6.817e-10
  5.50187     56.0 1.119e+04 8.709e-10
  5.54174     55.9 1.127e+04 9.570e-10
  5.56254     55.5 1.114e+04 8.637e-10
  5.58248     55.5 1.129e+04 9.713e-10
  5.62150     54.6 1.105e+04 8.559e-10
  5.66137     53.9 1.059e+04 7.203e-10
  5.70125     54.2 1.005e+04 5.646e-10
  5.74112     55.4 9.366e+03 3.154e-10
  5.76887     56.1 8.828e+03 1.509e-10
  5.78811     56.2 8.693e+03 1.379e-10
  5.80024     57.1 8.814e+03 1.610e-10
  5.82088     57.5 8.381e+03 9.079e-11
  5.86075     58.3 8.129e+03 6.244e-11
  5.90063     59.5 7.944e+03 5.281e-11
  5.94050     61.3 7.870e+03 5.218e-11
  5.97520     63.0 7.905e+03 5.491e-11
  5.99514     63.5 7.889e+03 5.803e-11
  6.02026     64.9 7.976e+03 7.030e-11
  6.06013     66.2 8.031e+03 9.140e-11
  6.10001     67.6 8.199e+03 1.181e-10
  6.13988     69.0 8.350e+03 1.475e-10
  6.17976     70.3 8.481e+03 1.640e-10
  6.20147     71.2 8.602e+03 1.761e-10
  6.22141     71.7 8.594e+03 1.759e-10
  6.25581     72.4 8.750e+03 2.040e-10
  6.27574     73.8 8.322e+03 1.424e-10
  6.29939     74.7 8.452e+03 1.616e-10
  6.33926     75.8 8.514e+03 1.804e-10
  6.37914     77.0 8.545e+03 1.921e-10
  6.40780     78.1 8.621e+03 2.053e-10
  6.42774     78.4 8.885e+03 2.646e-10
  6.45889     79.5 9.043e+03 2.926e-10
  6.49877     80.6 9.187e+03 3.203e-10
  6.53864     81.8 9.196e+03 3.206e-10
  6.57852     83.0 9.084e+03 2.943e-10
  6.61413     84.2 8.867e+03 2.485e-10
  6.63407     84.2 8.925e+03 2.604e-10
  6.65827     85.1 8.715e+03 2.259e-10
  6.69815     86.2 8.548e+03 2.086e-10
  6.73131     87.6 8.420e+03 1.961e-10
  6.75125     88.5 8.442e+03 2.011e-10
  6.77790     90.0 8.328e+03 1.855e-10
  6.81777     91.4 8.230e+03 1.692e-10
  6.84040     92.9 8.171e+03 1.600e-10
  6.86033     92.6 8.223e+03 1.761e-10
  6.89752     94.0 8.230e+03 1.776e-10
  6.93740     95.3 8.290e+03 1.881e-10
  6.97728     96.4 8.464e+03 2.207e-10
  7.01715     97.4 8.715e+03 2.725e-10
  7.04673     98.4 8.956e+03 3.323e-10
  7.06666     98.2 8.939e+03 3.292e-10
  7.09690     99.0 8.996e+03 3.392e-10
  7.13678     99.6 8.954e+03 3.273e-10
  7.17666    100.3 8.805e+03 2.869e-10
  7.20681    101.1 8.599e+03 2.395e-10
  7.22675    102.4 8.513e+03 2.303e-10
  7.25305    103.3 8.350e+03 1.992e-10
  7.27299    103.0 8.287e+03 1.929e-10
  7.29628    104.0 8.177e+03 1.744e-10
  7.33616    105.3 8.091e+03 1.594e-10
  7.37603    106.6 8.028e+03 1.459e-10
  7.41591    108.0 8.019e+03 1.366e-10
  7.45579    109.4 8.042e+03 1.355e-10
  7.47932    110.7 8.094e+03 1.378e-10
  7.49926    110.5 8.092e+03 1.376e-10
  7.53554    111.5 8.193e+03 1.441e-10
  7.57541    112.4 8.329e+03 1.575e-10
  7.61529    113.2 8.581e+03 1.840e-10
  7.65517    114.0 8.876e+03 2.279e-10
  7.68231    114.7 9.141e+03 2.703e-10
  7.69286    116.4 8.977e+03 2.520e-10
  7.70559    115.9 9.051e+03 2.656e-10
  7.73492    116.5 9.305e+03 2.911e-10
  7.77479    117.0 9.484e+03 2.992e-10
  7.81467    116.8 9.722e+03 3.096e-10
  7.85455    116.2 1.003e+04 3.482e-10
  7.88435    114.7 1.033e+04 4.758e-10
  7.90176    114.4 1.058e+04 6.561e-10
  7.91173    114.0 1.067e+04 7.248e-10
  7.91987    114.1 1.087e+04 8.456e-10
  7.92983    114.8 1.098e+04 9.454e-10
  7.94407    114.9 1.104e+04 9.582e-10
  7.96401    115.0 1.099e+04 8.958e-10
  7.98395    114.6 1.085e+04 7.026e-10
  8.01395    113.5 1.032e+04 4.082e-10
  8.05392    112.2 9.475e+03 2.333e-10
  8.09380    111.3 9.024e+03 1.982e-10
  8.11825    111.1 9.060e+03 2.016e-10
  8.13819    109.1 9.132e+03 2.083e-10
  8.15781    108.8 9.385e+03 2.415e-10
  8.17775    109.9 9.131e+03 2.246e-10
  8.21343    109.5 9.417e+03 2.785e-10
  8.25330    109.2 9.728e+03 3.318e-10
  8.29318    108.7 9.860e+03 3.281e-10
  8.32458    107.4 9.942e+03 3.002e-10
  8.34452    104.8 9.845e+03 2.592e-10
  8.37293    103.5 9.964e+03 2.710e-10
  8.39546    102.7 1.029e+04 3.320e-10
  8.40534    102.9 1.018e+04 3.139e-10
  8.42258    100.9 1.071e+04 4.272e-10
  8.43752     97.4 1.197e+04 8.189e-10
  8.44749     94.8 1.247e+04 1.171e-09
  8.46246     93.6 1.277e+04 1.631e-09
  8.48239     92.3 1.320e+04 2.131e-09
  8.50233     90.7 1.347e+04 2.319e-09
  8.52227     89.3 1.340e+04 2.174e-09
  8.54068     87.5 1.320e+04 1.622e-09
  8.55075     86.5 1.282e+04 1.125e-09
  8.57231     80.4 1.145e+04 3.081e-10
  8.61219     71.9 9.308e+03 1.575e-10
  8.63331     66.9 8.982e+03 1.770e-10
  8.65325     65.9 9.036e+03 1.798e-10
  8.69194     64.3 9.431e+03 2.431e-10
  8.72175     64.0 9.507e+03 2.629e-10
  8.74159     62.9 9.921e+03 3.145e-10
  8.75698     61.1 1.050e+04 4.209e-10
  8.76695     61.5 1.040e+04 3.852e-10
  8.78146     57.3 1.175e+04 7.151e-10
  8.80140     53.3 1.252e+04 1.549e-09
  8.82134     52.8 1.310e+04 2.907e-09
  8.84128     52.7 1.366e+04 3.560e-09
  8.86015     52.7 1.367e+04 3.105e-09
  8.86980     53.7 1.307e+04 2.596e-09
  8.87087     53.4 1.368e+04 3.037e-09
  8.88115     50.8 1.477e+04 2.108e-09
  8.90109     45.5 1.396e+04 1.351e-09
  8.92103     40.7 1.199e+04 1.057e-09
  8.94097     39.9 1.162e+04 1.100e-09
  8.96091     40.0 1.182e+04 1.179e-09
  8.97328     40.0 1.204e+04 1.227e-09
  8.98325     41.1 1.182e+04 1.119e-09
  9.00078     40.8 1.203e+04 1.147e-09
  9.02072     40.5 1.194e+04 1.201e-09
  9.04066     40.6 1.187e+04 1.240e-09
  9.06060     41.0 1.190e+04 1.235e-09
  9.07645     41.6 1.191e+04 1.218e-09
  9.08642     42.0 1.178e+04 1.157e-09
  9.09865     42.5 1.175e+04 1.096e-09
  9.10862     42.1 1.179e+04 1.115e-09
  9.12041     42.7 1.154e+04 9.833e-10
  9.14035     43.5 1.127e+04 8.263e-10
  9.16028     44.4 1.103e+04 6.713e-10
  9.17961     45.0 1.090e+04 5.450e-10
  9.18958     45.3 1.077e+04 5.369e-10
  9.20016     45.6 1.085e+04 4.044e-10
  9.22010     45.7 1.079e+04 3.700e-10
  9.25010     46.9 1.030e+04 3.151e-10
  9.29008     49.1 9.844e+03 3.018e-10
  9.32995     52.1 9.582e+03 2.527e-10
  9.36983     54.5 9.488e+03 2.058e-10
  9.39611     56.7 9.399e+03 1.715e-10
  9.41604     57.0 9.361e+03 1.726e-10
  9.44958     59.3 9.328e+03 1.687e-10
  9.48946     61.4 9.401e+03 1.809e-10
  9.52933     63.6 9.567e+03 2.161e-10
  9.56438     65.9 9.857e+03 2.782e-10
  9.58431     66.0 9.616e+03 2.429e-10
  9.60244     68.3 9.901e+03 3.088e-10
  9.62237     68.3 9.960e+03 3.329e-10
  9.64896     70.2 1.028e+04 4.342e-10
  9.68884     71.9 1.061e+04 5.670e-10
  9.72871     73.5 1.102e+04 7.421e-10
  9.76859     75.1 1.143e+04 9.520e-10
  9.80846     76.4 1.186e+04 1.172e-09
  9.82870     77.6 1.187e+04 1.183e-09
  9.84864     77.6 1.103e+04 6.692e-10
  9.88821     79.0 1.092e+04 6.194e-10
  9.92809     80.7 1.062e+04 5.207e-10
  9.96797     82.6 1.031e+04 4.287e-10
 10.00784     84.6 1.007e+04 3.638e-10
 10.03503     86.9 9.898e+03 3.174e-10
 10.04713     87.0 9.277e+03 1.797e-10
 10.05982     87.0 9.279e+03 1.858e-10
 10.08759     89.5 9.193e+03 1.622e-10
 10.12747     92.0 9.133e+03 1.410e-10
 10.16735     94.5 9.073e+03 1.275e-10
 10.20722     97.0 9.005e+03 1.197e-10
 10.24136     99.5 8.963e+03 1.162e-10
 10.26130     99.5 8.711e+03 8.764e-11
 10.28697    102.1 8.738e+03 9.192e-11
 10.32685    104.7 8.764e+03 9.812e-11
 10.36673    107.4 8.797e+03 1.058e-10
 10.40660    110.2 8.842e+03 1.137e-10
 10.44648    112.9 8.912e+03 1.195e-10
 10.46763    115.7 8.992e+03 1.215e-10
 10.48757    115.8 8.938e+03 1.115e-10
 10.51538    118.5 8.953e+03 1.109e-10
 10.53532    118.9 8.997e+03 1.196e-10
 10.56610    121.6 9.019e+03 1.159e-10
 10.60598    124.3 9.039e+03 1.093e-10
 10.64586    126.9 9.060e+03 1.019e-10
 10.67396    129.5 9.084e+03 9.549e-11
 10.69390    129.5 8.960e+03 7.843e-11
 10.72561    132.1 8.968e+03 7.324e-11
 10.76548    134.7 8.971e+03 7.277e-11
 10.80536    137.3 8.985e+03 7.367e-11
 10.84524    140.0 9.034e+03 7.806e-11
 10.88029    142.6 9.116e+03 8.900e-11
 10.90023    142.6 8.996e+03 7.010e-11
 10.92499    145.2 9.107e+03 8.211e-11
 10.96486    147.7 9.247e+03 9.929e-11
 10.99088    150.2 9.422e+03 1.217e-10
 11.01082    151.0 9.422e+03 1.385e-10
 11.04462    153.4 9.637e+03 1.712e-10
 11.08449    155.7 9.877e+03 2.055e-10
 11.10656    157.7 1.011e+04 2.331e-10
 11.12650    157.0 9.750e+03 1.207e-10
 11.16424    158.7 9.825e+03 1.201e-10
 11.20412    160.3 9.852e+03 1.198e-10
 11.24399    161.8 9.826e+03 1.202e-10
 11.28387    163.4 9.793e+03 1.237e-10
 11.31289    165.0 9.836e+03 1.314e-10
 11.33283    164.7 9.806e+03 1.287e-10
 11.36362    166.3 9.935e+03 1.416e-10
 11.40350    167.7 1.004e+04 1.535e-10
 11.44337    169.0 1.016e+04 1.711e-10
 11.46638    170.1 1.031e+04 1.974e-10
 11.48632    170.9 1.010e+04 1.707e-10
 11.51922    172.1 1.027e+04 2.102e-10
 11.53916    171.8 1.026e+04 1.990e-10
 11.56300    172.9 1.040e+04 2.430e-10
 11.60288    174.1 1.057e+04 2.951e-10
 11.64275    175.3 1.070e+04 3.342e-10
 11.68263    176.4 1.073e+04 3.391e-10
 11.72250    177.5 1.070e+04 3.239e-10
 11.74549    178.6 1.060e+04 2.797e-10
 11.76542    178.7 1.026e+04 1.954e-10
 11.80226    179.7 1.011e+04 1.625e-10
 11.84213    180.7 9.987e+03 1.494e-10
 11.88201    181.5 9.953e+03 1.553e-10
 11.92188    182.3 1.004e+04 1.804e-10
 11.95182    183.3 1.035e+04 2.324e-10
 11.97175    183.7 1.038e+04 2.453e-10
 12.00164    184.1 1.059e+04 2.987e-10
 12.04151    184.4 1.070e+04 3.377e-10
 12.08139    184.6 1.070e+04 3.438e-10
 12.12126    184.8 1.063e+04 3.332e-10
 12.15815    184.9 1.039e+04 2.919e-10
 12.17808    185.5 1.077e+04 3.841e-10
 12.20102    185.5 1.045e+04 3.066e-10
 12.24089    185.4 1.012e+04 2.211e-10
 12.28077    185.2 9.856e+03 1.587e-10
 12.32064    184.7 9.709e+03 1.375e-10
 12.36052    184.5 9.725e+03 1.406e-10
 12.38441    184.1 9.805e+03 1.549e-10
 12.40140    185.0 9.821e+03 1.491e-10
 12.41738    184.2 9.787e+03 1.480e-10
 12.44027    183.5 9.891e+03 1.588e-10
 12.48015    182.9 1.000e+04 1.637e-10
 12.50996    182.8 1.002e+04 1.618e-10
 12.52980    182.9 1.004e+04 1.629e-10
 12.54973    182.2 1.031e+04 1.780e-10
 12.56967    179.3 1.146e+04 2.628e-10
 12.58961    175.0 1.321e+04 6.794e-10
 12.60052    171.4 1.443e+04 1.834e-09
 12.61049    174.2 1.369e+04 1.012e-09
 12.62949    171.2 1.479e+04 2.520e-09
 12.64497    169.0 1.576e+04 4.614e-09
 12.65494    166.8 1.646e+04 5.940e-09
 12.66936    164.5 1.700e+04 6.033e-09
 12.68930    161.6 1.703e+04 5.234e-09
 12.70368    158.2 1.650e+04 3.439e-09
 12.71365    161.1 1.706e+04 4.766e-09
 12.72918    157.6 1.602e+04 2.940e-09
 12.74911    154.4 1.407e+04 1.678e-09
 12.76905    151.6 1.207e+04 1.056e-09
 12.78899    149.8 1.113e+04 7.921e-10
 12.80685    148.5 1.081e+04 6.436e-10
 12.81682    150.1 1.100e+04 7.248e-10
 12.82887    148.8 1.070e+04 6.050e-10
 12.84880    147.8 1.063e+04 5.921e-10
 12.86874    146.9 1.067e+04 6.028e-10
 12.88272    145.4 1.088e+04 6.683e-10
 12.89269    144.4 1.081e+04 6.111e-10
 12.90862    141.2 1.178e+04 9.432e-10
 12.91998    137.1 1.333e+04 1.881e-09
 12.92995    138.8 1.319e+04 1.753e-09
 12.94849    135.2 1.445e+04 3.385e-09
 12.96843    132.4 1.517e+04 4.465e-09
 12.98837    129.4 1.524e+04 4.262e-09
 13.00831    126.2 1.526e+04 3.085e-09
 13.02315    121.3 1.503e+04 1.552e-09
 13.03311    123.7 1.513e+04 1.766e-09
 13.04818    116.9 1.399e+04 8.010e-10
 13.06812    110.4 1.153e+04 5.212e-10
 13.08806    107.2 1.073e+04 4.810e-10
 13.10800    105.8 1.066e+04 4.369e-10
 13.12047    105.1 1.061e+04 4.062e-10
 13.12882    105.2 1.063e+04 4.125e-10
