# Columns:
#   distance along LOS (in CHIMPs)
#   peculiar velocity  (in km/s)
#   temperature (K)
#   HI number density
# pos=(205.257,103.107,225.281), angles=(1.65138,0.215864)
  0.01968      7.1 9.746e+03 4.313e-10
  0.04979      8.7 9.900e+03 5.425e-10
  0.06985      8.7 9.751e+03 4.740e-10
  0.09216      9.8 1.004e+04 5.033e-10
  0.11212      8.8 1.078e+04 8.841e-10
  0.12944      8.7 1.076e+04 9.667e-10
  0.14950      9.2 1.068e+04 1.044e-09
  0.16957      9.8 1.057e+04 1.062e-09
  0.18786     10.8 1.042e+04 1.080e-09
  0.19789     10.9 1.049e+04 1.108e-09
  0.20969     11.0 1.113e+04 9.369e-10
  0.22975     10.6 1.135e+04 8.892e-10
  0.24981      9.8 1.137e+04 7.829e-10
  0.26987      9.3 1.094e+04 6.937e-10
  0.28375      9.2 1.039e+04 6.485e-10
  0.29378      7.0 1.040e+04 7.670e-10
  0.30130      7.2 1.036e+04 7.586e-10
  0.31133      7.3 1.029e+04 7.308e-10
  0.34018      7.5 1.025e+04 7.163e-10
  0.38039      8.2 1.030e+04 7.729e-10
  0.42052      9.6 1.062e+04 9.480e-10
  0.45567     11.8 1.086e+04 1.081e-09
  0.47573     10.2 1.133e+04 1.199e-09
  0.50076     11.8 1.133e+04 1.170e-09
  0.53075     13.9 1.107e+04 1.054e-09
  0.54297     14.4 1.122e+04 1.105e-09
  0.55300     15.2 1.103e+04 9.950e-10
  0.56140     15.9 1.093e+04 1.012e-09
  0.57143     15.0 1.105e+04 1.080e-09
  0.59083     15.8 1.103e+04 1.113e-09
  0.61089     16.7 1.127e+04 1.210e-09
  0.63095     16.4 1.184e+04 1.416e-09
  0.64726     16.3 1.227e+04 1.730e-09
  0.65729     15.6 1.230e+04 1.812e-09
  0.67108     16.0 1.246e+04 2.179e-09
  0.69114     16.5 1.279e+04 2.740e-09
  0.71120     16.4 1.353e+04 3.532e-09
  0.73126     15.5 1.488e+04 4.911e-09
  0.74315     14.7 1.543e+04 5.923e-09
  0.75318     13.8 1.503e+04 5.180e-09
  0.77138     13.9 1.452e+04 5.296e-09
  0.78465     15.3 1.376e+04 4.545e-09
  0.79468     15.8 1.342e+04 3.706e-09
  0.81150     16.8 1.282e+04 2.332e-09
  0.82901     16.5 1.238e+04 1.204e-09
  0.83904     15.0 1.187e+04 8.987e-10
  0.86175     13.1 1.047e+04 4.050e-10
  0.90197     10.1 8.703e+03 1.887e-10
  0.94209     10.1 8.363e+03 1.630e-10
  0.98221     11.3 8.245e+03 1.621e-10
  1.01096     12.8 8.232e+03 1.597e-10
  1.02518     12.8 8.203e+03 1.517e-10
  1.03654     13.0 8.221e+03 1.590e-10
  1.06245     13.9 8.292e+03 1.627e-10
  1.10257     15.0 8.348e+03 1.673e-10
  1.14269     16.0 8.367e+03 1.619e-10
  1.18269     16.9 8.426e+03 1.622e-10
  1.22281     17.0 8.433e+03 1.582e-10
  1.26305     18.0 8.468e+03 1.592e-10
  1.30317     19.5 8.441e+03 1.571e-10
  1.34329     21.2 8.384e+03 1.529e-10
  1.37447     23.1 8.365e+03 1.501e-10
  1.39453     22.4 8.341e+03 1.374e-10
  1.42354     24.2 8.368e+03 1.370e-10
  1.46366     25.8 8.460e+03 1.464e-10
  1.49983     27.4 8.579e+03 1.711e-10
  1.51989     27.4 8.729e+03 1.774e-10
  1.54390     28.9 8.957e+03 2.159e-10
  1.56616     30.2 9.076e+03 2.526e-10
  1.57609     29.0 9.143e+03 2.658e-10
  1.59385     29.7 9.342e+03 3.039e-10
  1.61391     29.6 9.716e+03 3.676e-10
  1.63398     29.0 1.055e+04 5.106e-10
  1.65192     28.1 1.158e+04 7.616e-10
  1.66196     25.6 1.261e+04 1.227e-09
  1.67410     25.7 1.283e+04 1.698e-09
  1.69416     26.8 1.263e+04 1.975e-09
  1.71422     27.9 1.256e+04 2.059e-09
  1.73428     29.6 1.239e+04 1.716e-09
  1.74782     29.6 1.237e+04 1.563e-09
  1.75485     28.8 1.244e+04 1.522e-09
  1.76137     28.3 1.289e+04 1.614e-09
  1.78453     29.0 1.191e+04 8.853e-10
  1.82474     29.3 1.103e+04 5.392e-10
  1.86487     30.2 1.059e+04 4.407e-10
  1.90499     31.8 1.033e+04 4.300e-10
  1.92977     33.9 1.024e+04 4.413e-10
  1.94983     32.9 1.034e+04 4.621e-10
  1.98318     35.2 1.025e+04 4.384e-10
  2.00324     34.4 1.031e+04 4.331e-10
  2.02535     36.7 1.019e+04 3.805e-10
  2.06547     38.8 1.005e+04 3.172e-10
  2.10149     40.9 9.819e+03 2.585e-10
  2.12155     39.8 9.751e+03 2.422e-10
  2.14571     41.9 9.506e+03 1.990e-10
  2.18583     44.0 9.324e+03 1.644e-10
  2.22595     46.1 9.202e+03 1.386e-10
  2.26607     48.0 9.106e+03 1.212e-10
  2.29328     49.9 9.106e+03 1.168e-10
  2.31334     48.6 9.293e+03 1.329e-10
  2.34632     50.3 9.361e+03 1.476e-10
  2.38644     51.8 9.496e+03 1.764e-10
  2.42656     53.2 9.673e+03 2.183e-10
  2.46500     54.4 9.879e+03 2.749e-10
  2.48491     53.1 1.004e+04 3.146e-10
  2.50664     53.7 1.029e+04 4.032e-10
  2.54692     54.8 1.025e+04 4.030e-10
  2.58704     55.7 1.015e+04 3.758e-10
  2.62716     56.4 9.954e+03 3.094e-10
  2.65679     56.8 9.666e+03 2.337e-10
  2.67685     55.5 9.334e+03 1.599e-10
  2.70740     55.9 9.225e+03 1.463e-10
  2.74752     56.5 9.168e+03 1.363e-10
  2.78764     57.1 9.080e+03 1.330e-10
  2.82776     57.9 9.040e+03 1.346e-10
  2.84857     58.9 9.007e+03 1.354e-10
  2.86863     57.8 9.082e+03 1.590e-10
  2.90801     58.9 8.955e+03 1.428e-10
  2.94813     60.1 8.843e+03 1.285e-10
  2.96993     61.5 8.678e+03 1.128e-10
  2.98999     61.5 8.669e+03 1.131e-10
  3.02030     63.0 8.534e+03 9.984e-11
  3.04036     61.9 8.479e+03 8.887e-11
  3.06849     63.5 8.372e+03 7.864e-11
  3.10861     65.2 8.290e+03 7.148e-11
  3.14873     67.0 8.236e+03 6.736e-11
  3.18885     68.8 8.207e+03 6.595e-11
  3.21208     70.7 8.179e+03 6.660e-11
  3.23214     70.0 8.202e+03 6.976e-11
  3.26909     71.9 8.186e+03 7.399e-11
  3.30921     74.0 8.176e+03 7.961e-11
  3.34934     76.0 8.201e+03 8.751e-11
  3.38381     78.1 8.244e+03 9.870e-11
  3.40387     77.4 8.250e+03 9.935e-11
  3.42958     79.5 8.304e+03 1.124e-10
  3.45327     81.6 8.371e+03 1.297e-10
  3.47333     81.7 8.353e+03 1.313e-10
  3.50982     83.8 8.433e+03 1.515e-10
  3.54994     86.0 8.536e+03 1.739e-10
  3.57559     88.1 8.649e+03 1.957e-10
  3.59565     87.3 8.579e+03 1.754e-10
  3.63018     89.4 8.634e+03 1.835e-10
  3.67030     91.4 8.634e+03 1.835e-10
  3.71042     93.4 8.610e+03 1.816e-10
  3.74732     95.5 8.555e+03 1.750e-10
  3.76738     95.2 8.529e+03 1.641e-10
  3.79066     97.5 8.461e+03 1.532e-10
  3.83079    100.0 8.393e+03 1.427e-10
  3.87091    102.5 8.344e+03 1.342e-10
  3.91103    105.1 8.331e+03 1.286e-10
  3.93662    107.8 8.329e+03 1.260e-10
  3.94463    108.1 8.303e+03 1.264e-10
  3.95916    107.8 8.330e+03 1.240e-10
  3.99127    110.5 8.332e+03 1.253e-10
  4.03139    113.1 8.343e+03 1.280e-10
  4.07151    115.8 8.359e+03 1.318e-10
  4.11083    118.5 8.370e+03 1.372e-10
  4.13089    118.2 8.447e+03 1.474e-10
  4.15175    120.9 8.485e+03 1.579e-10
  4.19187    123.6 8.533e+03 1.704e-10
  4.23199    126.3 8.604e+03 1.857e-10
  4.27211    129.0 8.712e+03 2.050e-10
  4.30261    131.6 8.856e+03 2.285e-10
  4.32267    131.0 9.011e+03 2.497e-10
  4.35236    133.5 9.184e+03 2.767e-10
  4.39248    135.7 9.364e+03 3.031e-10
  4.41997    137.9 9.512e+03 3.249e-10
  4.44003    137.3 9.884e+03 4.431e-10
  4.46259    139.1 9.818e+03 4.175e-10
  4.48255    140.0 9.839e+03 4.210e-10
  4.49420    141.3 9.885e+03 4.351e-10
  4.50423    141.0 9.901e+03 4.481e-10
  4.52267    142.0 9.937e+03 4.599e-10
  4.54273    143.6 1.006e+04 4.901e-10
  4.56280    144.6 1.018e+04 5.215e-10
  4.58006    145.6 1.031e+04 5.590e-10
  4.59009    145.3 1.040e+04 5.904e-10
  4.60292    146.2 1.061e+04 6.580e-10
  4.62298    147.0 1.085e+04 7.443e-10
  4.64304    147.8 1.113e+04 8.551e-10
  4.66144    148.5 1.145e+04 9.970e-10
  4.67147    147.7 1.177e+04 1.178e-09
  4.67596    148.3 1.206e+04 1.342e-09
  4.68599    147.8 1.208e+04 1.359e-09
  4.70322    148.4 1.231e+04 1.491e-09
  4.72328    148.9 1.242e+04 1.550e-09
  4.74334    149.3 1.242e+04 1.538e-09
  4.76182    149.6 1.238e+04 1.482e-09
  4.77185    149.3 1.221e+04 1.334e-09
  4.79359    150.8 1.225e+04 1.327e-09
  4.83381    151.9 1.192e+04 1.046e-09
  4.85791    152.8 1.153e+04 7.686e-10
  4.87797    152.2 1.148e+04 7.460e-10
  4.90331    153.2 1.156e+04 7.574e-10
  4.92337    152.4 1.096e+04 5.940e-10
  4.95417    153.3 1.114e+04 5.824e-10
  4.99429    154.2 1.148e+04 6.228e-10
  5.02963    155.1 1.195e+04 7.114e-10
  5.04969    154.7 1.278e+04 1.152e-09
  5.06440    154.8 1.305e+04 1.241e-09
  5.08437    154.5 1.342e+04 1.510e-09
  5.10443    154.3 1.375e+04 1.974e-09
  5.12449    154.2 1.407e+04 2.584e-09
  5.13536    154.0 1.446e+04 3.366e-09
  5.14539    153.4 1.500e+04 4.549e-09
  5.15482    153.4 1.552e+04 5.841e-09
  5.16485    152.7 1.556e+04 5.460e-09
  5.18467    153.1 1.604e+04 7.086e-09
  5.20473    153.7 1.634e+04 8.255e-09
  5.22122    154.3 1.654e+04 8.615e-09
  5.23125    153.9 1.676e+04 9.368e-09
  5.24485    154.5 1.650e+04 8.058e-09
  5.26491    155.3 1.598e+04 5.940e-09
  5.28497    155.9 1.531e+04 3.902e-09
  5.30503    156.0 1.454e+04 2.435e-09
  5.31711    155.7 1.374e+04 1.567e-09
  5.32714    154.1 1.287e+04 1.061e-09
  5.34515    153.7 1.225e+04 8.878e-10
  5.36521    153.9 1.197e+04 8.600e-10
  5.38527    154.8 1.193e+04 8.523e-10
  5.39649    156.1 1.194e+04 8.566e-10
  5.40426    155.5 1.177e+04 7.581e-10
  5.41320    155.5 1.146e+04 7.010e-10
  5.43562    157.7 1.155e+04 7.492e-10
  5.47574    159.4 1.183e+04 8.647e-10
  5.51586    160.6 1.194e+04 9.416e-10
  5.55598    161.4 1.189e+04 9.263e-10
  5.58493    162.4 1.162e+04 8.249e-10
  5.60499    162.6 1.150e+04 8.389e-10
  5.63622    163.9 1.093e+04 6.250e-10
  5.67634    165.2 1.023e+04 4.267e-10
  5.71646    167.3 1.003e+04 3.243e-10
  5.74646    168.3 9.920e+03 2.971e-10
  5.76642    169.2 9.874e+03 2.933e-10
  5.78648    169.8 9.887e+03 3.092e-10
  5.80654    170.5 9.900e+03 3.184e-10
  5.82660    171.3 9.969e+03 3.444e-10
  5.84666    172.0 1.013e+04 3.859e-10
  5.86238    172.6 1.037e+04 4.385e-10
  5.87241    172.5 1.053e+04 4.631e-10
  5.87984    173.1 1.079e+04 5.223e-10
  5.88987    173.5 1.005e+04 4.340e-10
  5.90684    174.0 1.021e+04 4.686e-10
  5.92690    174.5 1.037e+04 4.994e-10
  5.94696    175.0 1.050e+04 5.271e-10
  5.95827    175.5 1.059e+04 5.531e-10
  5.96830    175.5 1.048e+04 5.247e-10
  5.98708    176.2 1.050e+04 5.537e-10
  6.00714    176.9 1.048e+04 5.787e-10
  6.02721    177.6 1.048e+04 5.959e-10
  6.04413    178.4 1.046e+04 6.076e-10
  6.05416    178.7 1.038e+04 5.851e-10
  6.06733    179.6 1.034e+04 5.896e-10
  6.08739    180.4 1.032e+04 5.960e-10
  6.10745    181.3 1.033e+04 6.081e-10
  6.12151    182.2 1.037e+04 6.279e-10
  6.13154    182.5 1.018e+04 5.261e-10
  6.14003    183.4 1.026e+04 5.564e-10
  6.15006    184.0 1.021e+04 5.279e-10
  6.16763    184.9 1.030e+04 5.639e-10
  6.18769    185.9 1.040e+04 6.056e-10
  6.20775    186.9 1.053e+04 6.510e-10
  6.22589    187.8 1.065e+04 6.971e-10
  6.23592    188.7 1.048e+04 6.434e-10
  6.24787    189.7 1.056e+04 6.785e-10
  6.26793    190.6 1.068e+04 7.136e-10
  6.28799    191.6 1.085e+04 7.616e-10
  6.30805    192.4 1.106e+04 8.279e-10
  6.32178    192.7 1.132e+04 8.866e-10
  6.33181    193.7 1.281e+04 7.918e-10
  6.34817    192.7 1.801e+04 7.813e-10
  6.36318    189.7 2.409e+04 1.194e-09
  6.37321    194.0 1.164e+04 9.887e-10
  6.38829    190.7 1.488e+04 1.455e-09
  6.40764    184.1 2.136e+04 2.877e-09
  6.41767    183.7 2.295e+04 5.191e-09
  6.42335    178.4 2.668e+04 7.398e-09
  6.43333    173.0 2.835e+04 1.342e-08
  6.44336    168.6 2.740e+04 2.601e-08
  6.45339    166.0 2.579e+04 4.251e-08
  6.46051    164.6 2.437e+04 5.577e-08
  6.46552    162.7 2.373e+04 1.191e-07
  6.47345    162.4 2.355e+04 1.099e-07
  6.48348    162.4 2.364e+04 8.691e-08
  6.48894    162.6 2.372e+04 6.550e-08
  6.49395    164.2 2.380e+04 6.223e-08
  6.50344    164.2 2.373e+04 4.831e-08
  6.50845    163.0 2.435e+04 6.422e-08
  6.51357    163.1 2.404e+04 4.657e-08
  6.52360    163.1 2.352e+04 3.419e-08
  6.53363    163.0 2.289e+04 2.603e-08
  6.54366    163.1 2.222e+04 2.161e-08
  6.55138    163.1 2.165e+04 1.882e-08
  6.55640    162.2 2.152e+04 2.025e-08
  6.56879    161.7 2.034e+04 1.561e-08
  6.58890    161.1 1.916e+04 1.354e-08
  6.59943    160.8 1.871e+04 1.293e-08
  6.60536    160.8 1.928e+04 1.493e-08
  6.61489    162.3 2.040e+04 2.029e-08
  6.62902    162.0 2.031e+04 2.029e-08
  6.64908    161.9 2.029e+04 2.062e-08
  6.66914    161.6 2.029e+04 2.053e-08
  6.68529    161.0 2.022e+04 1.961e-08
  6.69532    160.7 2.017e+04 1.957e-08
  6.70926    160.1 1.960e+04 1.584e-08
  6.72932    159.6 1.872e+04 1.171e-08
  6.74938    158.9 1.765e+04 8.312e-09
  6.76944    157.8 1.662e+04 5.709e-09
  6.78118    156.2 1.555e+04 3.765e-09
  6.79121    155.8 1.501e+04 3.198e-09
  6.80956    153.9 1.407e+04 2.175e-09
  6.82962    152.2 1.317e+04 1.528e-09
  6.84653    150.7 1.238e+04 1.138e-09
  6.85656    150.1 1.197e+04 1.001e-09
  6.86705    149.3 1.172e+04 9.088e-10
  6.87708    149.7 1.173e+04 8.967e-10
  6.88980    149.1 1.172e+04 8.876e-10
  6.90986    148.5 1.174e+04 8.914e-10
  6.92992    147.7 1.182e+04 9.148e-10
  6.94998    146.8 1.196e+04 9.736e-10
  6.96294    145.8 1.212e+04 1.062e-09
  6.97297    145.7 1.228e+04 1.149e-09
  6.99010    144.7 1.251e+04 1.301e-09
  7.01017    143.6 1.274e+04 1.445e-09
  7.03023    142.6 1.295e+04 1.584e-09
  7.04880    141.6 1.317e+04 1.672e-09
  7.05883    141.3 1.350e+04 1.948e-09
  7.07035    140.3 1.353e+04 1.919e-09
  7.08820    139.3 1.343e+04 1.722e-09
  7.09823    137.7 1.288e+04 1.222e-09
  7.11047    136.4 1.239e+04 9.207e-10
  7.13053    134.7 1.176e+04 7.073e-10
  7.14469    132.7 1.122e+04 6.260e-10
  7.15472    131.1 1.188e+04 6.767e-10
  7.17065    127.7 1.220e+04 7.569e-10
  7.19071    124.9 1.276e+04 9.837e-10
  7.21077    122.9 1.318e+04 1.394e-09
  7.23056    122.0 1.348e+04 1.884e-09
  7.24059    120.8 1.392e+04 2.519e-09
  7.25089    120.6 1.395e+04 2.626e-09
  7.27095    120.4 1.376e+04 2.469e-09
  7.29101    119.6 1.359e+04 2.014e-09
  7.31107    117.1 1.448e+04 1.452e-09
  7.32607    113.9 1.557e+04 1.400e-09
  7.33137    105.9 2.106e+04 1.813e-09
  7.33512    104.6 2.159e+04 1.623e-09
  7.33981     92.1 2.802e+04 3.814e-09
  7.34608     79.9 2.698e+04 1.242e-08
  7.35611     77.8 2.352e+04 2.888e-08
  7.36614     78.1 2.118e+04 4.574e-08
  7.37430     78.3 2.100e+04 4.858e-08
  7.37931     78.1 2.114e+04 5.646e-08
  7.38620     78.0 2.166e+04 5.539e-08
  7.39623     76.7 2.371e+04 5.003e-08
  7.40626     72.9 2.845e+04 3.670e-08
  7.41629     66.7 3.371e+04 2.258e-08
  7.42224     59.9 3.563e+04 1.377e-08
  7.42726     61.8 3.578e+04 1.652e-08
  7.43635     54.7 3.283e+04 1.120e-08
  7.45145     41.7 2.253e+04 8.678e-09
  7.47155     37.7 1.614e+04 7.036e-09
  7.49162     38.2 1.522e+04 5.411e-09
  7.50820     38.9 1.486e+04 3.755e-09
  7.51823     39.3 1.450e+04 3.107e-09
  7.53174     39.2 1.399e+04 2.065e-09
  7.55180     38.5 1.320e+04 1.353e-09
  7.57155     38.3 1.266e+04 1.098e-09
  7.58158     37.0 1.222e+04 8.701e-10
  7.59416     37.4 1.165e+04 7.349e-10
  7.61432     38.2 1.136e+04 7.074e-10
  7.64226     39.2 1.092e+04 6.669e-10
  7.68238     40.2 1.093e+04 7.091e-10
  7.72251     40.8 1.136e+04 9.619e-10
  7.76263     41.5 1.213e+04 1.465e-09
  7.78605     42.1 1.242e+04 1.697e-09
  7.80611     43.3 1.257e+04 1.809e-09
  7.82345     43.9 1.252e+04 1.753e-09
  7.84351     44.1 1.237e+04 1.600e-09
  7.88299     44.8 1.219e+04 1.483e-09
  7.92311     45.9 1.150e+04 1.038e-09
  7.95777     46.9 1.050e+04 5.284e-10
  7.97783     47.7 1.088e+04 6.841e-10
  8.00335     48.4 9.743e+03 3.081e-10
  8.04347     48.6 8.753e+03 1.464e-10
  8.08359     49.3 8.534e+03 1.223e-10
  8.12371     51.0 8.506e+03 1.224e-10
  8.14956     52.8 8.520e+03 1.293e-10
  8.16962     53.4 8.857e+03 1.912e-10
  8.20395     55.0 9.037e+03 2.335e-10
  8.24408     56.7 9.271e+03 2.922e-10
  8.28420     58.3 9.469e+03 3.496e-10
  8.30679     59.9 9.617e+03 3.906e-10
  8.32382     60.5 9.800e+03 4.241e-10
  8.34134     61.1 1.018e+04 5.584e-10
  8.36444     62.7 1.032e+04 6.113e-10
  8.40456     64.2 1.040e+04 6.384e-10
  8.44468     65.6 1.049e+04 6.594e-10
  8.48480     66.8 1.059e+04 6.910e-10
  8.51306     67.9 1.076e+04 7.510e-10
  8.53313     68.8 1.071e+04 7.318e-10
  8.56504     69.8 1.101e+04 8.500e-10
  8.60516     70.2 1.152e+04 1.093e-09
  8.64528     70.3 1.223e+04 1.513e-09
  8.68479     70.3 1.271e+04 1.867e-09
  8.70475     70.9 1.332e+04 2.637e-09
  8.71530     71.0 1.350e+04 2.895e-09
  8.73536     71.4 1.343e+04 2.765e-09
  8.75542     71.7 1.315e+04 2.268e-09
  8.77548     71.8 1.276e+04 1.601e-09
  8.79004     71.7 1.205e+04 7.554e-10
  8.81020     72.9 1.264e+04 1.238e-09
  8.84589     71.4 1.106e+04 3.654e-10
  8.87657     68.5 9.639e+03 2.178e-10
  8.89664     69.8 1.023e+04 2.894e-10
  8.92613     67.1 9.988e+03 2.982e-10
  8.96625     66.1 9.981e+03 3.552e-10
  9.00637     66.1 1.009e+04 4.140e-10
  9.04649     66.2 1.008e+04 4.117e-10
  9.06836     66.4 9.947e+03 3.720e-10
  9.08842     66.6 1.009e+04 4.317e-10
  9.12673     66.9 9.953e+03 3.948e-10
  9.16685     67.3 9.976e+03 4.024e-10
  9.20698     67.6 1.009e+04 4.368e-10
  9.24008     67.7 1.023e+04 4.712e-10
  9.26014     68.4 1.096e+04 7.593e-10
  9.27349     68.2 1.125e+04 8.346e-10
  9.29355     68.2 1.193e+04 1.201e-09
  9.32734     67.4 1.196e+04 1.193e-09
  9.36746     66.3 1.167e+04 1.025e-09
  9.40758     65.6 1.104e+04 7.424e-10
  9.43187     65.3 1.035e+04 4.989e-10
  9.45193     65.5 1.063e+04 5.775e-10
  9.48782     65.3 9.853e+03 3.534e-10
  9.52794     65.4 9.472e+03 2.559e-10
  9.56806     65.9 9.248e+03 2.045e-10
  9.60359     66.9 9.097e+03 1.673e-10
  9.62365     67.1 8.958e+03 1.339e-10
  9.64830     68.3 8.843e+03 1.143e-10
  9.68843     69.5 8.773e+03 1.044e-10
  9.72855     70.7 8.752e+03 9.994e-11
  9.75683     71.9 8.748e+03 1.003e-10
  9.77689     72.5 8.755e+03 1.002e-10
  9.79538     73.8 8.780e+03 1.026e-10
  9.81544     73.9 8.747e+03 1.011e-10
  9.84891     75.2 8.738e+03 9.999e-11
  9.88903     76.4 8.707e+03 9.606e-11
  9.92915     77.7 8.668e+03 9.038e-11
  9.96710     79.1 8.645e+03 8.410e-11
  9.98716     79.2 8.592e+03 7.030e-11
 10.00939     80.6 8.593e+03 6.444e-11
 10.04951     82.0 8.601e+03 6.426e-11
 10.08963     83.4 8.625e+03 6.548e-11
 10.12975     84.7 8.692e+03 7.110e-11
 10.15889     86.0 8.787e+03 8.299e-11
 10.17895     86.4 8.749e+03 8.025e-11
 10.21000     87.7 8.878e+03 1.001e-10
 10.24018     88.9 9.038e+03 1.304e-10
 10.26024     89.2 9.170e+03 1.571e-10
 10.29024     90.3 9.371e+03 1.983e-10
 10.33036     91.1 9.578e+03 2.392e-10
 10.35067     91.7 9.767e+03 2.625e-10
 10.37073     92.4 9.945e+03 3.347e-10
 10.41060     92.6 1.013e+04 3.633e-10
 10.45072     92.7 1.019e+04 3.596e-10
 10.49084     92.5 1.023e+04 3.469e-10
 10.52240     92.1 1.027e+04 3.399e-10
 10.54246     92.3 1.059e+04 4.542e-10
 10.57108     91.8 1.056e+04 4.312e-10
 10.61120     91.4 1.052e+04 4.221e-10
 10.65133     91.2 1.054e+04 4.290e-10
 10.69145     91.2 1.065e+04 4.323e-10
 10.71418     91.2 1.072e+04 4.253e-10
 10.72620     91.7 1.058e+04 3.385e-10
 10.74358     92.0 1.055e+04 3.352e-10
 10.77169     92.2 1.059e+04 3.234e-10
 10.81181     92.6 1.065e+04 3.309e-10
 10.85193     93.3 1.077e+04 3.586e-10
 10.88591     94.2 1.118e+04 4.409e-10
 10.90597     94.6 1.124e+04 4.687e-10
 10.92204     94.1 1.165e+04 5.789e-10
 10.94201     93.4 1.215e+04 7.844e-10
 10.96207     92.5 1.270e+04 1.194e-09
 10.97503     91.9 1.325e+04 1.881e-09
 10.98454     92.5 1.287e+04 1.387e-09
 10.99164     92.9 1.277e+04 1.425e-09
 11.00219     92.8 1.326e+04 2.206e-09
 11.02225     93.1 1.382e+04 3.205e-09
 11.04231     93.5 1.431e+04 4.038e-09
 11.06237     93.6 1.459e+04 4.216e-09
 11.07750     93.5 1.458e+04 4.127e-09
 11.08753     94.1 1.405e+04 3.236e-09
 11.10249     94.1 1.398e+04 2.950e-09
 11.12255     93.8 1.379e+04 2.545e-09
 11.14261     93.5 1.350e+04 2.177e-09
 11.16267     93.3 1.334e+04 1.958e-09
 11.17339     93.1 1.331e+04 1.839e-09
 11.18342     93.7 1.306e+04 1.724e-09
 11.20677     93.2 1.328e+04 1.713e-09
 11.22693     93.6 1.321e+04 1.562e-09
 11.24942     93.5 1.309e+04 1.417e-09
 11.26948     95.2 1.291e+04 1.421e-09
 11.29326     95.7 1.312e+04 1.448e-09
 11.32325     95.1 1.329e+04 1.515e-09
 11.34321     94.9 1.345e+04 1.557e-09
 11.35515     94.6 1.354e+04 1.588e-09
 11.36518     95.3 1.409e+04 2.031e-09
 11.38333     94.9 1.441e+04 2.261e-09
 11.40340     94.4 1.440e+04 2.354e-09
