# Columns:
#   distance along LOS (in CHIMPs)
#   peculiar velocity  (in km/s)
#   temperature (K)
#   HI number density
# pos=(150.57,170.176,179.483), angles=(1.17312,3.12739)
  0.00359     91.9 1.029e+04 3.519e-10
  0.00971     93.3 1.026e+04 3.909e-10
  0.02273     93.2 1.026e+04 3.718e-10
  0.04382     93.4 1.037e+04 3.533e-10
  0.05592     93.3 1.055e+04 3.577e-10
  0.06651     94.2 1.052e+04 3.764e-10
  0.08619     94.0 1.058e+04 3.764e-10
  0.10232     94.0 1.068e+04 3.836e-10
  0.11292     94.7 1.074e+04 4.156e-10
  0.12857     94.7 1.083e+04 4.328e-10
  0.14872     94.7 1.107e+04 4.729e-10
  0.15932     95.4 1.107e+04 5.059e-10
  0.17094     94.9 1.158e+04 6.008e-10
  0.19213     92.5 1.329e+04 9.032e-10
  0.20572     87.9 1.809e+04 2.268e-09
  0.21631     90.7 1.504e+04 1.740e-09
  0.23450     87.9 1.959e+04 4.419e-09
  0.25212     87.3 2.106e+04 1.010e-08
  0.26272     89.6 2.021e+04 6.407e-09
  0.27687     89.2 2.086e+04 9.923e-09
  0.29806     88.6 2.006e+04 1.037e-08
  0.30912     88.0 1.847e+04 9.167e-09
  0.31971     89.8 1.957e+04 6.825e-09
  0.34043     88.4 1.786e+04 6.278e-09
  0.35552     87.1 1.633e+04 5.507e-09
  0.36612     88.7 1.738e+04 4.466e-09
  0.38280     88.1 1.592e+04 4.586e-09
  0.40193     88.6 1.530e+04 4.760e-09
  0.41252     89.7 1.586e+04 3.812e-09
  0.42518     90.3 1.524e+04 4.343e-09
  0.44636     91.2 1.502e+04 4.742e-09
  0.45892     92.2 1.516e+04 5.058e-09
  0.46951     92.8 1.519e+04 4.571e-09
  0.48874     93.4 1.553e+04 5.462e-09
  0.50532     93.8 1.607e+04 6.587e-09
  0.51592     94.3 1.600e+04 6.225e-09
  0.53111     94.4 1.660e+04 8.138e-09
  0.55173     94.6 1.710e+04 1.001e-08
  0.56232     95.3 1.694e+04 9.618e-09
  0.57348     95.5 1.748e+04 1.126e-08
  0.59467     95.8 1.787e+04 1.150e-08
  0.60872     96.0 1.813e+04 1.004e-08
  0.61932     97.0 1.790e+04 1.107e-08
  0.63704     97.0 1.821e+04 1.007e-08
  0.65513     96.5 1.822e+04 7.292e-09
  0.66572     97.8 1.824e+04 1.016e-08
  0.67942     97.6 1.801e+04 7.655e-09
  0.70060     97.0 1.701e+04 5.065e-09
  0.71212     96.3 1.524e+04 3.125e-09
  0.72272     98.7 1.701e+04 5.257e-09
  0.74298     97.9 1.532e+04 3.014e-09
  0.75852     97.0 1.306e+04 1.723e-09
  0.76912     99.6 1.530e+04 2.721e-09
  0.78535     98.4 1.273e+04 1.425e-09
  0.80493     97.6 1.105e+04 8.964e-10
  0.81552     99.4 1.188e+04 1.086e-09
  0.82772     98.8 1.061e+04 7.264e-10
  0.84891     99.3 1.056e+04 6.100e-10
  0.86192     99.6 1.077e+04 6.211e-10
  0.87220    100.9 1.055e+04 5.677e-10
  0.88037    101.2 1.070e+04 5.851e-10
  0.89128    101.5 1.099e+04 6.206e-10
  0.90833    101.3 1.158e+04 7.555e-10
  0.91892    103.2 1.122e+04 6.301e-10
  0.93365    102.7 1.198e+04 8.496e-10
  0.95473    102.2 1.271e+04 1.330e-09
  0.96532    104.0 1.247e+04 9.817e-10
  0.97603    103.5 1.335e+04 1.707e-09
  0.99721    103.3 1.394e+04 2.753e-09
  1.01173    102.7 1.530e+04 4.495e-09
  1.02232    104.3 1.478e+04 3.666e-09
  1.03959    102.1 1.796e+04 7.356e-09
  1.05813     98.4 2.012e+04 1.288e-08
  1.06872    100.8 1.992e+04 1.071e-08
  1.08196     97.5 2.031e+04 1.454e-08
  1.10315     95.5 1.936e+04 1.354e-08
  1.11512     93.1 1.825e+04 8.605e-09
  1.12572     94.7 1.905e+04 1.214e-08
  1.14552     91.3 1.805e+04 6.480e-09
  1.16153     86.0 1.586e+04 2.815e-09
  1.17212     89.2 1.744e+04 4.780e-09
  1.18789     83.9 1.447e+04 2.300e-09
  1.20793     80.7 1.228e+04 1.477e-09
  1.21852     82.9 1.343e+04 2.043e-09
  1.23027     81.2 1.200e+04 1.449e-09
  1.25145     81.1 1.157e+04 1.129e-09
  1.26493     80.9 1.127e+04 8.357e-10
  1.27552     82.0 1.166e+04 9.987e-10
  1.29382     81.3 1.114e+04 6.891e-10
  1.31133     80.2 1.045e+04 4.768e-10
  1.32192     81.2 1.070e+04 5.522e-10
  1.33620     80.0 9.973e+03 4.038e-10
  1.35738     79.6 9.714e+03 3.455e-10
  1.38926     80.2 9.829e+03 3.473e-10
  1.41492     81.4 9.901e+03 3.472e-10
  1.43611     82.2 9.997e+03 3.727e-10
  1.47411     83.1 1.010e+04 3.870e-10
  1.50773     84.0 1.000e+04 3.824e-10
  1.52892     84.6 1.010e+04 3.937e-10
  1.55885     85.4 1.007e+04 3.815e-10
  1.60053     86.3 9.953e+03 3.670e-10
  1.62162     86.6 9.930e+03 3.759e-10
  1.63281     87.8 9.826e+03 3.678e-10
  1.65400     87.9 9.809e+03 3.673e-10
  1.66793     89.3 9.855e+03 3.114e-10
  1.67852     89.5 9.926e+03 3.306e-10
  1.69637     89.8 9.943e+03 3.296e-10
  1.71433     90.7 9.856e+03 3.028e-10
  1.72492     91.0 1.006e+04 3.589e-10
  1.73874     91.3 1.007e+04 3.525e-10
  1.75993     91.3 1.015e+04 3.888e-10
  1.77133     89.8 1.150e+04 5.880e-10
  1.78192     89.3 1.234e+04 7.519e-10
  1.80230     87.5 1.388e+04 1.352e-09
  1.81773     87.1 1.440e+04 2.346e-09
  1.82832     86.5 1.506e+04 3.064e-09
  1.84467     87.0 1.531e+04 4.520e-09
  1.86413     87.7 1.578e+04 5.787e-09
  1.87473     87.1 1.654e+04 7.406e-09
  1.88705     87.8 1.686e+04 8.046e-09
  1.90823     88.3 1.676e+04 7.541e-09
  1.92113     88.7 1.633e+04 6.383e-09
  1.93172     88.7 1.654e+04 6.995e-09
  1.95061     89.0 1.599e+04 4.961e-09
  1.96753     88.8 1.530e+04 3.342e-09
  1.97813     88.7 1.563e+04 3.501e-09
  1.99298     87.8 1.491e+04 2.087e-09
  2.01394     86.2 1.347e+04 1.342e-09
  2.02453     86.0 1.361e+04 1.383e-09
  2.03535     85.0 1.205e+04 9.877e-10
  2.05654     84.6 1.166e+04 7.743e-10
  2.07093     85.3 1.129e+04 8.215e-10
  2.08152     85.2 1.153e+04 9.345e-10
  2.09891     86.1 1.150e+04 8.555e-10
  2.11733     87.0 1.134e+04 8.097e-10
  2.12793     87.0 1.164e+04 9.677e-10
  2.14129     88.2 1.143e+04 9.238e-10
  2.16247     89.3 1.128e+04 8.328e-10
  2.17433     90.3 1.117e+04 7.223e-10
  2.18492     90.2 1.167e+04 9.192e-10
  2.20484     91.2 1.150e+04 8.516e-10
  2.22073     92.2 1.132e+04 7.822e-10
  2.23133     91.9 1.191e+04 1.022e-09
  2.24722     92.6 1.186e+04 9.489e-10
  2.26714     93.3 1.186e+04 9.306e-10
  2.27773     92.8 1.267e+04 1.290e-09
  2.28959     93.6 1.273e+04 1.352e-09
  2.31078     94.3 1.286e+04 1.453e-09
  2.32413     95.0 1.302e+04 1.565e-09
  2.33473     94.5 1.396e+04 2.382e-09
  2.35315     95.6 1.400e+04 2.552e-09
  2.36775     96.9 1.398e+04 2.696e-09
  2.37454     96.7 1.372e+04 2.379e-09
  2.38113     96.7 1.440e+04 2.811e-09
  2.39552     98.0 1.441e+04 2.756e-09
  2.41671     99.2 1.427e+04 2.566e-09
  2.42753    100.2 1.400e+04 2.304e-09
  2.43812     99.7 1.402e+04 2.291e-09
  2.45908    100.5 1.372e+04 2.007e-09
  2.47393    101.1 1.342e+04 1.723e-09
  2.48453    100.3 1.335e+04 1.603e-09
  2.50146    100.9 1.297e+04 1.380e-09
  2.52034    101.5 1.270e+04 1.219e-09
  2.53093    101.1 1.251e+04 1.101e-09
  2.54383    101.7 1.237e+04 1.037e-09
  2.56502    102.4 1.216e+04 9.717e-10
  2.57733    103.3 1.193e+04 9.084e-10
  2.58793    103.1 1.191e+04 8.715e-10
  2.60739    103.9 1.175e+04 8.224e-10
  2.62374    104.7 1.158e+04 7.636e-10
  2.63433    104.7 1.156e+04 7.521e-10
  2.64976    105.4 1.144e+04 7.218e-10
  2.67014    105.8 1.137e+04 7.141e-10
  2.68073    106.1 1.141e+04 7.189e-10
  2.69213    106.4 1.140e+04 7.297e-10
  2.71332    106.6 1.142e+04 7.806e-10
  2.72713    106.8 1.163e+04 8.994e-10
  2.73773    107.2 1.165e+04 9.019e-10
  2.75569    107.0 1.211e+04 1.117e-09
  2.77354    105.8 1.333e+04 1.663e-09
  2.78413    106.0 1.331e+04 1.641e-09
  2.79807    102.5 1.556e+04 3.154e-09
  2.81925     99.4 1.748e+04 6.909e-09
  2.83053     98.1 1.860e+04 1.226e-08
  2.84113     98.3 1.799e+04 9.750e-09
  2.86163     96.4 1.911e+04 1.214e-08
  2.87694     93.2 1.932e+04 1.083e-08
  2.88753     92.4 1.880e+04 7.909e-09
  2.90400     87.2 1.786e+04 5.566e-09
  2.92334     81.8 1.530e+04 3.695e-09
  2.93393     80.3 1.493e+04 3.717e-09
  2.94637     77.5 1.422e+04 2.866e-09
  2.96756     75.6 1.401e+04 2.429e-09
  2.98034     73.7 1.359e+04 2.078e-09
  2.99093     73.4 1.393e+04 2.313e-09
  3.00993     71.6 1.322e+04 1.922e-09
  3.02674     70.6 1.272e+04 1.714e-09
  3.03733     69.8 1.272e+04 1.710e-09
  3.05231     69.3 1.257e+04 1.614e-09
  3.07314     69.1 1.243e+04 1.521e-09
  3.08373     68.3 1.235e+04 1.464e-09
  3.09468     68.0 1.209e+04 1.345e-09
  3.11587     68.0 1.186e+04 1.240e-09
  3.13014     68.0 1.170e+04 1.149e-09
  3.14073     67.0 1.170e+04 1.142e-09
  3.15824     67.0 1.161e+04 1.073e-09
  3.17654     66.8 1.157e+04 1.037e-09
  3.18713     65.6 1.165e+04 1.082e-09
  3.20061     65.5 1.170e+04 1.083e-09
  3.22180     65.4 1.168e+04 1.065e-09
  3.23354     65.4 1.163e+04 1.084e-09
  3.24413     64.7 1.155e+04 1.078e-09
  3.26417     65.1 1.142e+04 9.865e-10
  3.27994     65.4 1.113e+04 8.491e-10
  3.29053     64.3 1.089e+04 7.207e-10
  3.30654     64.3 1.055e+04 5.448e-10
  3.32644     64.1 1.005e+04 3.648e-10
  3.34772     60.8 9.397e+03 2.937e-10
  3.38089     61.0 9.092e+03 2.570e-10
  3.41934     62.2 8.864e+03 2.193e-10
  3.44053     60.7 8.887e+03 2.315e-10
  3.46564     62.3 8.798e+03 2.149e-10
  3.50801     63.8 8.845e+03 2.189e-10
  3.53333     65.4 8.999e+03 2.408e-10
  3.54383     64.8 9.152e+03 2.765e-10
  3.56078     64.8 9.182e+03 2.809e-10
  3.57954     66.3 9.405e+03 3.275e-10
  3.59014     65.0 9.841e+03 4.307e-10
  3.60315     65.5 1.016e+04 5.056e-10
  3.62434     66.2 1.055e+04 6.249e-10
  3.63654     66.9 1.092e+04 7.248e-10
  3.64713     65.8 1.181e+04 1.161e-09
  3.66671     66.4 1.218e+04 1.344e-09
  3.68294     66.7 1.248e+04 1.532e-09
  3.69353     65.6 1.323e+04 2.108e-09
  3.70909     65.9 1.358e+04 2.334e-09
  3.72934     65.9 1.390e+04 2.555e-09
  3.73994     64.7 1.390e+04 2.520e-09
  3.75146     65.1 1.407e+04 2.739e-09
  3.77265     66.0 1.428e+04 3.085e-09
  3.78634     67.2 1.447e+04 3.399e-09
  3.79693     66.7 1.404e+04 2.317e-09
  3.81502     68.0 1.410e+04 2.257e-09
  3.83274     69.1 1.407e+04 2.042e-09
  3.84334     67.4 1.334e+04 1.026e-09
  3.85512     67.9 1.316e+04 8.889e-10
  3.86572     65.7 1.160e+04 4.100e-10
  3.87858     66.3 1.139e+04 4.119e-10
  3.88974     67.2 1.123e+04 4.321e-10
  3.90033     65.6 9.776e+03 3.134e-10
  3.92095     67.0 9.868e+03 3.404e-10
  3.93614     68.5 1.011e+04 3.857e-10
  3.94673     67.6 9.609e+03 3.524e-10
  3.96333     69.2 9.821e+03 3.969e-10
  3.98254     70.7 1.001e+04 4.458e-10
  3.99314     69.8 9.894e+03 4.297e-10
  4.00570     71.1 9.982e+03 4.611e-10
  4.02689     72.4 1.019e+04 5.067e-10
  4.03954     72.4 1.143e+04 6.482e-10
  4.05013     70.3 1.153e+04 6.784e-10
  4.06926     63.4 1.828e+04 1.889e-09
  4.08510     56.5 2.398e+04 5.134e-09
  4.09114     53.9 2.459e+04 1.052e-08
  4.09649     53.7 2.312e+04 9.164e-09
  4.10629     51.0 2.478e+04 1.905e-08
  4.11434     49.9 2.478e+04 3.628e-08
  4.11964     49.5 2.482e+04 3.446e-08
  4.12742     49.0 2.477e+04 6.165e-08
  4.13755     49.5 2.367e+04 1.142e-07
  4.14284     48.4 2.430e+04 8.540e-08
  4.14861     48.3 2.387e+04 1.189e-07
  4.15920     48.3 2.359e+04 1.420e-07
  4.16604     47.5 2.340e+04 1.448e-07
  4.17134     45.8 2.375e+04 1.016e-07
  4.18039     45.1 2.353e+04 8.777e-08
  4.18924     44.2 2.334e+04 6.961e-08
  4.19454     42.5 2.302e+04 6.352e-08
  4.20158     42.4 2.288e+04 5.215e-08
  4.21217     42.4 2.279e+04 4.227e-08
  4.21774     42.6 2.270e+04 3.401e-08
  4.22304     41.4 2.220e+04 3.708e-08
  4.23336     41.6 2.191e+04 3.043e-08
  4.24094     41.7 2.145e+04 2.455e-08
  4.24624     41.1 2.105e+04 2.671e-08
  4.25454     41.3 2.082e+04 2.202e-08
  4.26415     41.7 2.039e+04 1.869e-08
  4.26944     41.1 2.023e+04 1.916e-08
  4.28107     42.4 1.952e+04 1.507e-08
  4.29274     43.6 1.857e+04 9.127e-09
  4.30333     42.5 1.842e+04 1.106e-08
  4.32350     43.6 1.745e+04 7.253e-09
  4.33914     44.0 1.604e+04 4.481e-09
  4.34974     43.6 1.607e+04 5.422e-09
  4.36587     44.4 1.492e+04 3.498e-09
  4.38555     45.2 1.374e+04 2.310e-09
  4.39614     45.5 1.394e+04 2.564e-09
  4.40824     46.4 1.301e+04 1.803e-09
  4.42943     47.6 1.236e+04 1.212e-09
  4.44254     48.9 1.166e+04 9.663e-10
  4.45314     48.5 1.188e+04 9.997e-10
  4.47180     50.5 1.118e+04 6.790e-10
  4.48895     51.7 1.076e+04 4.857e-10
  4.49954     51.3 1.087e+04 5.226e-10
  4.51418     52.4 1.041e+04 3.502e-10
  4.53535     52.6 1.002e+04 2.812e-10
  4.56723     54.1 9.751e+03 2.594e-10
  4.60971     56.5 9.442e+03 2.362e-10
  4.63894     59.0 9.296e+03 2.300e-10
  4.66013     58.4 9.459e+03 2.623e-10
  4.69446     61.0 9.301e+03 2.590e-10
  4.73175     63.9 9.222e+03 2.600e-10
  4.75294     63.3 9.357e+03 2.867e-10
  4.77920     66.4 9.115e+03 2.403e-10
  4.82157     69.1 8.960e+03 1.945e-10
  4.84574     71.5 8.809e+03 1.544e-10
  4.86693     71.1 8.825e+03 1.599e-10
  4.90632     73.4 8.688e+03 1.369e-10
  4.93855     75.8 8.630e+03 1.380e-10
  4.95973     75.5 8.715e+03 1.610e-10
  4.99107     78.2 8.739e+03 1.657e-10
  5.03135     81.0 8.745e+03 1.734e-10
  5.05254     80.9 8.942e+03 2.175e-10
  5.07581     83.7 8.874e+03 2.099e-10
  5.11819     86.5 8.755e+03 1.902e-10
  5.14534     89.1 8.596e+03 1.616e-10
  5.16653     89.0 8.915e+03 2.084e-10
  5.20293     91.4 8.740e+03 1.727e-10
  5.23815     93.6 8.574e+03 1.497e-10
  5.25934     93.6 8.926e+03 2.027e-10
  5.28768     95.8 8.815e+03 1.923e-10
  5.33005     98.1 8.766e+03 1.932e-10
  5.35214    100.5 8.727e+03 1.993e-10
  5.37333    100.7 9.023e+03 2.528e-10
  5.41480    103.1 8.966e+03 2.600e-10
  5.44495    105.6 8.902e+03 2.588e-10
  5.46613    105.7 9.229e+03 3.130e-10
  5.49954    108.0 9.177e+03 3.060e-10
  5.53775    110.3 9.071e+03 2.823e-10
  5.55894    110.3 9.332e+03 3.310e-10
  5.58429    112.3 9.264e+03 3.117e-10
  5.62666    114.4 9.163e+03 2.976e-10
  5.65175    116.3 9.146e+03 2.999e-10
  5.66224    115.5 9.285e+03 3.288e-10
  5.67943    116.1 9.275e+03 3.278e-10
  5.69795    117.2 9.265e+03 3.354e-10
  5.70855    116.8 9.444e+03 3.772e-10
  5.72181    117.5 9.553e+03 4.133e-10
  5.74299    118.0 9.747e+03 4.761e-10
  5.75495    118.4 1.001e+04 5.631e-10
  5.76554    117.3 1.064e+04 7.606e-10
  5.78537    117.4 1.089e+04 8.661e-10
  5.80135    117.4 1.111e+04 9.679e-10
  5.81195    116.0 1.172e+04 1.276e-09
  5.82774    115.8 1.171e+04 1.277e-09
  5.84776    115.4 1.167e+04 1.244e-09
  5.85835    114.3 1.190e+04 1.340e-09
  5.87011    113.5 1.166e+04 1.186e-09
  5.89130    112.5 1.143e+04 1.058e-09
  5.90475    111.2 1.129e+04 9.749e-10
  5.91534    110.7 1.128e+04 9.658e-10
  5.93367    109.4 1.142e+04 1.002e-09
  5.95115    106.2 1.217e+04 1.219e-09
  5.96175    105.7 1.288e+04 1.479e-09
  5.97604    101.7 1.471e+04 2.846e-09
  5.99723     99.4 1.560e+04 4.483e-09
  6.00815     98.0 1.567e+04 4.896e-09
  6.01340     98.6 1.624e+04 6.101e-09
  6.02362     98.2 1.616e+04 6.080e-09
  6.03956     98.6 1.627e+04 6.302e-09
  6.05455     98.1 1.534e+04 3.713e-09
  6.06515    100.0 1.634e+04 5.309e-09
  6.08198     98.3 1.508e+04 1.908e-09
  6.10096     91.8 1.267e+04 5.774e-10
  6.11155     92.5 1.312e+04 6.656e-10
  6.12435     86.8 1.045e+04 4.538e-10
  6.14554     86.2 1.032e+04 4.477e-10
  6.15795     86.0 1.033e+04 4.586e-10
  6.16855     85.7 1.063e+04 5.597e-10
  6.18791     85.4 1.079e+04 6.307e-10
  6.20435     85.3 1.086e+04 6.949e-10
  6.21495     84.0 1.155e+04 9.989e-10
  6.23028     84.1 1.176e+04 1.140e-09
  6.25076     84.4 1.195e+04 1.206e-09
  6.26135     81.4 1.431e+04 2.678e-09
  6.27266     81.8 1.466e+04 2.905e-09
  6.29384     82.2 1.481e+04 2.930e-09
  6.30775     82.7 1.481e+04 2.837e-09
  6.31835     80.2 1.658e+04 6.536e-09
  6.33622     81.0 1.637e+04 6.021e-09
  6.35416     81.7 1.614e+04 5.504e-09
  6.36475     79.6 1.732e+04 7.056e-09
  6.37859     80.4 1.693e+04 6.254e-09
  6.39978     81.4 1.678e+04 5.835e-09
  6.41115     82.3 1.682e+04 5.681e-09
  6.42175     79.8 1.693e+04 5.295e-09
  6.44215     80.7 1.679e+04 5.104e-09
  6.45756     82.0 1.677e+04 5.067e-09
  6.46815     79.3 1.617e+04 3.491e-09
  6.48452     80.3 1.623e+04 3.567e-09
  6.50396     81.0 1.634e+04 3.804e-09
  6.51455     78.3 1.424e+04 2.094e-09
  6.52689     79.3 1.434e+04 2.288e-09
  6.54808     80.4 1.455e+04 2.583e-09
  6.56095     81.5 1.492e+04 2.980e-09
  6.57155     79.2 1.255e+04 1.560e-09
  6.59045     80.0 1.298e+04 1.735e-09
  6.60736     80.7 1.326e+04 1.825e-09
  6.61795     78.7 1.102e+04 1.161e-09
  6.63283     79.2 1.112e+04 1.224e-09
  6.65376     79.7 1.114e+04 1.214e-09
  6.66435     79.7 1.085e+04 1.085e-09
  6.67520     80.3 1.086e+04 1.090e-09
  6.69639     80.9 1.082e+04 1.056e-09
  6.71076     81.5 1.068e+04 9.674e-10
  6.72135     81.6 1.062e+04 9.423e-10
  6.73876     82.1 1.050e+04 8.903e-10
  6.75716     82.6 1.037e+04 8.311e-10
  6.76775     82.7 1.047e+04 9.009e-10
  6.78113     83.1 1.045e+04 8.934e-10
  6.80232     83.5 1.043e+04 8.767e-10
  6.81416     83.9 1.039e+04 8.522e-10
  6.82475     84.2 1.070e+04 1.028e-09
  6.84046     84.6 1.065e+04 9.965e-10
  6.85106     84.8 1.050e+04 9.321e-10
  6.86056     85.2 1.036e+04 8.659e-10
  6.87115     85.5 1.072e+04 1.054e-09
  6.88707     85.8 1.051e+04 9.344e-10
  6.90696     86.1 1.019e+04 7.739e-10
  6.91755     86.1 1.061e+04 9.568e-10
  6.92944     86.2 1.019e+04 7.624e-10
  6.95062     86.2 9.778e+03 6.003e-10
  6.96396     86.2 9.421e+03 4.750e-10
  6.97455     86.0 9.730e+03 5.868e-10
  6.99300     85.9 9.390e+03 4.812e-10
  7.01036     86.0 9.163e+03 4.152e-10
  7.02095     85.8 9.380e+03 4.969e-10
  7.03537     85.9 9.257e+03 4.644e-10
  7.05656     86.2 9.214e+03 4.617e-10
  7.06736     86.5 9.230e+03 4.678e-10
  7.07795     86.3 9.333e+03 4.916e-10
  7.09893     86.6 9.338e+03 4.943e-10
  7.11376     87.0 9.384e+03 5.117e-10
  7.12435     86.8 9.342e+03 4.911e-10
  7.14130     87.1 9.367e+03 5.032e-10
  7.16016     87.5 9.401e+03 5.214e-10
  7.17075     87.3 9.351e+03 4.827e-10
  7.18368     87.7 9.453e+03 5.191e-10
  7.20486     88.1 9.610e+03 5.763e-10
  7.21716     88.4 9.821e+03 6.526e-10
  7.22775     88.0 1.001e+04 6.869e-10
  7.24724     87.9 1.049e+04 8.477e-10
  7.26356     87.7 1.109e+04 1.085e-09
  7.27415     86.5 1.194e+04 1.472e-09
  7.28961     86.3 1.274e+04 2.000e-09
  7.30996     86.5 1.344e+04 2.624e-09
  7.32056     85.7 1.443e+04 3.845e-09
  7.33198     86.1 1.495e+04 4.474e-09
  7.35317     86.2 1.511e+04 4.529e-09
  7.36696     85.9 1.510e+04 4.410e-09
  7.37755     84.3 1.638e+04 6.095e-09
  7.39554     82.7 1.652e+04 6.162e-09
  7.41336     80.8 1.644e+04 6.143e-09
  7.42396     78.7 1.710e+04 8.306e-09
  7.43791     77.9 1.649e+04 7.643e-09
  7.45910     77.5 1.590e+04 6.740e-09
  7.47036     77.3 1.544e+04 5.871e-09
  7.48095     76.6 1.478e+04 4.939e-09
  7.50147     76.4 1.408e+04 3.750e-09
  7.51676     75.7 1.344e+04 2.819e-09
  7.52735     74.1 1.217e+04 1.678e-09
  7.54385     72.8 1.143e+04 1.245e-09
  7.56316     71.8 1.083e+04 1.008e-09
  7.58445     70.8 9.793e+03 5.468e-10
  7.60750     70.7 9.802e+03 5.692e-10
  7.62016     71.0 9.828e+03 6.057e-10
  7.63075     70.5 9.395e+03 4.691e-10
  7.64978     70.8 9.231e+03 4.533e-10
  7.66656     71.3 9.161e+03 4.609e-10
  7.67725     71.2 8.952e+03 3.799e-10
  7.69225     71.2 8.975e+03 3.920e-10
  7.71297     71.3 9.055e+03 4.085e-10
  7.72356     71.7 8.984e+03 3.977e-10
  7.73453     71.7 9.093e+03 4.222e-10
  7.75571     71.5 9.585e+03 5.322e-10
  7.76996     70.9 1.054e+04 8.064e-10
  7.78055     72.3 9.763e+03 5.441e-10
  7.79809     72.1 1.072e+04 8.369e-10
  7.81636     72.7 1.153e+04 1.325e-09
  7.82696     73.7 1.086e+04 8.162e-10
  7.84046     74.2 1.161e+04 1.268e-09
  7.86164     75.0 1.211e+04 1.831e-09
  7.87336     75.7 1.253e+04 2.408e-09
  7.88395     76.2 1.208e+04 1.537e-09
  7.90402     76.9 1.246e+04 2.083e-09
  7.91976     77.5 1.278e+04 2.606e-09
  7.93036     78.0 1.230e+04 1.659e-09
  7.94639     78.7 1.257e+04 2.192e-09
  7.96617     79.4 1.279e+04 2.710e-09
  7.97676     80.0 1.217e+04 1.665e-09
  7.98876     80.9 1.243e+04 2.208e-09
  8.00995     81.8 1.286e+04 2.849e-09
  8.02316     82.6 1.337e+04 3.537e-09
  8.03376     83.3 1.248e+04 2.169e-09
  8.05232     84.1 1.292e+04 2.739e-09
  8.06957     84.8 1.336e+04 3.171e-09
  8.08016     85.4 1.241e+04 1.910e-09
  8.09470     86.0 1.279e+04 2.342e-09
  8.11588     86.7 1.309e+04 2.734e-09
