# Columns:
#   distance along LOS (in CHIMPs)
#   peculiar velocity  (in km/s)
#   temperature (K)
#   HI number density
# pos=(99.9518,27.1912,183.196), angles=(0.491997,6.17065)
  0.00494     76.2 1.100e+04 4.389e-10
  0.01315     77.0 1.096e+04 4.153e-10
  0.03531     77.8 1.086e+04 3.571e-10
  0.07636     78.8 1.079e+04 3.130e-10
  0.09908     79.8 1.068e+04 2.559e-10
  0.12124     80.6 1.063e+04 2.285e-10
  0.16285     81.6 1.056e+04 1.922e-10
  0.18501     82.5 1.053e+04 1.885e-10
  0.20932     83.4 1.050e+04 1.758e-10
  0.24878     84.3 1.053e+04 1.754e-10
  0.27094     85.1 1.063e+04 1.967e-10
  0.29795     85.9 1.082e+04 2.185e-10
  0.33471     86.7 1.108e+04 2.524e-10
  0.35677     86.3 1.127e+04 2.825e-10
  0.37532     85.1 1.171e+04 3.533e-10
  0.38856     83.2 1.240e+04 5.516e-10
  0.39964     81.7 1.296e+04 8.361e-10
  0.41964     80.1 1.375e+04 1.528e-09
  0.43152     78.9 1.444e+04 2.592e-09
  0.44260     78.4 1.475e+04 3.387e-09
  0.46340     77.3 1.492e+04 3.922e-09
  0.47448     76.7 1.489e+04 3.956e-09
  0.48612     75.6 1.468e+04 3.635e-09
  0.50637     74.6 1.418e+04 2.752e-09
  0.51745     74.0 1.364e+04 1.952e-09
  0.53043     72.2 1.270e+04 1.172e-09
  0.54933     69.8 1.175e+04 7.642e-10
  0.56021     68.1 1.107e+04 5.609e-10
  0.56347     68.2 1.095e+04 5.370e-10
  0.57475     66.4 1.089e+04 5.386e-10
  0.59230     65.6 1.083e+04 5.608e-10
  0.60338     65.3 1.067e+04 5.199e-10
  0.61907     64.9 1.072e+04 5.693e-10
  0.63526     64.4 1.083e+04 5.840e-10
  0.64634     63.8 1.074e+04 5.328e-10
  0.66339     62.6 1.074e+04 5.206e-10
  0.67832     61.6 1.076e+04 4.898e-10
  0.70058     61.2 1.038e+04 4.165e-10
  0.74115     59.9 1.004e+04 3.565e-10
  0.76435     58.6 9.672e+03 3.051e-10
  0.78651     58.0 9.472e+03 2.807e-10
  0.82812     56.4 9.413e+03 2.774e-10
  0.85028     55.4 9.408e+03 2.744e-10
  0.87410     53.5 9.423e+03 2.806e-10
  0.91404     51.9 9.382e+03 2.880e-10
  0.93620     50.5 9.370e+03 2.909e-10
  0.96274     49.5 9.341e+03 2.914e-10
  0.99997     48.8 9.178e+03 2.792e-10
  1.02213     47.6 9.069e+03 2.668e-10
  1.05138     47.4 8.761e+03 2.157e-10
  1.08590     47.4 8.442e+03 1.660e-10
  1.10806     46.3 8.259e+03 1.402e-10
  1.14002     46.6 8.016e+03 1.144e-10
  1.17183     47.3 7.841e+03 1.044e-10
  1.19399     46.6 7.815e+03 1.026e-10
  1.22866     47.6 7.815e+03 1.032e-10
  1.25776     48.6 7.821e+03 1.055e-10
  1.27992     48.0 7.843e+03 1.090e-10
  1.29749     48.9 7.922e+03 1.201e-10
  1.31965     50.2 7.847e+03 1.130e-10
  1.34369     51.0 7.949e+03 1.264e-10
  1.36585     50.3 8.013e+03 1.347e-10
  1.40593     51.0 8.128e+03 1.504e-10
  1.42961     51.6 8.230e+03 1.642e-10
  1.45177     50.6 8.227e+03 1.608e-10
  1.49338     50.9 8.299e+03 1.665e-10
  1.51554     49.5 8.318e+03 1.630e-10
  1.53889     49.1 8.445e+03 1.748e-10
  1.57931     48.0 8.562e+03 1.931e-10
  1.60147     45.1 8.852e+03 2.263e-10
  1.62753     42.9 9.799e+03 3.284e-10
  1.66524     40.9 1.110e+04 4.990e-10
  1.68730     37.3 1.244e+04 8.141e-10
  1.70489     34.0 1.370e+04 1.248e-09
  1.71909     29.5 1.466e+04 1.947e-09
  1.73017     24.0 1.510e+04 2.591e-09
  1.74921     19.0 1.522e+04 2.802e-09
  1.76205     13.8 1.513e+04 2.753e-09
  1.77313      8.3 1.470e+04 2.416e-09
  1.79353      2.8 1.403e+04 1.956e-09
  1.80502     -2.8 1.334e+04 1.631e-09
  1.81610     -7.8 1.273e+04 1.396e-09
  1.83690    -12.6 1.274e+04 1.429e-09
  1.84798    -16.6 1.266e+04 1.403e-09
  1.86001    -21.0 1.296e+04 1.589e-09
  1.87986    -25.2 1.342e+04 1.892e-09
  1.89094    -28.8 1.368e+04 2.060e-09
  1.90433    -32.9 1.412e+04 2.318e-09
  1.92283    -37.2 1.442e+04 2.322e-09
  1.93391    -41.2 1.483e+04 2.463e-09
  1.94865    -46.4 1.507e+04 2.424e-09
  1.96579    -52.0 1.529e+04 2.421e-09
  1.97687    -56.7 1.562e+04 2.823e-09
  1.99297    -61.8 1.542e+04 2.911e-09
  2.00876    -66.0 1.507e+04 2.849e-09
  2.01984    -68.9 1.494e+04 2.884e-09
  2.03113    -71.4 1.419e+04 2.505e-09
  2.04221    -72.5 1.431e+04 2.650e-09
  2.05172    -74.3 1.344e+04 1.965e-09
  2.06280    -75.9 1.264e+04 1.418e-09
  2.08160    -77.7 1.172e+04 9.420e-10
  2.09468    -79.7 1.093e+04 6.252e-10
  2.10576    -81.6 1.034e+04 4.430e-10
  2.12592    -83.1 9.955e+03 3.406e-10
  2.15855    -84.5 9.764e+03 2.879e-10
  2.18081    -85.0 9.558e+03 2.533e-10
  2.20368    -85.4 9.413e+03 2.399e-10
  2.24458    -85.8 9.420e+03 2.441e-10
  2.26674    -86.2 9.292e+03 2.286e-10
  2.29232    -86.4 9.414e+03 2.457e-10
  2.33050    -86.4 9.526e+03 2.545e-10
  2.35266    -86.6 9.371e+03 2.271e-10
  2.38095    -86.6 9.370e+03 2.205e-10
  2.41643    -86.6 9.332e+03 2.064e-10
  2.43859    -86.8 9.249e+03 1.889e-10
  2.46959    -86.8 9.312e+03 1.914e-10
  2.50236    -87.1 9.486e+03 2.063e-10
  2.52452    -87.4 9.643e+03 2.215e-10
  2.55823    -88.0 1.015e+04 2.862e-10
  2.58829    -89.0 1.071e+04 3.734e-10
  2.61045    -89.7 1.097e+04 4.259e-10
  2.63116    -90.3 1.130e+04 5.251e-10
  2.64214    -90.7 1.139e+04 5.399e-10
  2.65775    -91.8 1.167e+04 6.378e-10
  2.67402    -92.8 1.188e+04 7.119e-10
  2.68510    -93.3 1.185e+04 6.845e-10
  2.70207    -94.3 1.195e+04 7.323e-10
  2.71699    -95.3 1.207e+04 7.703e-10
  2.72807    -95.8 1.203e+04 7.552e-10
  2.74639    -96.9 1.227e+04 8.251e-10
  2.75995    -98.2 1.262e+04 9.490e-10
  2.76743    -98.7 1.264e+04 9.584e-10
  2.77604    -99.3 1.302e+04 1.168e-09
  2.79071   -100.7 1.342e+04 1.400e-09
  2.80291   -102.1 1.381e+04 1.671e-09
  2.81399   -102.6 1.379e+04 1.671e-09
  2.83480   -103.8 1.408e+04 1.915e-09
  2.84588   -104.3 1.388e+04 1.817e-09
  2.85719   -105.5 1.401e+04 1.908e-09
  2.87776   -106.9 1.402e+04 1.933e-09
  2.88884   -107.2 1.387e+04 1.857e-09
  2.90151   -108.5 1.391e+04 1.861e-09
  2.92073   -109.8 1.385e+04 1.837e-09
  2.93181   -110.1 1.374e+04 1.782e-09
  2.94583   -111.3 1.347e+04 1.622e-09
  2.96369   -112.4 1.308e+04 1.351e-09
  2.97477   -112.7 1.285e+04 1.230e-09
  2.99015   -113.9 1.237e+04 9.917e-10
  3.00666   -115.0 1.188e+04 8.147e-10
  3.01774   -115.2 1.160e+04 7.183e-10
  3.03447   -115.8 1.119e+04 5.674e-10
  3.04962   -116.4 1.089e+04 4.685e-10
  3.06070   -116.6 1.078e+04 4.077e-10
  3.08160   -116.9 1.074e+04 3.783e-10
  3.10386   -116.7 1.044e+04 3.108e-10
  3.13438   -116.2 9.961e+03 2.334e-10
  3.16763   -115.7 9.522e+03 1.667e-10
  3.18979   -115.4 9.209e+03 1.251e-10
  3.22302   -115.1 8.999e+03 9.210e-11
  3.25356   -114.8 8.893e+03 7.706e-11
  3.27571   -114.4 8.823e+03 6.795e-11
  3.31166   -113.8 8.836e+03 6.903e-11
  3.33948   -113.2 8.890e+03 7.511e-11
  3.36164   -112.6 8.876e+03 7.434e-11
  3.40029   -112.0 8.988e+03 8.950e-11
  3.42541   -111.6 9.154e+03 1.129e-10
  3.44757   -111.4 9.238e+03 1.201e-10
  3.48790   -112.1 9.886e+03 2.020e-10
  3.51006   -111.8 9.708e+03 1.761e-10
  3.51134   -113.0 1.078e+04 3.516e-10
  3.53350   -113.2 1.139e+04 5.281e-10
  3.57511   -114.8 1.240e+04 9.761e-10
  3.59727   -115.2 1.270e+04 1.195e-09
  3.62189   -117.6 1.314e+04 1.473e-09
  3.66104   -120.2 1.334e+04 1.493e-09
  3.68320   -120.7 1.320e+04 1.430e-09
  3.69935   -122.3 1.329e+04 1.458e-09
  3.71489   -124.6 1.322e+04 1.416e-09
  3.72597   -125.2 1.313e+04 1.364e-09
  3.74357   -127.6 1.302e+04 1.345e-09
  3.75785   -129.7 1.296e+04 1.330e-09
  3.76893   -130.0 1.287e+04 1.325e-09
  3.78789   -131.4 1.268e+04 1.295e-09
  3.80081   -132.8 1.245e+04 1.201e-09
  3.81189   -132.5 1.228e+04 1.108e-09
  3.83221   -134.4 1.237e+04 1.045e-09
  3.84378   -137.4 1.270e+04 1.105e-09
  3.85486   -137.3 1.253e+04 9.710e-10
  3.87124   -141.2 1.326e+04 1.205e-09
  3.88145   -140.7 1.372e+04 1.638e-09
  3.88674   -140.5 1.348e+04 1.452e-09
  3.89869   -144.3 1.438e+04 2.169e-09
  3.91863   -147.5 1.465e+04 2.860e-09
  3.92971   -147.6 1.460e+04 2.850e-09
  3.94301   -149.8 1.436e+04 2.830e-09
  3.96159   -151.8 1.388e+04 2.384e-09
  3.97267   -151.4 1.392e+04 2.483e-09
  3.98733   -154.2 1.368e+04 1.699e-09
  4.00455   -158.5 1.313e+04 1.055e-09
  4.01563   -158.5 1.334e+04 1.122e-09
  4.03165   -163.1 1.213e+04 7.749e-10
  4.06498   -166.4 1.127e+04 6.129e-10
  4.09068   -169.0 1.068e+04 4.469e-10
  4.10166   -168.0 1.072e+04 4.401e-10
  4.12028   -168.5 1.055e+04 4.157e-10
  4.15362   -170.0 1.018e+04 3.328e-10
  4.17661   -171.6 9.933e+03 2.843e-10
  4.19877   -170.6 9.864e+03 2.762e-10
  4.23281   -171.0 9.683e+03 2.680e-10
  4.25298   -170.5 9.746e+03 2.890e-10
  4.26253   -169.2 9.739e+03 2.884e-10
  4.28668   -169.0 9.631e+03 3.021e-10
  4.32630   -168.8 9.600e+03 2.747e-10
  4.34846   -167.5 9.681e+03 2.826e-10
  4.37531   -167.8 9.479e+03 2.359e-10
  4.41223   -168.3 9.270e+03 1.985e-10
  4.43439   -166.6 9.271e+03 1.985e-10
  4.46395   -167.2 9.145e+03 1.892e-10
  4.49816   -167.9 9.370e+03 1.984e-10
  4.52032   -166.7 9.560e+03 2.055e-10
  4.55259   -168.8 1.005e+04 3.259e-10
  4.58399   -169.5 1.036e+04 5.358e-10
  4.60615   -168.7 1.035e+04 5.366e-10
  4.62695   -168.6 1.051e+04 5.533e-10
  4.63794   -167.8 1.042e+04 5.054e-10
  4.65211   -168.6 1.036e+04 4.841e-10
  4.66982   -169.3 1.015e+04 4.088e-10
  4.69208   -168.9 1.010e+04 3.747e-10
  4.72987   -170.4 9.730e+03 3.299e-10
  4.75594   -171.3 9.629e+03 2.852e-10
  4.77810   -169.8 9.624e+03 2.901e-10
  4.81851   -171.4 9.572e+03 2.693e-10
  4.84187   -172.5 9.443e+03 2.736e-10
  4.86403   -170.8 9.507e+03 2.861e-10
  4.90564   -172.0 9.542e+03 2.825e-10
  4.92780   -170.3 9.599e+03 2.827e-10
  4.95146   -172.0 9.639e+03 2.803e-10
  4.97771   -173.6 9.668e+03 2.851e-10
  4.99566   -172.9 9.794e+03 2.989e-10
  5.01373   -171.2 9.709e+03 2.848e-10
  5.04010   -172.3 9.607e+03 2.439e-10
  5.07750   -173.7 9.477e+03 1.887e-10
  5.09966   -171.9 9.439e+03 1.670e-10
  5.12874   -173.6 9.343e+03 1.444e-10
  5.16342   -174.8 9.334e+03 1.449e-10
  5.18558   -172.9 9.331e+03 1.374e-10
  5.21738   -173.6 9.502e+03 1.595e-10
  5.24935   -174.2 9.669e+03 1.678e-10
  5.27151   -172.3 9.680e+03 1.725e-10
  5.30602   -173.2 9.903e+03 1.798e-10
  5.33528   -174.5 1.014e+04 1.924e-10
  5.35744   -172.9 1.032e+04 2.332e-10
  5.39465   -174.3 1.055e+04 2.797e-10
  5.42121   -175.3 1.064e+04 3.174e-10
  5.44337   -173.7 1.079e+04 3.655e-10
  5.48329   -174.5 1.068e+04 2.996e-10
  5.50714   -175.5 1.081e+04 2.463e-10
  5.52930   -174.3 1.070e+04 2.049e-10
  5.57091   -176.3 1.088e+04 1.879e-10
  5.59307   -175.2 1.052e+04 1.512e-10
  5.61625   -177.4 1.087e+04 2.346e-10
  5.64939   -176.9 1.097e+04 3.506e-10
  5.66772   -177.1 1.106e+04 3.896e-10
  5.67890   -176.7 1.097e+04 3.435e-10
  5.69371   -176.7 1.112e+04 4.527e-10
  5.71068   -177.6 1.143e+04 4.805e-10
  5.71734   -176.3 1.125e+04 4.374e-10
  5.72243   -175.0 1.123e+04 4.274e-10
  5.73793   -177.1 1.142e+04 4.598e-10
  5.75365   -178.7 1.161e+04 4.332e-10
  5.76473   -177.3 1.147e+04 4.267e-10
  5.78225   -179.6 1.144e+04 4.052e-10
  5.79661   -181.1 1.134e+04 4.007e-10
  5.80769   -179.7 1.132e+04 3.963e-10
  5.82657   -181.2 1.120e+04 3.980e-10
  5.83958   -182.2 1.121e+04 4.103e-10
  5.85066   -180.6 1.118e+04 3.902e-10
  5.87089   -182.3 1.111e+04 3.783e-10
  5.88254   -183.5 1.116e+04 3.739e-10
  5.89362   -182.1 1.113e+04 3.500e-10
  5.91442   -184.5 1.112e+04 3.410e-10
  5.92550   -183.3 1.106e+04 3.222e-10
  5.93737   -185.3 1.131e+04 3.300e-10
  5.95739   -187.6 1.131e+04 3.849e-10
  5.96847   -186.3 1.110e+04 3.324e-10
  5.98169   -187.8 1.134e+04 4.735e-10
  6.00035   -190.3 1.254e+04 8.256e-10
  6.01143   -188.3 1.170e+04 5.814e-10
  6.02601   -192.0 1.379e+04 1.198e-09
  6.04332   -196.2 1.580e+04 3.035e-09
  6.05440   -194.4 1.508e+04 2.046e-09
  6.07033   -197.7 1.683e+04 5.314e-09
  6.08380   -199.8 1.854e+04 9.878e-09
  6.08867   -200.6 1.853e+04 8.679e-09
  6.09736   -198.9 1.806e+04 7.566e-09
  6.11465   -201.8 1.947e+04 1.006e-08
  6.12924   -206.5 1.978e+04 1.027e-08
  6.14032   -203.9 1.982e+04 1.063e-08
  6.15896   -209.9 1.958e+04 7.979e-09
  6.17221   -216.9 1.667e+04 3.761e-09
  6.18329   -214.1 1.795e+04 4.864e-09
  6.20328   -220.4 1.443e+04 2.478e-09
  6.21517   -223.4 1.311e+04 1.755e-09
  6.22625   -222.2 1.332e+04 1.884e-09
  6.24706   -223.8 1.280e+04 1.494e-09
  6.25814   -222.8 1.283e+04 1.558e-09
  6.26976   -224.2 1.257e+04 1.245e-09
  6.29002   -226.1 1.233e+04 1.032e-09
  6.30110   -225.1 1.245e+04 1.105e-09
  6.31408   -227.7 1.244e+04 1.054e-09
  6.33298   -230.9 1.279e+04 1.109e-09
  6.34406   -230.3 1.295e+04 1.178e-09
  6.35840   -233.9 1.378e+04 1.723e-09
  6.37595   -236.8 1.432e+04 2.611e-09
  6.38703   -236.8 1.448e+04 2.777e-09
  6.40272   -239.4 1.461e+04 3.351e-09
  6.41891   -242.0 1.456e+04 3.436e-09
  6.42999   -241.9 1.477e+04 3.728e-09
  6.44517   -244.0 1.412e+04 3.054e-09
  6.45625   -244.4 1.421e+04 3.160e-09
  6.46188   -246.6 1.319e+04 1.771e-09
  6.47296   -246.4 1.332e+04 1.874e-09
  6.49136   -249.2 1.199e+04 8.947e-10
  6.50484   -251.8 1.080e+04 4.729e-10
  6.51592   -251.8 1.078e+04 4.697e-10
  6.53568   -253.5 1.027e+04 3.286e-10
  6.54781   -254.1 1.010e+04 2.919e-10
  6.55889   -254.1 1.009e+04 2.898e-10
  6.57979   -255.0 1.000e+04 2.712e-10
  6.60204   -254.9 9.997e+03 2.688e-10
  6.63559   -256.0 9.822e+03 2.368e-10
  6.66581   -256.7 9.702e+03 2.179e-10
  6.68797   -256.6 9.710e+03 2.170e-10
  6.72423   -257.0 9.705e+03 2.151e-10
  6.75174   -257.6 1.003e+04 2.513e-10
  6.77390   -258.2 1.028e+04 3.039e-10
  6.81287   -258.9 1.105e+04 5.315e-10
  6.83767   -259.7 1.171e+04 8.535e-10
  6.85983   -260.6 1.207e+04 1.082e-09
  6.90144   -261.7 1.244e+04 1.354e-09
  6.94576   -264.2 1.259e+04 1.518e-09
  6.98737   -264.9 1.227e+04 1.314e-09
  7.00953   -265.7 1.208e+04 1.222e-09
  7.03446   -265.3 1.140e+04 8.236e-10
  7.07329   -264.6 1.077e+04 5.585e-10
  7.09545   -265.0 1.067e+04 5.266e-10
  7.12310   -263.9 1.039e+04 4.209e-10
  7.15922   -262.6 1.030e+04 3.818e-10
  7.18138   -262.8 1.026e+04 3.744e-10
  7.19028   -261.3 1.023e+04 3.596e-10
  7.21244   -260.6 1.030e+04 3.602e-10
  7.24515   -259.1 1.030e+04 3.586e-10
  7.26731   -259.3 1.024e+04 3.392e-10
  7.30038   -257.8 1.025e+04 3.390e-10
  7.33108   -256.6 1.036e+04 3.495e-10
  7.35324   -256.7 1.024e+04 3.111e-10
  7.38902   -255.6 1.036e+04 3.368e-10
  7.41701   -254.6 1.048e+04 3.766e-10
  7.43917   -254.6 1.029e+04 3.335e-10
  7.47765   -253.5 1.040e+04 3.837e-10
  7.50294   -252.4 1.053e+04 4.102e-10
  7.52509   -252.4 1.033e+04 3.621e-10
  7.56629   -251.3 1.042e+04 3.698e-10
  7.58886   -249.8 1.051e+04 3.739e-10
  7.61102   -249.5 1.029e+04 3.282e-10
  7.65263   -248.0 1.038e+04 3.327e-10
  7.67479   -247.8 1.013e+04 2.889e-10
  7.69925   -246.3 1.020e+04 2.907e-10
  7.73856   -244.7 1.035e+04 3.006e-10
  7.76072   -244.2 1.009e+04 2.472e-10
  7.78789   -242.7 1.023e+04 2.601e-10
  7.82449   -241.2 1.040e+04 2.926e-10
  7.84665   -240.5 1.006e+04 2.167e-10
  7.87653   -239.2 1.025e+04 2.474e-10
  7.91042   -238.0 1.046e+04 3.036e-10
  7.92476   -237.2 1.023e+04 2.245e-10
  7.93519   -236.8 1.059e+04 3.499e-10
  7.95328   -235.8 1.081e+04 4.318e-10
  7.96427   -235.3 1.071e+04 3.929e-10
  7.97605   -235.1 1.083e+04 4.437e-10
  7.99625   -234.4 1.119e+04 6.043e-10
  8.01850   -234.0 1.091e+04 4.695e-10
  8.05380   -233.0 1.132e+04 6.331e-10
  8.08227   -232.1 1.172e+04 7.768e-10
  8.10443   -232.1 1.130e+04 6.119e-10
  8.14244   -231.3 1.163e+04 7.371e-10
  8.16820   -230.6 1.192e+04 7.980e-10
  8.19036   -230.4 1.150e+04 6.481e-10
  8.23108   -229.8 1.172e+04 6.801e-10
  8.25413   -229.1 1.178e+04 6.873e-10
  8.27629   -228.2 1.138e+04 5.081e-10
  8.30854   -226.0 1.134e+04 4.473e-10
  8.32878   -225.7 1.137e+04 4.312e-10
  8.33996   -225.7 1.122e+04 3.765e-10
  8.36404   -224.8 1.133e+04 3.486e-10
  8.40383   -224.0 1.129e+04 3.134e-10
  8.42599   -223.1 1.113e+04 2.657e-10
  8.45268   -222.1 1.114e+04 2.572e-10
  8.48975   -221.3 1.117e+04 2.568e-10
  8.51191   -220.8 1.112e+04 2.272e-10
  8.54131   -220.1 1.124e+04 2.576e-10
  8.57568   -219.6 1.145e+04 3.279e-10
  8.59784   -219.2 1.131e+04 3.006e-10
  8.61855   -218.5 1.145e+04 3.637e-10
  8.62953   -218.3 1.139e+04 3.487e-10
  8.64084   -218.1 1.144e+04 3.745e-10
  8.65774   -217.5 1.163e+04 4.490e-10
  8.66724   -217.4 1.172e+04 5.003e-10
  8.67250   -217.4 1.157e+04 4.431e-10
  8.68516   -217.0 1.163e+04 4.901e-10
  8.70438   -216.6 1.183e+04 5.340e-10
  8.71546   -216.9 1.159e+04 4.713e-10
  8.72947   -217.0 1.193e+04 5.078e-10
  8.74734   -218.9 1.267e+04 6.873e-10
  8.75842   -219.5 1.262e+04 5.861e-10
  8.77379   -223.5 1.488e+04 1.866e-09
  8.79031   -225.2 1.767e+04 7.105e-09
  8.80139   -225.4 1.700e+04 5.554e-09
  8.81811   -225.7 1.892e+04 1.459e-08
  8.83322   -225.7 1.968e+04 2.078e-08
  8.83871   -225.8 1.917e+04 1.720e-08
  8.84387   -226.5 2.019e+04 2.209e-08
  8.84941   -226.6 2.055e+04 2.379e-08
  8.85466   -227.5 2.188e+04 3.592e-08
  8.86020   -227.3 2.097e+04 2.641e-08
  8.86787   -228.7 2.177e+04 3.260e-08
  8.87614   -230.4 2.222e+04 3.465e-08
  8.88168   -229.8 2.121e+04 2.727e-08
  8.89003   -231.4 2.130e+04 2.748e-08
  8.89762   -233.0 2.164e+04 2.341e-08
  8.90316   -232.1 2.058e+04 2.071e-08
  8.91219   -233.8 2.037e+04 1.534e-08
  8.91910   -236.1 1.952e+04 1.056e-08
  8.92464   -234.6 1.913e+04 1.025e-08
  8.93435   -236.9 1.814e+04 7.223e-09
  8.94058   -239.0 1.701e+04 5.489e-09
  8.94612   -237.3 1.704e+04 5.249e-09
  8.95651   -238.8 1.636e+04 4.566e-09
  8.97318   -237.9 1.583e+04 3.776e-09
  8.99405   -239.9 1.453e+04 3.144e-09
  9.00513   -237.3 1.419e+04 2.487e-09
  9.01755   -238.9 1.316e+04 2.212e-09
  9.03019   -239.4 1.292e+04 2.172e-09
  9.03858   -239.6 1.314e+04 2.356e-09
  9.04809   -237.9 1.283e+04 1.832e-09
  9.06187   -237.9 1.270e+04 1.854e-09
  9.07998   -237.7 1.255e+04 2.048e-09
  9.09106   -236.2 1.229e+04 1.650e-09
  9.10619   -235.9 1.231e+04 1.810e-09
  9.12294   -235.4 1.231e+04 1.854e-09
  9.13402   -234.0 1.210e+04 1.606e-09
  9.15051   -233.6 1.209e+04 1.619e-09
  9.16590   -233.1 1.200e+04 1.512e-09
  9.17698   -231.6 1.188e+04 1.422e-09
  9.19483   -231.0 1.176e+04 1.276e-09
  9.20887   -230.5 1.162e+04 1.094e-09
  9.21995   -228.9 1.156e+04 1.081e-09
  9.23914   -228.4 1.139e+04 9.153e-10
  9.25183   -228.0 1.122e+04 7.984e-10
  9.26291   -226.2 1.120e+04 7.816e-10
  9.28346   -225.8 1.104e+04 6.984e-10
  9.29480   -225.4 1.091e+04 6.646e-10
  9.30588   -223.7 1.086e+04 6.189e-10
  9.32668   -223.1 1.078e+04 6.004e-10
  9.33776   -221.3 1.074e+04 5.616e-10
  9.34994   -220.6 1.072e+04 5.552e-10
  9.36965   -220.6 1.083e+04 5.616e-10
  9.38073   -218.9 1.078e+04 5.330e-10
  9.39157   -220.4 1.176e+04 6.369e-10
  9.40265   -219.7 1.132e+04 6.200e-10
  9.41261   -221.5 1.319e+04 1.266e-09
  9.42369   -219.9 1.313e+04 1.077e-09
  9.43858   -221.6 1.482e+04 2.569e-09
  9.45557   -222.6 1.590e+04 4.858e-09
  9.46665   -221.1 1.598e+04 4.931e-09
  9.48290   -222.0 1.663e+04 7.146e-09
  9.49854   -223.5 1.676e+04 7.716e-09
  9.50962   -221.9 1.694e+04 8.268e-09
  9.52722   -223.8 1.657e+04 7.861e-09
  9.54150   -224.9 1.525e+04 5.207e-09
  9.55258   -223.9 1.561e+04 5.424e-09
  9.57154   -225.4 1.372e+04 2.881e-09
  9.58447   -226.8 1.189e+04 1.607e-09
  9.59555   -227.0 1.192e+04 1.558e-09
  9.61586   -228.2 1.094e+04 1.033e-09
  9.62743   -228.7 1.059e+04 8.715e-10
  9.63851   -229.2 1.062e+04 8.722e-10
  9.65931   -229.2 1.047e+04 8.184e-10
  9.67039   -229.6 1.056e+04 8.388e-10
  9.68234   -229.1 1.051e+04 8.229e-10
  9.70228   -228.5 1.050e+04 8.208e-10
  9.71336   -229.1 1.065e+04 8.663e-10
  9.72666   -228.8 1.065e+04 8.888e-10
  9.74524   -228.5 1.081e+04 9.710e-10
  9.75632   -229.1 1.127e+04 1.153e-09
  9.76402   -228.6 1.135e+04 1.254e-09
  9.77510   -228.9 1.159e+04 1.374e-09
  9.78821   -228.4 1.168e+04 1.536e-09
  9.79929   -228.8 1.209e+04 1.701e-09
  9.81529   -228.0 1.222e+04 1.891e-09
  9.83117   -227.1 1.254e+04 2.197e-09
  9.84225   -227.8 1.293e+04 2.339e-09
  9.85961   -227.2 1.336e+04 2.751e-09
  9.87413   -226.7 1.399e+04 3.345e-09
  9.88521   -227.9 1.436e+04 3.523e-09
  9.90393   -227.8 1.523e+04 4.467e-09
  9.91710   -228.0 1.638e+04 5.820e-09
  9.92818   -229.5 1.651e+04 6.180e-09
