# Columns:
#   distance along LOS (in CHIMPs)
#   peculiar velocity  (in km/s)
#   temperature (K)
#   HI number density
# pos=(203.591,61.3153,68.2484), angles=(1.50761,3.40968)
  0.00221    -21.1 1.137e+04 3.086e-10
  0.00979    -21.1 1.131e+04 2.984e-10
  0.02708    -20.0 1.132e+04 2.981e-10
  0.04738    -20.1 1.128e+04 2.489e-10
  0.07606    -19.0 1.128e+04 2.709e-10
  0.11665    -17.7 1.120e+04 2.962e-10
  0.15724    -16.4 1.114e+04 2.983e-10
  0.18215    -15.1 1.108e+04 2.859e-10
  0.20244    -14.8 1.101e+04 2.200e-10
  0.23842    -13.8 1.097e+04 2.142e-10
  0.27901    -12.7 1.095e+04 2.110e-10
  0.31691    -11.4 1.089e+04 2.005e-10
  0.33721    -11.2 1.091e+04 1.830e-10
  0.36019     -9.9 1.081e+04 1.700e-10
  0.40078     -8.6 1.074e+04 1.385e-10
  0.44137     -7.7 1.073e+04 1.078e-10
  0.47198     -7.0 1.072e+04 9.745e-11
  0.49227     -7.0 1.081e+04 1.060e-10
  0.52255     -6.4 1.080e+04 1.086e-10
  0.56314     -5.8 1.081e+04 1.234e-10
  0.60323     -5.1 1.081e+04 1.485e-10
  0.62352     -5.3 1.079e+04 1.476e-10
  0.62704     -4.4 1.079e+04 1.645e-10
  0.64733     -4.7 1.081e+04 1.656e-10
  0.68491     -4.2 1.084e+04 1.775e-10
  0.72551     -3.7 1.084e+04 1.937e-10
  0.76181     -3.1 1.079e+04 2.176e-10
  0.78210     -3.7 1.070e+04 2.164e-10
  0.80669     -2.9 1.063e+04 2.167e-10
  0.84728     -2.0 1.056e+04 2.070e-10
  0.88787     -1.1 1.054e+04 1.952e-10
  0.91687     -0.2 1.055e+04 1.934e-10
  0.93717     -0.5 1.049e+04 1.916e-10
  0.96905      0.3 1.051e+04 2.145e-10
  1.00964      1.0 1.054e+04 2.587e-10
  1.05023      1.9 1.057e+04 3.026e-10
  1.07193      2.8 1.057e+04 3.191e-10
  1.09223      2.7 1.048e+04 3.123e-10
  1.13141      3.6 1.039e+04 3.033e-10
  1.17200      4.5 1.027e+04 2.727e-10
  1.20670      5.5 1.018e+04 2.319e-10
  1.22700      5.8 1.011e+04 2.226e-10
  1.23726      6.8 1.005e+04 1.859e-10
  1.25755      5.7 1.001e+04 1.842e-10
  1.29377      6.8 9.903e+03 1.621e-10
  1.33436      8.1 9.831e+03 1.601e-10
  1.36176      9.7 9.817e+03 1.607e-10
  1.38206     10.3 9.762e+03 1.551e-10
  1.41554     12.0 9.745e+03 1.545e-10
  1.45613     13.8 9.725e+03 1.512e-10
  1.49653     15.7 9.701e+03 1.448e-10
  1.53712     18.4 9.614e+03 1.333e-10
  1.57791     20.3 9.572e+03 1.327e-10
  1.61850     22.3 9.565e+03 1.340e-10
  1.65159     24.2 9.554e+03 1.403e-10
  1.67189     25.2 9.482e+03 1.358e-10
  1.69968     27.1 9.492e+03 1.489e-10
  1.74027     29.1 9.543e+03 1.705e-10
  1.78086     31.0 9.654e+03 1.982e-10
  1.80666     33.0 9.787e+03 2.296e-10
  1.82695     33.9 9.680e+03 2.273e-10
  1.85099     35.8 9.855e+03 2.682e-10
  1.87128     35.4 1.007e+04 3.256e-10
  1.90263     37.1 1.034e+04 3.983e-10
  1.93298     38.3 1.038e+04 4.236e-10
  1.95138     38.7 1.047e+04 4.559e-10
  1.96152     39.3 1.046e+04 4.879e-10
  1.97347     39.7 1.068e+04 5.974e-10
  1.99376     40.3 1.093e+04 7.347e-10
  2.01406     40.7 1.120e+04 8.842e-10
  2.02891     40.9 1.144e+04 1.045e-09
  2.03906     41.3 1.158e+04 1.136e-09
  2.05465     41.3 1.184e+04 1.325e-09
  2.07494     41.0 1.210e+04 1.532e-09
  2.09524     40.6 1.236e+04 1.758e-09
  2.10644     40.1 1.262e+04 2.032e-09
  2.11659     40.4 1.280e+04 2.151e-09
  2.13583     39.9 1.291e+04 2.319e-09
  2.15613     39.2 1.295e+04 2.396e-09
  2.16781     38.7 1.291e+04 2.371e-09
  2.17536     37.4 1.300e+04 2.470e-09
  2.18397     37.6 1.306e+04 2.550e-09
  2.19672     37.1 1.286e+04 2.333e-09
  2.22726     37.2 1.250e+04 1.968e-09
  2.25155     37.0 1.174e+04 1.422e-09
  2.27185     37.7 1.159e+04 1.362e-09
  2.30854     38.1 1.070e+04 8.568e-10
  2.34913     38.7 9.856e+03 5.301e-10
  2.38632     39.6 9.466e+03 4.112e-10
  2.40661     40.6 9.173e+03 3.394e-10
  2.43031     42.2 9.157e+03 3.389e-10
  2.46472     43.9 9.240e+03 3.658e-10
  2.48502     42.5 9.468e+03 4.326e-10
  2.51149     43.9 9.791e+03 5.440e-10
  2.54138     45.3 1.012e+04 6.823e-10
  2.56168     46.9 9.861e+03 5.891e-10
  2.59267     48.1 1.008e+04 6.855e-10
  2.63326     49.3 1.010e+04 6.885e-10
  2.67385     50.2 9.952e+03 6.105e-10
  2.69644     50.9 9.600e+03 4.741e-10
  2.71674     52.9 9.584e+03 4.700e-10
  2.75503     53.4 9.282e+03 3.758e-10
  2.79562     53.8 9.240e+03 3.618e-10
  2.83121     53.7 9.392e+03 3.894e-10
  2.85141     54.7 9.391e+03 4.003e-10
  2.86646     54.1 9.550e+03 4.719e-10
  2.88676     53.4 9.913e+03 6.128e-10
  2.90705     52.8 1.040e+04 8.419e-10
  2.91869     52.2 1.093e+04 1.158e-09
  2.92884     53.0 1.094e+04 1.161e-09
  2.94764     52.4 1.141e+04 1.524e-09
  2.96794     51.7 1.177e+04 1.797e-09
  2.98608     50.7 1.199e+04 1.830e-09
  2.99623     51.2 1.206e+04 1.898e-09
  3.00853     49.5 1.214e+04 1.871e-09
  3.02882     47.3 1.220e+04 1.824e-09
  3.04912     44.7 1.224e+04 1.824e-09
  3.06361     42.0 1.234e+04 1.880e-09
  3.07376     41.9 1.245e+04 1.961e-09
  3.08841     39.2 1.249e+04 2.003e-09
  3.09855     37.9 1.248e+04 1.978e-09
  3.11000     35.4 1.242e+04 1.897e-09
  3.13030     33.1 1.219e+04 1.756e-09
  3.14114     31.1 1.176e+04 1.535e-09
  3.15129     30.5 1.151e+04 1.423e-09
  3.17089     29.1 1.102e+04 1.161e-09
  3.19118     28.1 1.060e+04 9.217e-10
  3.20853     27.1 1.029e+04 7.165e-10
  3.21867     26.9 1.027e+04 7.072e-10
  3.23177     25.8 1.004e+04 5.906e-10
  3.25207     25.4 9.961e+03 5.745e-10
  3.27237     25.2 1.003e+04 5.965e-10
  3.28606     25.1 1.009e+04 6.137e-10
  3.29620     24.9 1.028e+04 6.926e-10
  3.31296     24.9 1.056e+04 7.962e-10
  3.33325     25.0 1.068e+04 8.427e-10
  3.36379     24.9 1.121e+04 1.065e-09
  3.40448     25.2 1.111e+04 9.709e-10
  3.43117     26.0 1.082e+04 7.954e-10
  3.45146     25.3 1.095e+04 8.721e-10
  3.47542     25.6 1.087e+04 8.211e-10
  3.49561     25.7 1.077e+04 7.855e-10
  3.50850     26.0 1.077e+04 7.895e-10
  3.51865     25.7 1.076e+04 7.909e-10
  3.53620     26.1 1.080e+04 8.218e-10
  3.55650     26.6 1.087e+04 8.621e-10
  3.57589     27.2 1.100e+04 9.152e-10
  3.58603     26.9 1.090e+04 8.468e-10
  3.59709     27.8 1.092e+04 8.251e-10
  3.61738     28.5 1.094e+04 8.109e-10
  3.64793     29.7 1.080e+04 7.095e-10
  3.68861     31.4 1.065e+04 5.849e-10
  3.71248     33.6 1.025e+04 3.884e-10
  3.72457     33.2 1.026e+04 3.820e-10
  3.74129     33.1 9.848e+03 2.521e-10
  3.76979     35.2 9.714e+03 1.787e-10
  3.81039     37.4 9.613e+03 1.348e-10
  3.85098     39.7 9.540e+03 1.199e-10
  3.87606     42.4 9.536e+03 1.199e-10
  3.89636     42.6 9.511e+03 1.170e-10
  3.93216     45.4 9.561e+03 1.209e-10
  3.97275     48.1 9.655e+03 1.320e-10
  4.01083     50.9 9.767e+03 1.529e-10
  4.03112     51.0 9.768e+03 1.540e-10
  4.05393     53.7 9.861e+03 1.802e-10
  4.09452     56.5 9.933e+03 2.064e-10
  4.13511     59.1 9.999e+03 2.323e-10
  4.16589     61.7 1.006e+04 2.543e-10
  4.18619     61.5 9.931e+03 2.102e-10
  4.21629     63.9 9.940e+03 2.139e-10
  4.25688     66.3 9.936e+03 2.184e-10
  4.29747     68.8 9.927e+03 2.314e-10
  4.32095     71.5 1.004e+04 2.642e-10
  4.32940     71.5 9.903e+03 2.384e-10
  4.34651     72.4 1.045e+04 3.214e-10
  4.36841     74.0 1.051e+04 3.451e-10
  4.38814     74.7 1.053e+04 3.533e-10
  4.39829     74.6 1.043e+04 3.365e-10
  4.40890     75.4 1.047e+04 3.678e-10
  4.42920     76.4 1.062e+04 4.275e-10
  4.44949     77.4 1.088e+04 5.141e-10
  4.46567     78.2 1.120e+04 6.276e-10
  4.47582     77.4 1.133e+04 6.530e-10
  4.49008     76.9 1.238e+04 8.772e-10
  4.51038     76.1 1.378e+04 1.369e-09
  4.53067     75.3 1.515e+04 2.292e-09
  4.54321     75.0 1.641e+04 3.807e-09
  4.55335     72.2 1.746e+04 6.417e-09
  4.57126     71.9 1.841e+04 9.110e-09
  4.59156     71.0 1.919e+04 1.167e-08
  4.61059     69.5 2.002e+04 1.431e-08
  4.62074     66.4 1.922e+04 1.318e-08
  4.62703     66.1 1.945e+04 1.415e-08
  4.63712     65.6 1.956e+04 1.426e-08
  4.64294     64.8 1.954e+04 1.414e-08
  4.64801     63.8 1.913e+04 1.284e-08
  4.65433     63.3 1.906e+04 1.246e-08
  4.65940     61.8 1.806e+04 9.151e-09
  4.66757     61.0 1.775e+04 8.364e-09
  4.67771     60.6 1.756e+04 8.029e-09
  4.68786     60.1 1.742e+04 7.468e-09
  4.69310     59.6 1.726e+04 7.066e-09
  4.69822     58.7 1.631e+04 5.386e-09
  4.71333     58.0 1.570e+04 4.488e-09
  4.73362     57.6 1.545e+04 3.783e-09
  4.75392     57.2 1.498e+04 3.018e-09
  4.76565     56.7 1.439e+04 2.321e-09
  4.77580     55.9 1.263e+04 1.539e-09
  4.79451     55.8 1.229e+04 1.261e-09
  4.81481     55.9 1.202e+04 1.069e-09
  4.83304     56.1 1.176e+04 9.317e-10
  4.84318     56.3 1.128e+04 8.057e-10
  4.85540     56.8 1.116e+04 7.364e-10
  4.87569     57.5 1.106e+04 7.052e-10
  4.89599     58.3 1.105e+04 7.055e-10
  4.91057     59.2 1.109e+04 7.172e-10
  4.92071     59.5 1.090e+04 6.607e-10
  4.93658     60.4 1.103e+04 6.968e-10
  4.94990     61.1 1.132e+04 7.822e-10
  4.96005     60.6 1.191e+04 9.646e-10
  4.97717     60.9 1.262e+04 1.252e-09
  4.98810     60.5 1.369e+04 1.867e-09
  4.99825     59.7 1.356e+04 1.862e-09
  5.01776     59.3 1.488e+04 3.198e-09
  5.03805     59.7 1.683e+04 5.920e-09
  5.05323     59.7 1.728e+04 6.854e-09
  5.06046     59.1 1.810e+04 8.301e-09
  5.06553     58.1 1.735e+04 6.981e-09
  5.07347     56.7 1.874e+04 9.496e-09
  5.08362     54.7 2.034e+04 1.417e-08
  5.09377     52.6 2.162e+04 2.230e-08
  5.09922     50.6 2.239e+04 3.381e-08
  5.10362     49.9 2.201e+04 1.738e-08
  5.10831     49.2 2.257e+04 2.992e-08
  5.11406     47.0 2.304e+04 3.117e-08
  5.12421     44.6 2.303e+04 3.014e-08
  5.13292     41.7 2.292e+04 2.569e-08
  5.13799     39.9 2.206e+04 1.324e-08
  5.14451     36.5 2.051e+04 1.078e-08
  5.15978     33.0 1.926e+04 9.174e-09
  5.18012     27.8 1.836e+04 9.864e-09
  5.20040     23.4 1.787e+04 1.030e-08
  5.22069     21.2 1.715e+04 9.606e-09
  5.24101     19.4 1.692e+04 9.116e-09
  5.25677     17.9 1.627e+04 7.362e-09
  5.26691     17.1 1.647e+04 7.985e-09
  5.27793     15.2 1.545e+04 5.239e-09
  5.28808     15.5 1.547e+04 5.220e-09
  5.30189     12.0 1.429e+04 2.879e-09
  5.32219      7.1 1.290e+04 1.501e-09
  5.34248      1.1 1.230e+04 1.196e-09
  5.35546     -5.9 1.274e+04 1.356e-09
  5.36561     -7.4 1.317e+04 1.667e-09
  5.38307    -13.4 1.387e+04 2.575e-09
  5.40337    -17.0 1.359e+04 3.021e-09
  5.42284    -18.9 1.320e+04 2.819e-09
  5.43299    -19.8 1.331e+04 2.911e-09
  5.44396    -21.4 1.253e+04 2.103e-09
  5.46425    -23.7 1.192e+04 1.309e-09
  5.48455    -26.8 1.125e+04 7.788e-10
  5.50038    -29.5 1.022e+04 5.488e-10
  5.51052    -29.6 1.026e+04 6.246e-10
  5.52514    -30.0 9.867e+03 5.671e-10
  5.54543    -29.6 9.601e+03 5.094e-10
  5.56363    -29.3 9.579e+03 4.816e-10
  5.57378    -29.2 9.676e+03 5.561e-10
  5.59627    -28.2 9.499e+03 4.524e-10
  5.63534    -26.4 9.069e+03 3.212e-10
  5.65563    -25.4 8.833e+03 2.772e-10
  5.67755    -23.4 8.579e+03 1.952e-10
  5.71814    -21.8 8.472e+03 1.464e-10
  5.75873    -20.3 8.371e+03 1.283e-10
  5.79040    -18.5 8.364e+03 1.292e-10
  5.81070    -17.2 8.356e+03 1.275e-10
  5.83991    -15.5 8.444e+03 1.364e-10
  5.88050    -13.9 8.685e+03 1.735e-10
  5.92109    -12.4 9.059e+03 2.486e-10
  5.94546    -11.2 9.459e+03 3.531e-10
  5.96576    -10.5 9.670e+03 4.099e-10
  6.00227     -9.9 1.033e+04 6.460e-10
  6.04286     -9.0 1.091e+04 8.858e-10
  6.07321     -7.9 1.121e+04 1.063e-09
  6.09018     -7.5 1.140e+04 1.132e-09
  6.10033     -7.7 1.195e+04 1.465e-09
  6.11370     -7.6 1.210e+04 1.523e-09
  6.13400     -7.6 1.223e+04 1.588e-09
  6.15429     -7.6 1.239e+04 1.713e-09
  6.16772     -7.3 1.245e+04 1.814e-09
  6.17786     -7.6 1.305e+04 2.440e-09
  6.18751     -7.1 1.303e+04 2.424e-09
  6.19766     -6.7 1.345e+04 3.008e-09
  6.21518     -6.2 1.347e+04 3.088e-09
  6.23510     -5.6 1.345e+04 2.996e-09
  6.24525     -5.8 1.380e+04 3.461e-09
  6.25577     -5.5 1.367e+04 3.081e-09
  6.27606     -5.7 1.356e+04 2.775e-09
  6.29636     -6.2 1.345e+04 2.666e-09
  6.31263     -6.6 1.344e+04 2.708e-09
  6.32278     -6.8 1.356e+04 2.953e-09
  6.33695     -7.2 1.367e+04 3.190e-09
  6.35725     -7.7 1.385e+04 3.489e-09
  6.37754     -8.1 1.408e+04 3.871e-09
  6.39016     -8.5 1.429e+04 4.153e-09
  6.40031     -8.2 1.444e+04 4.349e-09
  6.41813     -8.4 1.439e+04 4.319e-09
  6.43843     -8.1 1.407e+04 3.968e-09
  6.45755     -7.4 1.347e+04 3.121e-09
  6.46769     -7.1 1.354e+04 3.212e-09
  6.47902     -6.3 1.292e+04 2.235e-09
  6.49438     -6.1 1.235e+04 1.380e-09
  6.50453     -6.6 1.234e+04 1.214e-09
  6.51961     -6.9 1.190e+04 7.398e-10
  6.53508     -7.5 1.144e+04 5.373e-10
  6.54523     -6.5 1.147e+04 5.319e-10
  6.56020     -6.7 1.105e+04 4.354e-10
  6.58049     -6.3 1.066e+04 4.252e-10
  6.60079     -5.3 1.060e+04 4.352e-10
  6.61261     -4.2 1.061e+04 4.680e-10
  6.62276     -3.6 1.057e+04 4.257e-10
  6.64138     -2.4 1.063e+04 4.605e-10
  6.66167     -1.5 1.079e+04 5.112e-10
  6.68009     -0.1 1.066e+04 4.950e-10
  6.70048      1.0 1.063e+04 4.546e-10
  6.73290      3.0 1.061e+04 4.534e-10
  6.77349      4.8 1.067e+04 4.684e-10
  6.80144      6.3 1.082e+04 5.244e-10
  6.82174      4.8 1.161e+04 1.106e-09
  6.83525      6.6 1.175e+04 1.218e-09
  6.85555      7.7 1.170e+04 1.128e-09
  6.89526      9.5 1.178e+04 1.144e-09
  6.93586     11.3 1.180e+04 1.088e-09
  6.97002     13.3 1.176e+04 9.721e-10
  6.99031     13.6 1.189e+04 9.733e-10
  7.01704     15.7 1.200e+04 9.427e-10
  7.05763     17.8 1.210e+04 9.372e-10
  7.09822     20.2 1.213e+04 9.531e-10
  7.12498     21.4 1.219e+04 1.102e-09
  7.13503     21.4 1.226e+04 1.189e-09
  7.14876     22.5 1.224e+04 1.224e-09
  7.16906     23.9 1.222e+04 1.254e-09
  7.18935     25.3 1.230e+04 1.311e-09
  7.20242     26.5 1.240e+04 1.375e-09
  7.21257     26.4 1.241e+04 1.383e-09
  7.22994     27.5 1.245e+04 1.423e-09
  7.25024     28.8 1.247e+04 1.463e-09
  7.26980     30.1 1.257e+04 1.542e-09
  7.27995     30.1 1.255e+04 1.525e-09
  7.29083     31.1 1.269e+04 1.635e-09
  7.31112     32.1 1.279e+04 1.727e-09
  7.33142     33.2 1.289e+04 1.788e-09
  7.34733     34.1 1.300e+04 1.821e-09
  7.35748     34.1 1.288e+04 1.659e-09
  7.37201     34.7 1.305e+04 1.690e-09
  7.39230     35.3 1.328e+04 1.744e-09
  7.41260     35.6 1.349e+04 1.844e-09
  7.42486     35.9 1.359e+04 1.910e-09
  7.42724     35.7 1.353e+04 1.753e-09
  7.43527     34.7 1.347e+04 1.738e-09
  7.45319     35.1 1.341e+04 1.719e-09
  7.47348     35.7 1.320e+04 1.613e-09
  7.49225     36.4 1.292e+04 1.367e-09
  7.50240     36.6 1.266e+04 1.145e-09
  7.51408     37.2 1.249e+04 9.184e-10
  7.53437     37.2 1.239e+04 7.090e-10
  7.55467     37.0 1.231e+04 5.487e-10
  7.56978     36.4 1.216e+04 4.273e-10
  7.59017     36.0 1.197e+04 3.660e-10
  7.62589     36.1 1.157e+04 3.437e-10
  7.66648     36.6 1.148e+04 3.470e-10
  7.70474     37.2 1.138e+04 3.620e-10
  7.72504     37.7 1.131e+04 3.197e-10
  7.74767     38.1 1.124e+04 3.498e-10
  7.78826     38.7 1.110e+04 3.640e-10
  7.82885     39.2 1.098e+04 3.629e-10
  7.85919     39.7 1.087e+04 3.468e-10
  7.86976     39.6 1.085e+04 3.435e-10
  7.88000     40.2 1.097e+04 4.102e-10
  7.89978     40.1 1.085e+04 3.882e-10
  7.91998     40.3 1.079e+04 4.290e-10
  7.93714     40.7 1.077e+04 4.849e-10
  7.94729     41.4 1.077e+04 4.932e-10
  7.96057     41.9 1.079e+04 5.259e-10
  7.98087     42.5 1.081e+04 5.469e-10
  8.00116     43.1 1.084e+04 5.607e-10
  8.01467     43.6 1.083e+04 5.674e-10
  8.02482     44.2 1.082e+04 5.265e-10
  8.03886     44.7 1.081e+04 5.284e-10
  8.04910     44.4 1.081e+04 3.720e-10
  8.07239     45.6 1.086e+04 3.737e-10
  8.11298     46.8 1.096e+04 3.917e-10
  8.14964     48.0 1.104e+04 4.523e-10
  8.16993     48.9 1.089e+04 3.808e-10
  8.19416     50.6 1.093e+04 4.558e-10
  8.23475     51.9 1.110e+04 5.791e-10
  8.27534     53.0 1.141e+04 7.566e-10
  8.30470     54.3 1.178e+04 9.553e-10
  8.32499     55.7 1.176e+04 9.428e-10
  8.34582     55.6 1.202e+04 1.082e-09
  8.35587     55.6 1.173e+04 9.566e-10
  8.36648     55.5 1.175e+04 9.597e-10
  8.38203     55.2 1.180e+04 9.795e-10
  8.39218     55.7 1.181e+04 9.740e-10
  8.40707     55.0 1.192e+04 1.027e-09
  8.42736     54.0 1.211e+04 1.141e-09
  8.44766     53.0 1.241e+04 1.356e-09
  8.45957     52.0 1.271e+04 1.603e-09
  8.46971     52.5 1.264e+04 1.577e-09
  8.48825     51.6 1.279e+04 1.661e-09
  8.50854     50.4 1.272e+04 1.553e-09
  8.52695     49.3 1.255e+04 1.386e-09
  8.53710     50.0 1.253e+04 1.388e-09
  8.55938     48.3 1.205e+04 1.012e-09
  8.59453     46.5 1.122e+04 6.137e-10
  8.61482     47.8 1.122e+04 6.177e-10
  8.64066     46.7 1.034e+04 3.696e-10
  8.66293     46.4 9.676e+03 2.360e-10
  8.68323     47.2 1.015e+04 3.559e-10
  8.72184     47.2 9.673e+03 2.280e-10
  8.74959     47.4 9.490e+03 1.580e-10
  8.76989     48.5 9.470e+03 1.563e-10
  8.80302     48.8 9.352e+03 1.169e-10
  8.84361     49.6 9.164e+03 1.099e-10
  8.88420     50.8 9.146e+03 1.104e-10
  8.92479     53.1 9.085e+03 1.176e-10
  8.96538     54.6 9.094e+03 1.496e-10
  9.00597     56.4 9.393e+03 2.166e-10
  9.03942     57.5 9.733e+03 2.953e-10
  9.05972     57.9 9.666e+03 2.993e-10
  9.07691     58.1 9.884e+03 3.715e-10
  9.09711     58.1 1.014e+04 4.963e-10
  9.11676     57.9 1.046e+04 7.165e-10
  9.12691     58.2 1.030e+04 6.665e-10
  9.13770     58.1 1.072e+04 9.426e-10
  9.15799     57.7 1.154e+04 1.417e-09
  9.17829     56.6 1.284e+04 2.315e-09
  9.19429     55.3 1.416e+04 3.727e-09
  9.20444     55.6 1.369e+04 2.919e-09
  9.21888     53.9 1.490e+04 4.605e-09
  9.23917     52.4 1.561e+04 6.404e-09
  9.25947     51.1 1.574e+04 6.686e-09
  9.27182     50.0 1.569e+04 6.327e-09
  9.27868     50.4 1.538e+04 6.239e-09
  9.28662     49.6 1.487e+04 3.959e-09
  9.30006     48.2 1.471e+04 2.856e-09
  9.32035     46.1 1.433e+04 1.906e-09
  9.33921     43.2 1.359e+04 1.647e-09
  9.34935     44.7 1.355e+04 1.766e-09
  9.36094     42.0 1.353e+04 1.857e-09
  9.38124     39.8 1.375e+04 2.295e-09
  9.40153     38.8 1.428e+04 3.265e-09
  9.41674     38.6 1.486e+04 4.414e-09
  9.42688     39.5 1.497e+04 4.584e-09
  9.44212     39.4 1.553e+04 5.672e-09
  9.46242     39.1 1.610e+04 5.612e-09
  9.48272     38.5 1.648e+04 4.896e-09
  9.49427     36.8 1.683e+04 3.624e-09
  9.50442     38.1 1.714e+04 5.462e-09
  9.52331     35.6 1.728e+04 3.980e-09
  9.54360     32.2 1.629e+04 2.942e-09
  9.56165     29.1 1.456e+04 2.552e-09
  9.57180     31.5 1.582e+04 2.987e-09
  9.58334     28.9 1.390e+04 2.302e-09
  9.59348     27.0 1.275e+04 1.666e-09
  9.60449     26.4 1.231e+04 1.466e-09
  9.62478     26.1 1.199e+04 1.174e-09
  9.63918     25.3 1.165e+04 8.355e-10
  9.65958     25.6 1.134e+04 6.305e-10
  9.68577     24.7 1.092e+04 4.571e-10
  9.70596     24.1 1.056e+04 3.692e-10
  9.73650     24.5 1.042e+04 3.293e-10
  9.77415     24.6 1.045e+04 3.315e-10
  9.79444     26.8 1.046e+04 3.254e-10
  9.80754     26.4 1.057e+04 3.588e-10
  9.82773     26.3 1.062e+04 3.868e-10
  9.85828     26.9 1.121e+04 5.781e-10
  9.89040     26.5 1.236e+04 1.064e-09
  9.91069     26.1 1.212e+04 9.968e-10
  9.92911     25.3 1.308e+04 1.598e-09
  9.93916     25.9 1.330e+04 1.762e-09
  9.94951     25.0 1.416e+04 2.946e-09
  9.96980     24.8 1.472e+04 3.817e-09
  9.99010     24.5 1.477e+04 3.750e-09
 10.00655     23.6 1.484e+04 3.233e-09
 10.01669     24.6 1.489e+04 3.382e-09
 10.03069     22.1 1.517e+04 3.355e-09
 10.05098     17.6 1.601e+04 3.788e-09
 10.07128     13.7 1.640e+04 5.480e-09
 10.08408     11.7 1.630e+04 6.933e-09
 10.09422     12.7 1.638e+04 6.988e-09
 10.11187     11.4 1.624e+04 6.895e-09
 10.13216     10.0 1.592e+04 5.641e-09
 10.15146      7.4 1.532e+04 3.460e-09
 10.16161      8.6 1.536e+04 3.712e-09
 10.17275      4.5 1.441e+04 1.953e-09
 10.19305     -1.1 1.323e+04 1.256e-09
 10.20722     -5.8 1.312e+04 1.283e-09
 10.21736     -6.9 1.311e+04 1.356e-09
 10.22899     -9.1 1.248e+04 1.546e-09
 10.23914     -8.1 1.242e+04 1.435e-09
 10.25394     -8.5 1.205e+04 1.347e-09
 10.27423     -9.2 1.182e+04 1.163e-09
 10.30477     -9.4 1.118e+04 6.770e-10
 10.34546    -10.9 1.061e+04 3.130e-10
 10.37410    -12.8 1.001e+04 1.678e-10
 10.39440    -11.3 1.015e+04 1.850e-10
 10.42664    -12.8 1.007e+04 1.395e-10
 10.46723    -14.0 1.003e+04 1.571e-10
 10.50413    -13.6 9.688e+03 1.944e-10
