# Columns:
#   distance along LOS (in CHIMPs)
#   peculiar velocity  (in km/s)
#   temperature (K)
#   HI number density
# pos=(184.966,104.965,46.9915), angles=(0.12512,0.700472)
  0.00086    -12.8 1.002e+04 1.963e-10
  0.02141    -10.7 1.003e+04 1.943e-10
  0.04851     -8.8 1.006e+04 2.265e-10
  0.06255     -8.4 9.884e+03 2.008e-10
  0.07483     -9.5 1.015e+04 2.363e-10
  0.10015     -6.8 1.025e+04 2.837e-10
  0.13952     -4.0 1.037e+04 3.206e-10
  0.17889     -1.3 1.042e+04 3.052e-10
  0.21826      1.0 1.051e+04 2.860e-10
  0.25764      3.2 1.048e+04 2.856e-10
  0.28707      5.5 1.039e+04 2.641e-10
  0.30430      5.7 1.046e+04 2.690e-10
  0.31415      5.4 1.075e+04 3.291e-10
  0.32634      6.5 1.088e+04 3.757e-10
  0.34602      7.2 1.111e+04 4.303e-10
  0.36571      7.7 1.129e+04 5.286e-10
  0.38539      8.5 1.145e+04 6.507e-10
  0.40508      9.2 1.172e+04 8.102e-10
  0.42476      9.9 1.201e+04 1.011e-09
  0.44445     10.6 1.237e+04 1.255e-09
  0.45972     11.1 1.279e+04 1.542e-09
  0.46956     11.6 1.244e+04 1.345e-09
  0.48382     12.5 1.276e+04 1.551e-09
  0.50350     13.1 1.293e+04 1.614e-09
  0.52319     13.9 1.284e+04 1.544e-09
  0.54287     14.4 1.280e+04 1.411e-09
  0.55366     14.7 1.268e+04 1.227e-09
  0.56350     14.5 1.289e+04 1.326e-09
  0.58224     14.6 1.281e+04 1.220e-09
  0.60193     14.9 1.260e+04 1.126e-09
  0.62161     15.2 1.251e+04 1.085e-09
  0.64130     15.8 1.245e+04 1.046e-09
  0.66050     16.4 1.244e+04 1.012e-09
  0.67034     16.9 1.245e+04 1.031e-09
  0.68067     17.6 1.236e+04 9.814e-10
  0.70036     18.3 1.226e+04 9.248e-10
  0.72004     18.9 1.218e+04 8.743e-10
  0.73973     19.4 1.205e+04 8.182e-10
  0.75941     20.0 1.194e+04 7.875e-10
  0.77910     20.6 1.182e+04 7.754e-10
  0.79317     21.4 1.168e+04 7.547e-10
  0.80302     21.5 1.188e+04 7.898e-10
  0.81847     22.3 1.177e+04 7.943e-10
  0.83815     23.3 1.162e+04 7.917e-10
  0.85784     24.4 1.147e+04 7.605e-10
  0.87112     25.8 1.127e+04 6.670e-10
  0.88096     26.3 1.127e+04 6.588e-10
  0.89721     27.4 1.115e+04 5.558e-10
  0.91689     28.7 1.095e+04 4.099e-10
  0.93658     28.9 1.090e+04 3.431e-10
  0.96620     30.0 1.061e+04 2.399e-10
  1.00567     31.3 1.042e+04 2.124e-10
  1.03288     32.9 1.049e+04 2.238e-10
  1.04263     32.5 1.064e+04 2.732e-10
  1.05469     33.0 1.068e+04 2.815e-10
  1.07190     34.0 1.078e+04 3.122e-10
  1.08174     34.6 1.074e+04 2.895e-10
  1.09406     35.2 1.083e+04 3.084e-10
  1.11374     36.1 1.097e+04 3.554e-10
  1.13343     36.8 1.111e+04 4.124e-10
  1.15311     37.6 1.126e+04 4.877e-10
  1.17280     38.5 1.138e+04 5.584e-10
  1.19248     39.6 1.152e+04 6.225e-10
  1.21217     40.4 1.165e+04 6.787e-10
  1.23185     41.2 1.175e+04 7.334e-10
  1.25154     41.8 1.189e+04 8.037e-10
  1.27122     42.4 1.208e+04 9.000e-10
  1.28205     42.9 1.233e+04 1.037e-09
  1.28350     42.9 1.229e+04 1.035e-09
  1.29237     43.9 1.213e+04 9.652e-10
  1.31059     44.5 1.233e+04 1.098e-09
  1.33028     45.2 1.260e+04 1.265e-09
  1.34996     45.5 1.294e+04 1.491e-09
  1.36965     45.7 1.325e+04 1.754e-09
  1.38934     46.1 1.348e+04 2.025e-09
  1.40902     46.7 1.373e+04 2.304e-09
  1.42871     47.1 1.405e+04 2.631e-09
  1.44839     47.3 1.448e+04 3.091e-09
  1.46808     47.3 1.498e+04 3.822e-09
  1.48330     47.5 1.547e+04 4.885e-09
  1.49315     48.6 1.515e+04 4.146e-09
  1.50745     48.9 1.560e+04 5.334e-09
  1.52156     49.7 1.596e+04 6.479e-09
  1.53140     50.1 1.592e+04 6.306e-09
  1.54682     51.0 1.610e+04 6.599e-09
  1.56650     51.9 1.605e+04 6.223e-09
  1.58619     52.6 1.587e+04 5.166e-09
  1.60587     52.7 1.568e+04 4.022e-09
  1.62556     52.1 1.540e+04 3.229e-09
  1.64524     51.3 1.483e+04 2.872e-09
  1.66493     51.3 1.443e+04 2.863e-09
  1.68408     51.7 1.425e+04 2.914e-09
  1.69393     52.6 1.445e+04 3.083e-09
  1.70430     53.2 1.427e+04 3.144e-09
  1.72398     54.2 1.417e+04 3.216e-09
  1.74367     55.5 1.414e+04 3.216e-09
  1.76108     56.6 1.412e+04 3.170e-09
  1.77092     57.0 1.396e+04 3.057e-09
  1.78304     58.2 1.398e+04 3.021e-09
  1.80272     59.2 1.406e+04 3.020e-09
  1.82241     60.1 1.419e+04 3.076e-09
  1.84209     60.9 1.439e+04 3.230e-09
  1.86178     61.6 1.482e+04 3.623e-09
  1.88146     61.7 1.552e+04 4.449e-09
  1.89471     61.8 1.632e+04 5.903e-09
  1.90455     63.0 1.611e+04 5.238e-09
  1.92083     63.1 1.694e+04 6.967e-09
  1.94052     63.5 1.769e+04 9.199e-09
  1.96020     64.1 1.823e+04 1.136e-08
  1.97989     64.5 1.848e+04 1.136e-08
  1.99957     64.7 1.838e+04 1.051e-08
  2.01043     64.7 1.803e+04 8.406e-09
  2.02028     65.7 1.924e+04 1.517e-08
  2.03894     65.7 1.895e+04 1.217e-08
  2.05863     65.4 1.834e+04 8.720e-09
  2.07831     65.0 1.741e+04 5.764e-09
  2.09549     64.7 1.633e+04 3.751e-09
  2.10533     65.5 1.619e+04 3.687e-09
  2.11769     65.3 1.500e+04 2.282e-09
  2.13737     65.0 1.404e+04 1.437e-09
  2.15706     64.2 1.331e+04 9.524e-10
  2.17674     63.5 1.339e+04 9.184e-10
  2.19643     62.9 1.383e+04 1.012e-09
  2.21611     62.2 1.422e+04 1.257e-09
  2.23580     61.6 1.405e+04 1.573e-09
  2.24995     61.3 1.312e+04 1.446e-09
  2.25979     61.2 1.645e+04 3.822e-09
  2.27517     61.2 1.561e+04 3.575e-09
  2.29485     61.1 1.466e+04 3.136e-09
  2.30611     60.9 1.387e+04 2.680e-09
  2.31595     61.4 1.379e+04 2.601e-09
  2.33422     60.9 1.325e+04 2.297e-09
  2.35391     60.5 1.296e+04 2.145e-09
  2.37359     60.5 1.288e+04 2.095e-09
  2.39328     60.7 1.283e+04 2.076e-09
  2.41296     61.2 1.289e+04 2.133e-09
  2.43265     61.9 1.297e+04 2.194e-09
  2.45233     62.5 1.302e+04 2.213e-09
  2.47202     63.0 1.303e+04 2.186e-09
  2.48946     63.3 1.303e+04 2.145e-09
  2.49930     63.3 1.235e+04 1.616e-09
  2.50689     63.3 1.240e+04 1.588e-09
  2.51674     62.8 1.257e+04 1.718e-09
  2.53107     62.1 1.279e+04 1.837e-09
  2.55076     61.3 1.299e+04 2.009e-09
  2.57044     60.7 1.309e+04 2.153e-09
  2.59013     60.4 1.297e+04 2.193e-09
  2.60981     60.4 1.276e+04 2.097e-09
  2.62950     60.5 1.246e+04 1.887e-09
  2.64918     60.6 1.209e+04 1.603e-09
  2.66887     60.8 1.168e+04 1.298e-09
  2.68855     60.9 1.126e+04 1.023e-09
  2.70767     61.1 1.088e+04 8.117e-10
  2.71752     60.6 1.089e+04 8.137e-10
  2.72792     60.7 1.056e+04 6.691e-10
  2.73882     60.8 1.033e+04 5.778e-10
  2.74866     60.8 1.031e+04 5.692e-10
  2.76729     61.2 1.014e+04 5.105e-10
  2.78698     61.7 1.004e+04 4.754e-10
  2.80666     62.4 9.960e+03 4.451e-10
  2.82635     63.0 9.883e+03 4.201e-10
  2.84604     63.5 9.837e+03 4.021e-10
  2.86572     62.9 9.995e+03 4.133e-10
  2.88541     61.7 1.092e+04 5.216e-10
  2.90509     60.6 1.231e+04 8.558e-10
  2.91830     59.4 1.364e+04 1.536e-09
  2.92814     59.3 1.358e+04 1.485e-09
  2.94446     57.5 1.494e+04 2.704e-09
  2.96415     55.0 1.634e+04 4.904e-09
  2.97833     52.9 1.723e+04 7.639e-09
  2.98818     53.8 1.731e+04 6.697e-09
  3.00352     52.2 1.786e+04 9.993e-09
  3.02320     51.7 1.735e+04 9.716e-09
  3.04289     51.7 1.650e+04 7.131e-09
  3.06257     50.7 1.588e+04 3.527e-09
  3.08226     45.5 1.522e+04 1.370e-09
  3.10194     37.2 1.300e+04 7.095e-10
  3.11908     32.0 1.118e+04 5.959e-10
  3.12892     32.8 1.097e+04 5.090e-10
  3.14131     31.2 1.058e+04 4.974e-10
  3.16100     30.8 1.045e+04 5.506e-10
  3.18068     30.8 1.053e+04 5.992e-10
  3.20037     30.8 1.066e+04 6.211e-10
  3.21785     30.6 1.084e+04 6.519e-10
  3.22769     31.1 1.079e+04 5.939e-10
  3.23974     30.6 1.103e+04 6.476e-10
  3.25942     29.9 1.116e+04 7.378e-10
  3.27911     29.4 1.132e+04 8.985e-10
  3.29879     29.1 1.152e+04 1.153e-09
  3.31848     29.2 1.177e+04 1.472e-09
  3.32970     29.6 1.205e+04 1.767e-09
  3.33954     30.5 1.190e+04 1.421e-09
  3.35785     31.1 1.224e+04 1.871e-09
  3.37753     31.9 1.260e+04 2.233e-09
  3.39722     32.6 1.296e+04 2.470e-09
  3.41690     33.2 1.326e+04 2.630e-09
  3.43659     33.3 1.351e+04 2.676e-09
  3.45627     33.2 1.365e+04 2.579e-09
  3.46720     32.8 1.376e+04 2.373e-09
  3.47705     31.7 1.422e+04 2.726e-09
  3.49564     30.7 1.406e+04 2.409e-09
  3.51533     29.8 1.390e+04 2.274e-09
  3.53048     28.8 1.409e+04 2.368e-09
  3.54032     30.9 1.386e+04 2.445e-09
  3.55470     29.5 1.414e+04 2.619e-09
  3.57438     27.8 1.494e+04 3.255e-09
  3.59407     26.2 1.582e+04 4.450e-09
  3.61376     25.4 1.640e+04 5.982e-09
  3.63344     24.9 1.694e+04 7.365e-09
  3.65313     23.4 1.817e+04 9.028e-09
  3.67281     21.2 1.938e+04 9.742e-09
  3.69250     19.3 1.910e+04 7.885e-09
  3.70672     17.5 1.747e+04 4.596e-09
  3.71656     13.9 1.520e+04 2.778e-09
  3.73126     10.9 1.235e+04 1.415e-09
  3.74110     13.7 1.444e+04 1.636e-09
  3.75155     10.4 1.151e+04 7.436e-10
  3.77124      8.4 1.031e+04 4.540e-10
  3.79092      8.0 1.049e+04 3.161e-10
  3.81061      8.0 1.014e+04 2.834e-10
  3.84023      9.2 1.022e+04 2.669e-10
  3.87970      9.3 1.000e+04 2.746e-10
  3.91907      9.5 1.012e+04 3.003e-10
  3.94643     10.0 1.033e+04 3.855e-10
  3.96611      7.4 1.094e+04 6.599e-10
  3.99781      9.7 1.109e+04 8.770e-10
  4.03718     12.1 1.129e+04 9.513e-10
  4.07655     14.0 1.137e+04 9.488e-10
  4.11592     15.8 1.149e+04 1.017e-09
  4.14286     17.6 1.152e+04 1.091e-09
  4.16255     19.7 1.096e+04 7.164e-10
  4.19466     21.8 1.109e+04 8.483e-10
  4.23403     23.9 1.129e+04 9.907e-10
  4.27340     25.9 1.165e+04 1.160e-09
  4.31277     27.6 1.190e+04 1.251e-09
  4.35214     29.6 1.176e+04 1.154e-09
  4.39151     31.7 1.145e+04 9.335e-10
  4.42546     33.3 1.103e+04 6.720e-10
  4.44514     32.4 1.162e+04 1.069e-09
  4.46031     34.0 1.118e+04 8.736e-10
  4.47990     34.8 1.108e+04 8.070e-10
  4.49959     35.4 1.100e+04 7.597e-10
  4.51927     36.2 1.103e+04 7.512e-10
  4.53896     37.0 1.105e+04 7.487e-10
  4.55407     37.6 1.105e+04 7.410e-10
  4.56391     38.1 1.116e+04 8.180e-10
  4.57833     38.9 1.110e+04 7.983e-10
  4.59801     39.8 1.105e+04 7.595e-10
  4.61770     40.6 1.095e+04 6.867e-10
  4.63738     41.3 1.083e+04 5.940e-10
  4.65707     41.4 1.070e+04 5.001e-10
  4.67462     41.3 1.054e+04 4.383e-10
  4.68446     40.9 1.054e+04 4.643e-10
  4.69644     41.1 1.034e+04 4.030e-10
  4.71612     41.1 1.023e+04 3.790e-10
  4.74575     42.0 1.032e+04 4.266e-10
  4.78522     42.8 1.024e+04 4.236e-10
  4.82459     43.7 1.022e+04 4.285e-10
  4.86396     44.8 1.029e+04 4.473e-10
  4.90333     46.0 1.037e+04 4.666e-10
  4.92417     47.6 1.048e+04 4.935e-10
  4.94386     47.3 1.002e+04 3.563e-10
  4.96567     48.9 1.020e+04 3.986e-10
  4.98535     48.9 1.049e+04 4.618e-10
  5.01150     49.9 1.058e+04 5.072e-10
  5.03108     50.6 1.069e+04 5.527e-10
  5.05077     51.7 1.088e+04 6.394e-10
  5.07046     52.5 1.098e+04 7.018e-10
  5.09014     53.5 1.110e+04 7.910e-10
  5.10983     54.6 1.120e+04 8.799e-10
  5.12951     55.7 1.128e+04 9.479e-10
  5.14920     56.9 1.137e+04 1.006e-09
  5.16349     58.0 1.144e+04 1.046e-09
  5.17071     57.9 1.136e+04 9.730e-10
  5.17610     57.9 1.131e+04 9.445e-10
  5.18857     58.9 1.137e+04 9.697e-10
  5.20825     59.9 1.145e+04 1.005e-09
  5.22794     60.7 1.153e+04 1.044e-09
  5.24762     61.5 1.160e+04 1.073e-09
  5.26731     62.5 1.172e+04 1.091e-09
  5.28699     63.4 1.195e+04 1.134e-09
  5.30668     63.5 1.230e+04 1.177e-09
  5.32636     63.1 1.278e+04 1.294e-09
  5.34605     62.1 1.321e+04 1.566e-09
  5.36573     61.1 1.353e+04 2.036e-09
  5.37688     61.2 1.371e+04 2.601e-09
  5.38672     61.0 1.467e+04 4.278e-09
  5.40301     61.6 1.452e+04 4.248e-09
  5.41285     61.1 1.457e+04 3.997e-09
  5.42479     61.7 1.415e+04 3.234e-09
  5.44447     61.6 1.362e+04 2.192e-09
  5.46416     60.9 1.303e+04 1.527e-09
  5.49378     58.7 1.216e+04 1.087e-09
  5.53325     58.2 1.125e+04 8.096e-10
  5.57262     58.5 1.068e+04 6.319e-10
  5.61199     59.1 1.032e+04 5.205e-10
  5.65136     59.8 1.020e+04 5.106e-10
  5.69073     60.4 1.024e+04 5.322e-10
  5.73010     61.1 1.040e+04 6.302e-10
  5.76879     62.1 1.067e+04 7.769e-10
  5.78848     61.6 1.035e+04 6.465e-10
  5.80884     62.7 1.038e+04 6.686e-10
  5.84821     64.0 1.031e+04 6.364e-10
  5.88223     65.5 1.004e+04 5.155e-10
  5.90192     64.8 9.618e+03 3.690e-10
  5.92695     66.5 9.321e+03 2.776e-10
  5.96632     68.2 9.040e+03 2.023e-10
  6.00569     70.0 8.846e+03 1.557e-10
  6.04506     72.0 8.759e+03 1.311e-10
  6.08443     74.2 8.764e+03 1.212e-10
  6.12381     76.6 8.814e+03 1.185e-10
  6.16318     79.0 8.863e+03 1.176e-10
  6.19004     81.4 8.932e+03 1.158e-10
  6.20972     81.3 9.088e+03 1.558e-10
  6.24192     83.6 9.153e+03 1.488e-10
  6.28129     85.8 9.220e+03 1.421e-10
  6.32066     87.9 9.245e+03 1.417e-10
  6.36003     90.0 9.311e+03 1.431e-10
  6.38094     92.0 9.381e+03 1.504e-10
  6.40063     92.6 9.253e+03 1.460e-10
  6.43877     94.6 9.345e+03 1.619e-10
  6.47814     96.5 9.465e+03 1.876e-10
  6.51751     98.3 9.582e+03 2.182e-10
  6.55688    100.0 9.679e+03 2.452e-10
  6.59160    101.5 9.794e+03 2.722e-10
  6.61128    100.7 1.057e+04 5.386e-10
  6.63562    101.9 1.067e+04 5.700e-10
  6.67499    102.9 1.064e+04 5.525e-10
  6.71436    103.9 1.051e+04 4.774e-10
  6.75373    104.9 1.024e+04 3.575e-10
  6.79310    105.7 9.898e+03 2.505e-10
  6.83247    106.5 9.582e+03 1.983e-10
  6.85997    107.6 9.531e+03 1.976e-10
  6.87966    107.8 9.689e+03 2.199e-10
  6.91121    108.7 9.677e+03 2.214e-10
  6.95058    109.8 9.684e+03 2.338e-10
  6.98995    110.9 9.766e+03 2.637e-10
  7.01285    112.0 9.903e+03 3.054e-10
  7.03253    111.0 1.008e+04 3.446e-10
  7.06869    111.9 1.013e+04 3.508e-10
  7.10806    112.7 1.016e+04 3.533e-10
  7.14743    113.5 1.021e+04 3.584e-10
  7.18680    114.1 1.038e+04 3.849e-10
  7.22617    114.2 1.076e+04 4.770e-10
  7.26554    114.1 1.130e+04 6.661e-10
  7.30491    113.9 1.189e+04 9.591e-10
  7.33900    113.6 1.227e+04 1.149e-09
  7.35869    112.6 1.223e+04 1.094e-09
  7.38365    112.2 1.227e+04 1.101e-09
  7.41441    112.0 1.215e+04 1.015e-09
  7.43409    110.9 1.198e+04 9.524e-10
  7.46239    111.1 1.160e+04 7.422e-10
  7.50176    111.6 1.108e+04 5.179e-10
  7.54113    112.4 1.053e+04 3.529e-10
  7.58051    113.6 1.008e+04 2.512e-10
  7.61988    115.2 9.776e+03 1.919e-10
  7.65925    116.9 9.542e+03 1.600e-10
  7.69862    118.9 9.385e+03 1.545e-10
  7.73799    121.0 9.375e+03 1.562e-10
  7.77736    123.0 9.365e+03 1.696e-10
  7.81597    124.8 9.488e+03 2.119e-10
  7.83565    124.3 9.599e+03 2.101e-10
  7.83772    125.9 9.868e+03 3.048e-10
  7.85740    124.8 1.007e+04 3.405e-10
  7.89547    126.1 1.044e+04 4.720e-10
  7.93484    126.1 1.080e+04 5.825e-10
  7.97421    125.3 1.142e+04 6.889e-10
  8.01358    123.1 1.252e+04 9.035e-10
  8.05295    121.3 1.318e+04 1.346e-09
  8.09232    120.7 1.278e+04 1.687e-09
  8.13169    120.7 1.253e+04 1.642e-09
  8.17106    121.2 1.209e+04 1.360e-09
  8.21043    122.1 1.170e+04 9.801e-10
  8.23721    122.6 1.139e+04 6.656e-10
  8.24696    120.6 1.113e+04 4.394e-10
  8.25945    120.5 1.075e+04 3.747e-10
  8.27913    120.5 1.049e+04 3.620e-10
  8.29882    120.6 1.046e+04 3.617e-10
  8.31655    120.7 1.048e+04 3.708e-10
  8.33633    119.3 1.036e+04 3.821e-10
  8.35797    119.4 1.059e+04 4.647e-10
  8.37756    119.5 1.081e+04 5.398e-10
  8.39724    119.5 1.102e+04 6.174e-10
  8.41693    119.5 1.121e+04 6.889e-10
  8.43661    119.3 1.140e+04 7.504e-10
  8.44764    119.1 1.163e+04 7.919e-10
  8.45748    118.8 1.161e+04 8.635e-10
  8.47598    118.4 1.183e+04 8.748e-10
  8.49567    117.8 1.186e+04 8.717e-10
  8.51535    117.0 1.188e+04 8.535e-10
  8.53504    116.1 1.187e+04 8.019e-10
  8.55472    115.0 1.186e+04 7.494e-10
  8.56591    113.8 1.189e+04 7.438e-10
  8.57575    112.8 1.208e+04 7.622e-10
  8.59409    111.2 1.220e+04 7.920e-10
  8.61378    109.0 1.257e+04 9.319e-10
  8.63346    106.4 1.315e+04 1.304e-09
  8.64842    103.8 1.378e+04 2.006e-09
  8.65827    103.6 1.398e+04 2.256e-09
  8.67283    101.6 1.445e+04 3.223e-09
  8.69252    100.2 1.482e+04 4.090e-09
  8.71220     98.7 1.496e+04 4.221e-09
  8.73189     97.1 1.493e+04 4.094e-09
  8.75158     95.6 1.479e+04 3.619e-09
  8.77126     93.8 1.451e+04 2.989e-09
  8.79095     92.0 1.411e+04 2.457e-09
  8.80542     90.4 1.370e+04 2.122e-09
  8.81526     89.9 1.324e+04 1.698e-09
  8.83032     89.0 1.284e+04 1.584e-09
  8.84920     88.7 1.274e+04 1.573e-09
  8.85905     88.2 1.254e+04 1.506e-09
  8.86969     88.0 1.252e+04 1.526e-09
  8.88937     87.9 1.252e+04 1.577e-09
  8.90906     87.7 1.253e+04 1.633e-09
  8.92874     87.5 1.256e+04 1.681e-09
  8.94843     87.2 1.259e+04 1.729e-09
  8.96811     86.9 1.260e+04 1.792e-09
  8.98780     86.6 1.260e+04 1.838e-09
  9.00748     86.4 1.262e+04 1.865e-09
  9.02717     86.1 1.268e+04 1.898e-09
  9.04494     86.0 1.272e+04 1.905e-09
  9.05478     85.9 1.256e+04 1.803e-09
  9.05992     85.4 1.278e+04 1.951e-09
  9.07971     85.9 1.220e+04 1.445e-09
  9.11595     85.3 1.182e+04 1.164e-09
  9.15532     84.6 1.127e+04 7.698e-10
  9.19469     83.7 1.065e+04 3.991e-10
  9.23406     82.2 1.007e+04 1.735e-10
  9.27343     80.2 9.334e+03 8.818e-11
  9.29449     79.6 8.806e+03 7.759e-11
  9.31417     79.0 8.929e+03 8.412e-11
  9.35217     79.2 8.732e+03 8.216e-11
  9.39154     79.7 8.711e+03 8.265e-11
  9.43091     80.4 8.697e+03 8.671e-11
  9.46158     81.1 8.744e+03 9.421e-11
  9.48127     81.5 8.882e+03 1.068e-10
  9.50965     81.9 8.885e+03 1.243e-10
  9.54902     82.4 8.906e+03 1.421e-10
  9.58839     82.9 8.924e+03 1.555e-10
  9.62776     83.5 8.934e+03 1.643e-10
  9.66713     84.1 8.941e+03 1.701e-10
  9.70650     84.9 8.957e+03 1.746e-10
  9.74587     85.6 8.994e+03 1.804e-10
  9.77352     86.3 9.060e+03 1.893e-10
  9.79320     85.7 8.885e+03 1.984e-10
  9.82461     86.4 8.964e+03 2.126e-10
  9.86314     86.9 9.003e+03 2.120e-10
  9.88283     86.5 9.173e+03 1.855e-10
  9.90335     86.7 9.122e+03 1.894e-10
  9.94272     87.0 9.086e+03 1.936e-10
  9.98209     86.9 9.098e+03 2.055e-10
 10.02146     86.7 9.247e+03 2.376e-10
 10.06083     86.4 9.547e+03 3.101e-10
 10.10020     86.0 9.971e+03 4.263e-10
 10.13957     85.4 1.037e+04 5.244e-10
 10.17894     84.3 1.043e+04 5.236e-10
 10.21831     82.7 1.028e+04 4.721e-10
 10.25255     81.3 9.832e+03 3.434e-10
 10.27223     81.7 1.039e+04 4.877e-10
 10.28439     80.3 9.743e+03 3.055e-10
 10.30408     80.0 8.831e+03 1.625e-10
 10.33642     79.2 8.521e+03 1.174e-10
 10.37579     78.8 8.373e+03 1.071e-10
 10.41516     78.9 8.376e+03 1.101e-10
 10.45453     79.1 8.406e+03 1.294e-10
 10.49390     79.5 8.628e+03 1.819e-10
 10.53328     79.9 9.012e+03 2.699e-10
 10.57265     80.2 9.430e+03 3.849e-10
 10.61202     80.3 9.777e+03 5.035e-10
 10.65139     80.3 9.957e+03 5.707e-10
 10.68595     80.1 9.958e+03 5.705e-10
 10.70564     80.8 1.080e+04 9.105e-10
 10.73013     80.3 1.073e+04 8.803e-10
 10.75126     80.0 1.042e+04 7.601e-10
 10.77095     80.7 9.934e+03 5.556e-10
 10.80887     80.6 9.522e+03 4.238e-10
 10.84824     80.5 9.152e+03 3.199e-10
 10.88761     80.5 8.850e+03 2.477e-10
 10.92698     80.6 8.604e+03 1.996e-10
 10.96635     80.9 8.500e+03 1.817e-10
 11.00572     81.5 8.510e+03 1.841e-10
 11.04509     82.0 8.597e+03 2.026e-10
 11.08446     82.6 8.802e+03 2.517e-10
 11.10720     83.2 9.067e+03 3.178e-10
 11.12688     83.4 8.959e+03 2.472e-10
 11.16320     83.7 9.265e+03 3.315e-10
 11.20257     83.6 9.544e+03 4.179e-10
 11.23029     82.8 1.015e+04 5.670e-10
 11.24998     84.4 9.629e+03 4.749e-10
 11.28131     83.0 1.044e+04 6.777e-10
 11.32068     80.9 1.142e+04 1.035e-09
 11.36005     78.5 1.195e+04 1.246e-09
 11.39942     76.3 1.193e+04 1.196e-09
 11.43879     74.5 1.163e+04 9.428e-10
 11.47816     72.7 1.101e+04 6.374e-10
 11.50759     71.9 1.053e+04 5.309e-10
 11.51841     71.8 1.022e+04 4.911e-10
 11.52835     71.5 1.019e+04 5.132e-10
 11.55690     71.6 9.701e+03 4.203e-10
 11.59627     72.0 9.429e+03 3.570e-10
 11.63564     72.6 9.396e+03 3.074e-10
 11.67501     73.4 9.493e+03 3.003e-10
 11.70932     73.8 9.665e+03 3.065e-10
 11.72900     75.0 9.741e+03 3.996e-10
 11.75375     74.8 1.000e+04 4.384e-10
 11.79312     73.4 1.081e+04 6.224e-10
 11.83249     71.0 1.234e+04 1.308e-09
 11.87186     69.0 1.278e+04 1.948e-09
