# Columns:
#   distance along LOS (in CHIMPs)
#   peculiar velocity  (in km/s)
#   temperature (K)
#   HI number density
# pos=(8.88413,29.4479,108.272), angles=(2.87228,3.27362)
  0.00185   -208.0 1.137e+04 5.189e-10
  0.02406   -206.6 1.141e+04 4.663e-10
  0.06214   -204.8 1.132e+04 4.269e-10
  0.08240   -204.4 1.159e+04 3.885e-10
  0.10520   -202.0 1.146e+04 3.512e-10
  0.14573   -199.5 1.131e+04 3.201e-10
  0.18625   -196.9 1.118e+04 2.969e-10
  0.21723   -194.4 1.112e+04 2.799e-10
  0.23749   -194.3 1.098e+04 2.117e-10
  0.26730   -191.9 1.094e+04 1.844e-10
  0.30782   -189.5 1.095e+04 1.659e-10
  0.34834   -187.3 1.099e+04 1.583e-10
  0.37233   -185.3 1.101e+04 1.578e-10
  0.39259   -185.1 1.092e+04 1.208e-10
  0.42939   -183.2 1.095e+04 1.188e-10
  0.46991   -181.4 1.106e+04 1.231e-10
  0.50717   -179.7 1.113e+04 1.397e-10
  0.52743   -179.2 1.103e+04 1.059e-10
  0.55096   -177.5 1.110e+04 1.161e-10
  0.59148   -175.7 1.113e+04 1.293e-10
  0.63201   -173.7 1.112e+04 1.408e-10
  0.66226   -171.6 1.110e+04 1.474e-10
  0.68252   -170.9 1.124e+04 1.243e-10
  0.71305   -168.7 1.123e+04 1.316e-10
  0.75357   -166.3 1.119e+04 1.387e-10
  0.79410   -164.0 1.114e+04 1.440e-10
  0.81736   -161.6 1.110e+04 1.470e-10
  0.83762   -161.0 1.126e+04 1.666e-10
  0.86907   -158.7 1.122e+04 1.811e-10
  0.88933   -157.5 1.091e+04 1.451e-10
  0.91567   -155.2 1.087e+04 1.538e-10
  0.95220   -152.8 1.085e+04 1.587e-10
  0.97246   -152.2 1.102e+04 2.195e-10
  0.99671   -149.9 1.104e+04 2.454e-10
  1.03724   -147.6 1.110e+04 2.754e-10
  1.07776   -145.4 1.124e+04 3.222e-10
  1.10729   -143.4 1.142e+04 4.092e-10
  1.12755   -142.5 1.189e+04 8.633e-10
  1.15881   -140.4 1.221e+04 1.065e-09
  1.19933   -138.5 1.240e+04 1.239e-09
  1.23985   -136.7 1.248e+04 1.354e-09
  1.26239   -135.0 1.251e+04 1.394e-09
  1.28265   -134.6 1.325e+04 1.935e-09
  1.32090   -133.2 1.297e+04 1.240e-09
  1.36142   -132.6 1.257e+04 6.779e-10
  1.39723   -132.6 1.175e+04 3.793e-10
  1.41749   -132.9 1.181e+04 7.771e-10
  1.44247   -133.9 1.124e+04 6.072e-10
  1.48299   -135.1 1.118e+04 5.919e-10
  1.52352   -136.7 1.123e+04 6.305e-10
  1.55232   -138.4 1.126e+04 6.916e-10
  1.57259   -139.8 1.177e+04 1.114e-09
  1.60456   -142.3 1.178e+04 1.108e-09
  1.64509   -145.5 1.229e+04 1.240e-09
  1.67538   -148.4 1.290e+04 2.057e-09
  1.69554   -149.3 1.307e+04 2.610e-09
  1.70723   -149.9 1.311e+04 3.030e-09
  1.71736   -150.4 1.317e+04 3.136e-09
  1.73607   -150.7 1.309e+04 3.135e-09
  1.75633   -150.6 1.269e+04 2.767e-09
  1.77464   -150.5 1.225e+04 2.155e-09
  1.78477   -151.1 1.178e+04 1.596e-09
  1.79685   -151.6 1.133e+04 1.207e-09
  1.81711   -152.2 1.090e+04 9.571e-10
  1.83738   -152.6 1.053e+04 8.074e-10
  1.85219   -152.7 1.025e+04 7.211e-10
  1.86232   -153.3 9.917e+03 6.431e-10
  1.87790   -152.8 9.777e+03 6.125e-10
  1.89816   -152.3 9.663e+03 5.910e-10
  1.91842   -151.7 9.544e+03 5.692e-10
  1.92974   -151.0 9.415e+03 5.442e-10
  1.93987   -151.2 9.291e+03 5.057e-10
  1.95894   -150.6 9.211e+03 4.884e-10
  1.97921   -149.8 9.143e+03 4.739e-10
  1.99383   -148.9 9.119e+03 4.662e-10
  2.00175   -148.2 9.025e+03 4.363e-10
  2.01762   -148.8 8.868e+03 3.728e-10
  2.05032   -147.1 8.844e+03 3.695e-10
  2.09084   -145.4 8.847e+03 3.807e-10
  2.13136   -143.6 8.860e+03 3.982e-10
  2.15245   -141.8 8.863e+03 4.110e-10
  2.17271   -142.3 9.083e+03 4.749e-10
  2.21241   -140.4 9.147e+03 5.020e-10
  2.25293   -138.7 9.271e+03 5.357e-10
  2.28729   -137.2 9.536e+03 6.008e-10
  2.30755   -138.3 1.040e+04 8.819e-10
  2.33398   -137.2 1.099e+04 1.154e-09
  2.37450   -136.2 1.163e+04 1.568e-09
  2.40480   -136.1 1.226e+04 2.127e-09
  2.42496   -135.7 1.236e+04 2.217e-09
  2.44219   -135.4 1.239e+04 2.234e-09
  2.45232   -136.1 1.290e+04 2.859e-09
  2.46548   -135.6 1.261e+04 2.587e-09
  2.48575   -134.8 1.212e+04 2.067e-09
  2.50601   -134.1 1.159e+04 1.584e-09
  2.51974   -133.4 1.109e+04 1.202e-09
  2.52987   -133.5 1.110e+04 1.197e-09
  2.54618   -132.8 1.065e+04 9.089e-10
  2.55631   -132.7 1.069e+04 9.250e-10
  2.57702   -132.0 1.015e+04 6.541e-10
  2.61764   -130.3 9.408e+03 3.656e-10
  2.65817   -129.0 9.097e+03 2.759e-10
  2.69869   -126.6 8.665e+03 1.910e-10
  2.73232   -124.2 8.355e+03 1.396e-10
  2.75258   -124.1 8.476e+03 1.562e-10
  2.77974   -121.7 8.323e+03 1.216e-10
  2.82026   -119.4 8.295e+03 1.020e-10
  2.86078   -117.1 8.325e+03 9.496e-11
  2.88742   -114.9 8.337e+03 9.420e-11
  2.90768   -115.3 8.580e+03 1.002e-10
  2.94183   -113.7 8.849e+03 1.065e-10
  2.98235   -112.3 9.154e+03 1.622e-10
  3.02225   -110.6 9.461e+03 2.814e-10
  3.04251   -110.7 9.339e+03 2.911e-10
  3.06340   -108.6 9.544e+03 3.722e-10
  3.09872   -106.6 9.657e+03 4.038e-10
  3.11898   -106.0 9.737e+03 4.239e-10
  3.14444   -104.0 9.832e+03 4.590e-10
  3.17735   -102.0 9.834e+03 4.573e-10
  3.19761   -102.1 9.437e+03 2.764e-10
  3.22549   -100.1 9.434e+03 2.416e-10
  3.26601    -98.5 9.487e+03 2.208e-10
  3.30654    -97.4 9.656e+03 2.208e-10
  3.33245    -96.9 1.009e+04 2.663e-10
  3.35271    -98.5 1.037e+04 3.687e-10
  3.38758    -98.2 1.085e+04 6.249e-10
  3.42811    -98.1 1.131e+04 9.142e-10
  3.46728    -98.2 1.162e+04 1.112e-09
  3.48754    -99.5 1.143e+04 1.029e-09
  3.50915    -99.6 1.135e+04 9.386e-10
  3.54968    -99.4 1.104e+04 6.803e-10
  3.59020    -98.9 1.062e+04 4.404e-10
  3.62238    -98.0 1.024e+04 2.969e-10
  3.64264    -98.5 9.961e+03 2.314e-10
  3.67125    -97.1 9.789e+03 1.764e-10
  3.71177    -95.6 9.696e+03 1.380e-10
  3.75229    -94.1 9.735e+03 1.132e-10
  3.77748    -92.6 9.829e+03 9.750e-11
  3.79774    -92.8 9.920e+03 1.026e-10
  3.83334    -91.7 1.015e+04 1.056e-10
  3.87386    -90.6 1.025e+04 1.260e-10
  3.91231    -89.5 1.026e+04 1.575e-10
  3.93257    -89.7 1.032e+04 2.910e-10
  3.95491    -88.5 1.048e+04 3.451e-10
  3.99543    -87.5 1.064e+04 3.631e-10
  4.03595    -86.8 1.075e+04 3.594e-10
  4.06741    -86.3 1.087e+04 3.358e-10
  4.08767    -87.0 1.099e+04 3.610e-10
  4.11700    -86.9 1.096e+04 3.377e-10
  4.15752    -86.6 1.090e+04 3.249e-10
  4.19805    -86.2 1.079e+04 2.900e-10
  4.22251    -85.6 1.063e+04 2.292e-10
  4.22788    -86.6 1.047e+04 2.014e-10
  4.24394    -87.4 1.014e+04 1.548e-10
  4.27909    -86.8 1.004e+04 1.344e-10
  4.31962    -86.1 1.001e+04 1.310e-10
  4.35734    -85.5 9.869e+03 1.461e-10
  4.37760    -85.8 9.717e+03 1.730e-10
  4.40066    -86.0 1.040e+04 2.661e-10
  4.43096    -82.2 1.034e+04 2.309e-10
  4.44483    -87.1 1.284e+04 3.999e-10
  4.45496    -90.1 1.443e+04 6.344e-10
  4.47138    -95.2 1.846e+04 9.040e-10
  4.49165   -101.6 1.996e+04 2.615e-09
  4.51191   -104.9 1.890e+04 7.522e-09
  4.52238   -105.5 1.814e+04 1.723e-08
  4.53251   -105.3 1.798e+04 2.020e-08
  4.55243   -104.0 1.766e+04 2.637e-08
  4.57269   -101.5 1.739e+04 2.717e-08
  4.58784    -98.5 1.704e+04 1.537e-08
  4.59476    -98.2 1.758e+04 9.995e-09
  4.59983    -98.8 1.726e+04 5.317e-09
  4.61317    -99.9 1.662e+04 3.146e-09
  4.63348   -102.3 1.555e+04 1.420e-09
  4.65374   -105.3 1.321e+04 5.564e-10
  4.66734   -107.8 1.055e+04 2.599e-10
  4.67747   -109.3 9.721e+03 2.156e-10
  4.69426   -108.7 9.590e+03 2.013e-10
  4.72475   -108.1 9.651e+03 2.001e-10
  4.76537   -107.7 9.729e+03 2.119e-10
  4.80237   -107.4 9.674e+03 2.347e-10
  4.82263   -109.7 9.918e+03 3.236e-10
  4.84642   -109.8 1.028e+04 4.156e-10
  4.88694   -110.2 1.081e+04 5.376e-10
  4.92747   -111.1 1.131e+04 6.864e-10
  4.95747   -112.6 1.161e+04 8.442e-10
  4.97773   -117.7 1.165e+04 8.924e-10
  5.00851   -119.6 1.159e+04 9.281e-10
  5.04903   -120.8 1.141e+04 9.199e-10
  5.08956   -121.1 1.130e+04 9.054e-10
  5.11257   -120.5 1.134e+04 8.828e-10
  5.13283   -124.9 1.067e+04 7.483e-10
  5.16038   -123.0 1.057e+04 6.796e-10
  5.17979   -122.7 1.056e+04 6.723e-10
  5.18992   -123.9 1.053e+04 6.720e-10
  5.20080   -123.4 1.057e+04 6.907e-10
  5.22106   -122.8 1.057e+04 7.022e-10
  5.24132   -122.2 1.065e+04 7.436e-10
  5.25734   -121.5 1.073e+04 7.844e-10
  5.26747   -122.7 1.081e+04 8.462e-10
  5.28185   -122.0 1.089e+04 8.786e-10
  5.30211   -121.3 1.094e+04 8.916e-10
  5.32237   -120.6 1.101e+04 8.993e-10
  5.33489   -120.2 1.110e+04 9.129e-10
  5.34070   -121.1 1.100e+04 9.011e-10
  5.34844   -120.9 1.086e+04 8.171e-10
  5.36289   -120.2 1.083e+04 7.925e-10
  5.38316   -119.5 1.076e+04 7.541e-10
  5.40240   -118.6 1.065e+04 7.096e-10
  5.42276   -120.6 1.040e+04 6.352e-10
  5.45427   -119.4 1.016e+04 5.853e-10
  5.49479   -117.7 9.951e+03 5.534e-10
  5.53531   -115.8 9.877e+03 5.378e-10
  5.55750   -114.6 9.772e+03 5.003e-10
  5.57776   -115.2 9.551e+03 4.349e-10
  5.61636   -113.6 9.426e+03 4.105e-10
  5.64665   -112.4 9.382e+03 4.001e-10
  5.66682   -112.0 9.362e+03 3.986e-10
  5.68708   -111.1 9.510e+03 4.465e-10
  5.70237   -110.8 9.855e+03 5.471e-10
  5.71250   -111.7 9.779e+03 5.346e-10
  5.73783   -112.2 1.064e+04 8.519e-10
  5.76822   -112.1 1.136e+04 1.234e-09
  5.77992   -112.5 1.206e+04 1.705e-09
  5.79005   -113.8 1.200e+04 1.651e-09
  5.80865   -114.6 1.295e+04 2.468e-09
  5.82891   -115.4 1.398e+04 3.754e-09
  5.84734   -115.9 1.469e+04 5.102e-09
  5.85747   -117.1 1.417e+04 4.473e-09
  5.86943   -117.6 1.430e+04 4.832e-09
  5.88970   -118.0 1.413e+04 4.762e-09
  5.90079   -118.0 1.335e+04 3.680e-09
  5.91092   -118.2 1.303e+04 3.307e-09
  5.92488   -118.7 1.221e+04 2.258e-09
  5.93502   -119.3 1.181e+04 1.876e-09
  5.95048   -120.2 1.105e+04 1.315e-09
  5.97074   -121.0 1.038e+04 9.644e-10
  5.99100   -121.3 9.931e+03 7.679e-10
  6.00243   -121.4 9.658e+03 6.514e-10
  6.01256   -121.5 9.782e+03 7.080e-10
  6.03153   -121.3 9.588e+03 6.183e-10
  6.05179   -121.3 9.374e+03 5.219e-10
  6.06985   -121.4 9.142e+03 4.350e-10
  6.07998   -121.2 9.298e+03 4.801e-10
  6.10254   -121.9 8.957e+03 3.742e-10
  6.13746   -122.5 8.721e+03 3.234e-10
  6.15773   -123.5 9.173e+03 3.800e-10
  6.18368   -128.7 9.665e+03 4.174e-10
  6.21398   -133.8 1.008e+04 6.524e-10
  6.22495   -136.9 1.215e+04 1.489e-09
  6.23508   -137.2 1.288e+04 2.163e-09
  6.25440   -139.4 1.440e+04 4.070e-09
  6.27467   -141.8 1.563e+04 6.473e-09
  6.29237   -144.3 1.633e+04 8.490e-09
  6.30250   -145.4 1.612e+04 7.826e-09
  6.31519   -147.9 1.623e+04 8.381e-09
  6.33545   -150.0 1.619e+04 8.476e-09
  6.35571   -151.2 1.569e+04 8.111e-09
  6.36991   -151.6 1.507e+04 6.747e-09
  6.38005   -152.2 1.502e+04 6.688e-09
  6.39624   -152.0 1.426e+04 4.961e-09
  6.41650   -151.6 1.343e+04 3.407e-09
  6.43676   -151.4 1.263e+04 2.283e-09
  6.44746   -151.3 1.187e+04 1.480e-09
  6.45371   -151.7 1.188e+04 1.478e-09
  6.46327   -151.3 1.201e+04 1.869e-09
  6.47728   -150.9 1.155e+04 1.356e-09
  6.49754   -150.4 1.124e+04 1.004e-09
  6.51488   -149.9 1.102e+04 7.784e-10
  6.52501   -150.3 1.126e+04 8.805e-10
  6.53807   -149.7 1.109e+04 7.369e-10
  6.55833   -148.9 1.095e+04 6.444e-10
  6.57859   -147.9 1.089e+04 5.847e-10
  6.59243   -146.9 1.089e+04 5.509e-10
  6.60256   -147.2 1.126e+04 6.429e-10
  6.61911   -146.3 1.125e+04 6.134e-10
  6.63938   -145.3 1.125e+04 6.050e-10
  6.65964   -144.6 1.126e+04 6.050e-10
  6.66998   -144.2 1.136e+04 6.341e-10
  6.68011   -144.6 1.145e+04 7.137e-10
  6.70016   -144.2 1.159e+04 8.585e-10
  6.72042   -143.8 1.181e+04 1.129e-09
  6.73740   -143.3 1.222e+04 1.550e-09
  6.74753   -143.6 1.229e+04 1.628e-09
  6.76094   -143.1 1.283e+04 2.173e-09
  6.78121   -142.7 1.346e+04 2.881e-09
  6.80147   -142.3 1.400e+04 3.700e-09
  6.81495   -142.0 1.438e+04 4.411e-09
  6.82508   -142.5 1.398e+04 3.741e-09
  6.84199   -142.4 1.407e+04 3.963e-09
  6.86225   -142.4 1.406e+04 3.999e-09
  6.88236   -142.2 1.378e+04 3.834e-09
  6.89249   -142.4 1.333e+04 3.233e-09
  6.90278   -141.8 1.295e+04 2.803e-09
  6.92304   -141.2 1.255e+04 2.278e-09
  6.94330   -140.6 1.219e+04 1.848e-09
  6.95991   -140.0 1.188e+04 1.522e-09
  6.97004   -140.0 1.168e+04 1.348e-09
  6.98382   -139.5 1.145e+04 1.146e-09
  7.00408   -138.9 1.124e+04 1.005e-09
  7.01562   -138.2 1.108e+04 9.081e-10
  7.02575   -138.1 1.109e+04 8.711e-10
  7.03746   -137.4 1.096e+04 8.158e-10
  7.04759   -137.4 1.087e+04 7.491e-10
  7.06487   -136.7 1.077e+04 6.994e-10
  7.08513   -135.9 1.067e+04 6.524e-10
  7.10488   -135.2 1.059e+04 6.109e-10
  7.11501   -135.2 1.056e+04 5.748e-10
  7.12565   -134.4 1.050e+04 5.434e-10
  7.14592   -133.5 1.047e+04 5.178e-10
  7.16618   -132.7 1.042e+04 4.916e-10
  7.18243   -131.7 1.038e+04 4.634e-10
  7.20279   -131.3 1.040e+04 4.365e-10
  7.23729   -130.0 1.039e+04 4.291e-10
  7.27781   -128.5 1.033e+04 4.055e-10
  7.31746   -127.0 1.031e+04 3.784e-10
  7.33772   -126.9 1.035e+04 3.875e-10
  7.35886   -125.4 1.027e+04 3.430e-10
  7.39938   -124.0 1.019e+04 2.969e-10
  7.43990   -122.5 1.012e+04 2.602e-10
  7.47256   -121.0 1.009e+04 2.449e-10
  7.49282   -120.7 1.004e+04 2.286e-10
  7.52095   -119.1 1.003e+04 2.242e-10
  7.55803   -117.5 1.013e+04 2.321e-10
  7.57829   -117.9 1.016e+04 2.443e-10
  7.60200   -116.5 1.037e+04 2.752e-10
  7.62765   -115.1 1.063e+04 3.324e-10
  7.64791   -114.3 1.051e+04 3.024e-10
  7.68304   -112.9 1.077e+04 3.682e-10
  7.72357   -111.7 1.099e+04 4.356e-10
  7.76249   -110.8 1.109e+04 4.650e-10
  7.78275   -109.8 1.109e+04 4.669e-10
  7.80461   -109.0 1.118e+04 4.818e-10
  7.84514   -107.9 1.125e+04 4.819e-10
  7.88566   -106.6 1.119e+04 3.891e-10
  7.91759   -105.1 1.104e+04 2.710e-10
  7.93785   -104.4 1.128e+04 3.470e-10
  7.96671   -103.0 1.112e+04 2.353e-10
  8.00723   -101.6 1.102e+04 1.429e-10
  8.04775   -100.4 1.102e+04 8.722e-11
  8.07268    -99.3 1.098e+04 6.727e-11
  8.09294    -98.8 1.112e+04 1.066e-10
  8.12880    -97.5 1.106e+04 9.904e-11
  8.16932    -95.7 1.100e+04 1.031e-10
  8.20752    -94.0 1.098e+04 1.166e-10
  8.22778    -93.6 1.111e+04 1.674e-10
  8.25037    -91.8 1.111e+04 1.815e-10
  8.29089    -89.9 1.111e+04 1.896e-10
  8.33141    -88.1 1.113e+04 1.898e-10
  8.36262    -86.5 1.118e+04 1.885e-10
  8.38288    -86.4 1.133e+04 2.798e-10
  8.41246    -85.0 1.141e+04 2.941e-10
  8.45298    -83.9 1.153e+04 3.300e-10
  8.49351    -82.9 1.165e+04 4.036e-10
  8.51771    -81.9 1.177e+04 5.009e-10
  8.53798    -81.8 1.192e+04 6.322e-10
  8.57455    -80.8 1.194e+04 6.972e-10
  8.61508    -79.8 1.189e+04 7.194e-10
  8.65255    -78.7 1.172e+04 6.797e-10
  8.67281    -78.5 1.171e+04 6.943e-10
  8.68299    -77.3 1.145e+04 5.544e-10
  8.70325    -77.0 1.173e+04 6.819e-10
  8.73665    -75.9 1.154e+04 5.482e-10
  8.77717    -74.6 1.132e+04 4.246e-10
  8.80765    -73.2 1.111e+04 3.453e-10
  8.82791    -72.9 1.109e+04 3.132e-10
  8.85822    -71.4 1.096e+04 2.702e-10
  8.89874    -69.8 1.091e+04 2.454e-10
  8.93926    -68.3 1.091e+04 2.326e-10
  8.96274    -66.9 1.092e+04 2.353e-10
  8.98301    -66.8 1.092e+04 2.356e-10
  9.02031    -65.3 1.091e+04 2.517e-10
  9.06083    -63.6 1.086e+04 2.696e-10
  9.09758    -61.8 1.084e+04 2.796e-10
  9.11784    -61.6 1.085e+04 2.814e-10
  9.14188    -59.9 1.093e+04 2.476e-10
  9.18240    -58.6 1.097e+04 2.393e-10
  9.22293    -57.2 1.098e+04 2.530e-10
  9.25268    -55.6 1.100e+04 2.692e-10
  9.27294    -55.4 1.102e+04 2.769e-10
  9.30397    -53.8 1.098e+04 2.819e-10
  9.34449    -51.9 1.094e+04 2.466e-10
  9.38502    -50.2 1.092e+04 2.050e-10
  9.40777    -48.8 1.092e+04 1.753e-10
  9.42804    -48.5 1.086e+04 1.800e-10
  9.46606    -47.0 1.086e+04 1.665e-10
  9.50659    -45.4 1.077e+04 1.794e-10
  9.54261    -43.5 1.077e+04 2.047e-10
  9.56287    -43.2 1.077e+04 2.047e-10
  9.58763    -41.3 1.079e+04 2.238e-10
  9.62816    -39.6 1.086e+04 2.346e-10
  9.66868    -38.0 1.089e+04 2.416e-10
  9.69771    -36.2 1.084e+04 2.354e-10
  9.71797    -35.8 1.084e+04 2.379e-10
  9.74973    -34.0 1.082e+04 2.110e-10
  9.78768    -32.4 1.085e+04 1.867e-10
  9.80795    -32.6 1.089e+04 2.047e-10
  9.83077    -31.1 1.088e+04 1.854e-10
  9.85280    -29.6 1.086e+04 1.813e-10
  9.87307    -29.3 1.081e+04 1.742e-10
  9.91182    -27.8 1.078e+04 1.819e-10
  9.95234    -26.3 1.075e+04 1.844e-10
  9.98764    -24.6 1.071e+04 1.811e-10
 10.00790    -24.2 1.067e+04 1.755e-10
 10.03339    -22.6 1.064e+04 1.577e-10
 10.07391    -21.0 1.065e+04 1.352e-10
 10.11444    -19.4 1.066e+04 1.137e-10
 10.14274    -17.8 1.062e+04 9.548e-11
 10.16300    -17.5 1.055e+04 8.652e-11
 10.19548    -15.8 1.051e+04 7.333e-11
 10.23601    -14.1 1.047e+04 6.473e-11
 10.27653    -12.2 1.043e+04 6.071e-11
 10.29784    -10.3 1.041e+04 5.909e-11
 10.31810     -9.9 1.037e+04 5.708e-11
 10.35757     -7.8 1.037e+04 5.688e-11
 10.39810     -5.7 1.038e+04 5.624e-11
 10.43267     -3.7 1.041e+04 5.509e-11
 10.45293     -3.3 1.041e+04 5.553e-11
 10.47914     -1.4 1.043e+04 5.594e-11
 10.51967      0.4 1.046e+04 5.764e-11
 10.56019      2.1 1.049e+04 6.341e-11
 10.58777      3.7 1.047e+04 7.566e-11
 10.60803      4.0 1.045e+04 8.323e-11
 10.64124      5.7 1.044e+04 1.080e-10
 10.68176      7.4 1.046e+04 1.353e-10
 10.72228      9.0 1.051e+04 1.598e-10
 10.74287     10.3 1.062e+04 1.833e-10
 10.76313     10.5 1.065e+04 1.952e-10
 10.80333     11.6 1.078e+04 2.292e-10
 10.84385     12.6 1.086e+04 2.834e-10
 10.87770     13.5 1.089e+04 3.551e-10
 10.89796     13.9 1.087e+04 3.758e-10
 10.91264     14.7 1.090e+04 4.339e-10
 10.93290     14.7 1.083e+04 4.056e-10
 10.96542     15.2 1.093e+04 4.553e-10
 11.00595     15.3 1.109e+04 4.685e-10
 11.03280     15.1 1.130e+04 5.030e-10
 11.05306     14.7 1.150e+04 5.809e-10
 11.07676     14.0 1.170e+04 6.325e-10
 11.09693     12.7 1.218e+04 8.285e-10
 11.11015     10.8 1.286e+04 1.371e-09
 11.12028      9.9 1.322e+04 1.902e-09
 11.13745      8.8 1.357e+04 3.047e-09
 11.15771      8.6 1.375e+04 4.146e-09
 11.17757      8.6 1.378e+04 4.595e-09
 11.18770      8.3 1.369e+04 4.328e-09
 11.19824      8.2 1.354e+04 3.747e-09
 11.21850      7.8 1.326e+04 3.003e-09
 11.24899      7.2 1.293e+04 2.457e-09
 11.28961      6.8 1.252e+04 1.969e-09
 11.32273      6.9 1.209e+04 1.348e-09
 11.34299      6.6 1.199e+04 1.262e-09
 11.37066      7.5 1.167e+04 7.812e-10
 11.41118      8.2 1.137e+04 4.773e-10
 11.45170      9.0 1.101e+04 3.601e-10
 11.47783     10.3 1.076e+04 3.319e-10
 11.49809     10.5 1.085e+04 3.680e-10
 11.53275     12.3 1.076e+04 3.500e-10
 11.57327     14.2 1.074e+04 3.443e-10
 11.61267     16.3 1.075e+04 3.467e-10
 11.63293     16.5 1.077e+04 3.541e-10
 11.65432     18.6 1.083e+04 3.674e-10
 11.69484     20.6 1.094e+04 4.113e-10
 11.73536     22.5 1.107e+04 5.036e-10
 11.76776     24.4 1.133e+04 7.138e-10
 11.78802     24.7 1.133e+04 7.545e-10
 11.81641     26.5 1.196e+04 1.251e-09
 11.84521     27.1 1.224e+04 1.557e-09
 11.85525     27.3 1.227e+04 1.585e-09
 11.86687     27.8 1.263e+04 1.970e-09
 11.88713     28.1 1.297e+04 2.463e-09
 11.90739     28.4 1.326e+04 3.040e-09
 11.92266     28.7 1.354e+04 3.669e-09
 11.93280     28.7 1.355e+04 3.717e-09
 11.94792     28.9 1.387e+04 4.344e-09
 11.96818     29.0 1.408e+04 4.624e-09
 11.98844     29.0 1.408e+04 4.610e-09
 12.00021     29.0 1.390e+04 4.320e-09
 12.01034     29.1 1.377e+04 4.154e-09
 12.02727     29.4 1.340e+04 3.566e-09
 12.03740     29.9 1.334e+04 3.432e-09
 12.04922     30.3 1.303e+04 2.875e-09
 12.06763     30.8 1.274e+04 2.367e-09
 12.07776     31.1 1.272e+04 2.325e-09
 12.09998     31.8 1.234e+04 1.593e-09
 12.14060     32.5 1.173e+04 9.621e-10
 12.18112     33.3 1.153e+04 8.491e-10
 12.21279     34.4 1.156e+04 8.685e-10
 12.23305     34.5 1.168e+04 8.668e-10
 12.25194     34.5 1.161e+04 8.452e-10
 12.27210     34.6 1.160e+04 8.591e-10
 12.29015     34.8 1.158e+04 9.477e-10
 12.30028     35.0 1.170e+04 1.059e-09
 12.31262     35.6 1.191e+04 1.281e-09
 12.34311     36.0 1.205e+04 1.369e-09
 12.36789     36.4 1.195e+04 1.311e-09
 12.38815     36.6 1.202e+04 1.421e-09
 12.42426     37.0 1.163e+04 1.091e-09
 12.46478     37.2 1.124e+04 7.286e-10
 12.50273     37.3 1.095e+04 4.940e-10
 12.52299     37.4 1.092e+04 4.361e-10
 12.54583     37.6 1.078e+04 3.798e-10
 12.58635     38.2 1.076e+04 3.788e-10
 12.62687     39.1 1.079e+04 3.907e-10
 12.65782     40.0 1.086e+04 4.115e-10
 12.67808     40.3 1.087e+04 4.085e-10
 12.70792     41.1 1.093e+04 4.238e-10
 12.74844     41.8 1.095e+04 4.264e-10
