# Columns:
#   distance along LOS (in CHIMPs)
#   peculiar velocity  (in km/s)
#   temperature (K)
#   HI number density
# pos=(35.9526,27.7695,127.921), angles=(2.7722,4.20128)
  0.00395   -247.2 1.648e+04 9.630e-09
  0.00887   -247.4 1.532e+04 6.332e-09
  0.01935   -247.8 1.512e+04 6.124e-09
  0.03931   -247.8 1.401e+04 4.111e-09
  0.05931   -247.5 1.300e+04 2.807e-09
  0.06978   -248.0 1.326e+04 3.141e-09
  0.07130   -247.3 1.250e+04 2.279e-09
  0.08177   -247.2 1.246e+04 2.229e-09
  0.10214   -246.3 1.185e+04 1.669e-09
  0.12308   -245.4 1.132e+04 1.234e-09
  0.13373   -244.7 1.085e+04 9.080e-10
  0.14420   -244.1 1.069e+04 8.286e-10
  0.16497   -243.6 1.016e+04 5.974e-10
  0.17743   -243.4 9.774e+03 4.328e-10
  0.18767   -243.2 9.757e+03 6.436e-10
  0.19615   -243.3 1.034e+04 5.927e-10
  0.20686   -244.7 1.145e+04 4.444e-10
  0.22780   -247.8 1.345e+04 3.887e-10
  0.24811   -251.8 1.569e+04 4.419e-10
  0.25858   -259.4 1.959e+04 2.280e-09
  0.26969   -260.6 1.784e+04 3.612e-09
  0.28509   -260.7 1.670e+04 4.921e-09
  0.29556   -261.3 1.875e+04 1.398e-08
  0.31054   -261.1 1.766e+04 1.121e-08
  0.32101   -261.8 1.845e+04 1.574e-08
  0.33252   -261.5 1.726e+04 1.023e-08
  0.35347   -261.2 1.637e+04 7.185e-09
  0.37296   -261.5 1.522e+04 4.672e-09
  0.38344   -262.8 1.517e+04 4.398e-09
  0.39275   -263.2 1.384e+04 2.873e-09
  0.40322   -264.1 1.394e+04 2.877e-09
  0.41630   -264.4 1.305e+04 2.068e-09
  0.43539   -264.5 1.260e+04 1.686e-09
  0.44586   -265.2 1.221e+04 1.444e-09
  0.45819   -265.1 1.210e+04 1.310e-09
  0.47913   -264.9 1.208e+04 1.275e-09
  0.49782   -264.9 1.208e+04 1.271e-09
  0.50829   -265.0 1.164e+04 1.044e-09
  0.51088   -265.0 1.168e+04 1.046e-09
  0.52135   -265.8 1.165e+04 1.039e-09
  0.54196   -266.0 1.206e+04 1.184e-09
  0.56024   -266.2 1.264e+04 1.575e-09
  0.57072   -265.6 1.179e+04 1.066e-09
  0.58385   -265.6 1.240e+04 1.449e-09
  0.60480   -265.5 1.302e+04 2.030e-09
  0.61853   -265.2 1.357e+04 2.720e-09
  0.62593   -265.7 1.331e+04 2.281e-09
  0.63314   -265.3 1.252e+04 1.481e-09
  0.64668   -264.9 1.291e+04 1.850e-09
  0.66763   -264.4 1.322e+04 2.176e-09
  0.68510   -264.0 1.342e+04 2.393e-09
  0.69557   -263.4 1.282e+04 1.804e-09
  0.70952   -263.0 1.310e+04 2.007e-09
  0.72619   -262.7 1.332e+04 2.133e-09
  0.73666   -263.3 1.262e+04 1.514e-09
  0.74752   -263.1 1.284e+04 1.616e-09
  0.75800   -262.5 1.219e+04 1.310e-09
  0.77235   -262.4 1.264e+04 1.428e-09
  0.79329   -262.8 1.324e+04 1.680e-09
  0.80995   -263.5 1.386e+04 2.168e-09
  0.82042   -262.9 1.350e+04 1.731e-09
  0.83384   -263.8 1.459e+04 2.528e-09
  0.84432   -263.0 1.330e+04 1.547e-09
  0.85612   -263.5 1.415e+04 2.201e-09
  0.87238   -263.9 1.469e+04 3.076e-09
  0.88285   -263.5 1.454e+04 2.546e-09
  0.89801   -263.8 1.513e+04 3.577e-09
  0.91896   -263.9 1.531e+04 4.447e-09
  0.93480   -263.9 1.524e+04 4.794e-09
  0.94528   -263.5 1.536e+04 4.788e-09
  0.95197   -263.5 1.537e+04 4.972e-09
  0.96244   -262.9 1.428e+04 3.149e-09
  0.98179   -262.9 1.428e+04 3.214e-09
  0.99723   -262.8 1.400e+04 3.125e-09
  1.00770   -262.3 1.426e+04 3.402e-09
  1.02368   -262.1 1.388e+04 3.020e-09
  1.04462   -262.0 1.332e+04 2.490e-09
  1.05963   -261.8 1.274e+04 2.054e-09
  1.07010   -260.6 1.283e+04 2.046e-09
  1.08651   -260.5 1.238e+04 1.752e-09
  1.10745   -260.3 1.199e+04 1.549e-09
  1.12208   -260.1 1.169e+04 1.398e-09
  1.13256   -259.5 1.177e+04 1.417e-09
  1.14934   -259.3 1.149e+04 1.286e-09
  1.16728   -258.8 1.124e+04 1.162e-09
  1.17776   -258.1 1.121e+04 1.085e-09
  1.18451   -257.4 1.097e+04 9.642e-10
  1.19498   -257.2 1.102e+04 9.745e-10
  1.21217   -256.6 1.079e+04 8.720e-10
  1.23312   -255.9 1.062e+04 7.873e-10
  1.24694   -255.3 1.048e+04 7.214e-10
  1.25741   -255.0 1.044e+04 6.979e-10
  1.27494   -254.4 1.031e+04 6.581e-10
  1.29589   -253.1 1.026e+04 6.085e-10
  1.30936   -252.2 1.022e+04 5.679e-10
  1.31984   -251.8 1.025e+04 5.128e-10
  1.34841   -250.5 1.023e+04 4.990e-10
  1.37199   -249.7 1.024e+04 4.623e-10
  1.39293   -249.6 1.025e+04 3.751e-10
  1.43228   -248.7 1.016e+04 3.621e-10
  1.47417   -247.9 1.013e+04 3.614e-10
  1.49684   -247.3 1.013e+04 3.756e-10
  1.50265   -247.1 1.005e+04 3.329e-10
  1.52186   -246.6 1.041e+04 4.250e-10
  1.55794   -246.3 1.048e+04 4.622e-10
  1.59983   -246.0 1.050e+04 4.697e-10
  1.62169   -245.7 1.043e+04 4.533e-10
  1.64264   -245.7 1.030e+04 3.670e-10
  1.68361   -245.1 1.006e+04 2.992e-10
  1.71623   -244.5 9.813e+03 2.374e-10
  1.73718   -244.6 9.934e+03 2.686e-10
  1.76738   -243.4 9.831e+03 2.080e-10
  1.80927   -242.2 9.737e+03 1.743e-10
  1.85046   -240.8 9.708e+03 1.536e-10
  1.87140   -240.3 9.809e+03 1.913e-10
  1.89305   -238.8 9.784e+03 1.734e-10
  1.93155   -237.3 9.791e+03 1.628e-10
  1.95249   -237.4 9.747e+03 1.414e-10
  1.97531   -235.9 9.758e+03 1.402e-10
  1.99625   -234.9 9.834e+03 1.840e-10
  2.01871   -233.5 9.878e+03 1.858e-10
  2.06060   -232.1 1.001e+04 2.004e-10
  2.10016   -230.8 1.023e+04 2.336e-10
  2.12111   -229.6 1.029e+04 2.503e-10
  2.14438   -228.3 1.052e+04 3.026e-10
  2.16780   -227.2 1.077e+04 3.696e-10
  2.18875   -227.7 1.080e+04 3.728e-10
  2.22502   -226.9 1.091e+04 3.928e-10
  2.24596   -225.4 1.098e+04 4.176e-10
  2.27004   -224.6 1.105e+04 4.260e-10
  2.31193   -223.8 1.112e+04 4.042e-10
  2.34987   -222.8 1.115e+04 3.352e-10
  2.37081   -222.0 1.140e+04 4.305e-10
  2.38312   -221.0 1.139e+04 3.831e-10
  2.40406   -221.2 1.109e+04 2.590e-10
  2.43759   -220.0 1.109e+04 2.227e-10
  2.47472   -218.7 1.112e+04 2.044e-10
  2.49567   -218.0 1.119e+04 3.089e-10
  2.52137   -216.7 1.115e+04 2.938e-10
  2.56326   -215.3 1.111e+04 2.791e-10
  2.59843   -213.9 1.105e+04 2.581e-10
  2.61380   -213.7 1.106e+04 2.191e-10
  2.62052   -212.8 1.112e+04 2.758e-10
  2.64703   -211.2 1.104e+04 2.446e-10
  2.68892   -209.5 1.095e+04 2.005e-10
  2.72443   -207.7 1.086e+04 1.556e-10
  2.74537   -206.9 1.097e+04 1.568e-10
  2.77270   -205.0 1.090e+04 1.192e-10
  2.81374   -203.1 1.086e+04 9.198e-11
  2.83468   -202.9 1.086e+04 9.853e-11
  2.84928   -201.0 1.085e+04 7.906e-11
  2.87023   -200.3 1.092e+04 8.087e-11
  2.89836   -198.5 1.089e+04 6.870e-11
  2.94025   -196.6 1.085e+04 6.217e-11
  2.97414   -194.7 1.080e+04 5.956e-11
  2.99508   -194.1 1.084e+04 6.047e-11
  3.02402   -192.3 1.082e+04 5.971e-11
  3.05000   -190.5 1.082e+04 5.942e-11
  3.07094   -190.1 1.088e+04 6.628e-11
  3.09899   -188.4 1.088e+04 6.604e-11
  3.11993   -188.0 1.094e+04 7.156e-11
  3.14969   -186.4 1.093e+04 7.433e-11
  3.19158   -185.0 1.090e+04 7.918e-11
  3.22384   -183.5 1.085e+04 8.581e-11
  3.24479   -183.3 1.094e+04 1.055e-10
  3.26531   -181.9 1.090e+04 1.118e-10
  3.28625   -181.2 1.090e+04 1.083e-10
  3.31724   -179.8 1.084e+04 1.105e-10
  3.34870   -178.4 1.077e+04 1.122e-10
  3.36964   -178.1 1.081e+04 1.559e-10
  3.40102   -176.6 1.073e+04 1.571e-10
  3.44290   -175.2 1.065e+04 1.602e-10
  3.47355   -173.7 1.057e+04 1.669e-10
  3.49032   -173.0 1.066e+04 2.204e-10
  3.50157   -172.4 1.065e+04 1.842e-10
  3.52668   -170.9 1.056e+04 1.921e-10
  3.56857   -169.4 1.049e+04 2.059e-10
  3.59840   -168.0 1.044e+04 2.169e-10
  3.61935   -167.3 1.056e+04 2.477e-10
  3.65234   -165.8 1.047e+04 2.494e-10
  3.69423   -164.3 1.040e+04 2.353e-10
  3.71688   -162.8 1.027e+04 2.084e-10
  3.72496   -162.6 1.045e+04 2.482e-10
  3.74420   -161.8 1.053e+04 2.655e-10
  3.77801   -160.3 1.041e+04 2.398e-10
  3.81990   -158.7 1.030e+04 2.092e-10
  3.84811   -157.2 1.020e+04 1.835e-10
  3.86906   -156.4 1.036e+04 1.880e-10
  3.90367   -154.9 1.032e+04 1.804e-10
  3.93219   -153.4 1.028e+04 1.753e-10
  3.95314   -153.4 1.035e+04 2.229e-10
  3.97297   -151.8 1.026e+04 2.044e-10
  3.99391   -151.0 1.041e+04 2.313e-10
  4.02934   -149.3 1.030e+04 2.159e-10
  4.07123   -147.5 1.018e+04 1.971e-10
  4.09782   -145.5 1.006e+04 1.778e-10
  4.11876   -144.7 1.010e+04 1.798e-10
  4.14750   -142.7 9.972e+03 1.570e-10
  4.16845   -142.6 9.943e+03 1.428e-10
  4.19689   -140.6 9.838e+03 1.198e-10
  4.22267   -138.6 9.764e+03 1.018e-10
  4.24362   -137.8 9.802e+03 1.039e-10
  4.28067   -135.9 9.748e+03 9.131e-11
  4.32255   -134.0 9.697e+03 8.128e-11
  4.34753   -132.1 9.644e+03 7.309e-11
  4.36684   -131.4 9.684e+03 7.904e-11
  4.38376   -131.2 9.672e+03 6.637e-11
  4.40633   -129.2 9.608e+03 5.881e-11
  4.44822   -127.2 9.542e+03 5.261e-11
  4.47238   -125.2 9.480e+03 4.770e-11
  4.49332   -124.3 9.528e+03 5.243e-11
  4.53199   -122.2 9.471e+03 4.749e-11
  4.57388   -120.2 9.419e+03 4.451e-11
  4.59723   -118.1 9.388e+03 4.329e-11
  4.60148   -117.1 9.418e+03 4.666e-11
  4.62002   -116.8 9.381e+03 4.005e-11
  4.65766   -114.6 9.370e+03 3.962e-11
  4.69955   -112.6 9.374e+03 3.956e-11
  4.72209   -110.6 9.376e+03 4.316e-11
  4.74303   -109.6 9.369e+03 4.527e-11
  4.78332   -107.7 9.351e+03 5.267e-11
  4.81439   -105.8 9.341e+03 6.317e-11
  4.83533   -105.7 9.277e+03 6.682e-11
  4.84694   -103.8 9.263e+03 8.455e-11
  4.86788   -103.0 9.247e+03 8.663e-11
  4.90899   -101.0 9.233e+03 1.035e-10
  4.95085    -99.1 9.223e+03 1.182e-10
  4.99274    -96.3 9.143e+03 1.259e-10
  5.02970    -94.4 9.146e+03 1.332e-10
  5.05064    -94.4 9.115e+03 1.349e-10
  5.07570    -92.5 9.090e+03 1.423e-10
  5.09665    -91.6 8.947e+03 1.339e-10
  5.11843    -89.8 8.951e+03 1.501e-10
  5.16031    -87.9 8.965e+03 1.731e-10
  5.20056    -86.0 8.969e+03 1.948e-10
  5.22150    -85.0 8.933e+03 2.037e-10
  5.24409    -83.1 8.926e+03 2.138e-10
  5.26595    -81.1 8.887e+03 2.130e-10
  5.28690    -80.9 8.792e+03 1.890e-10
  5.32541    -78.7 8.649e+03 1.763e-10
  5.34635    -77.6 8.624e+03 1.729e-10
  5.36975    -75.3 8.438e+03 1.359e-10
  5.41164    -73.1 8.278e+03 1.005e-10
  5.45026    -71.1 8.179e+03 7.813e-11
  5.47121    -70.1 8.101e+03 7.097e-11
  5.48127    -68.2 8.046e+03 6.364e-11
  5.50221    -67.8 8.045e+03 6.663e-11
  5.53731    -66.0 8.040e+03 6.505e-11
  5.57512    -64.3 8.065e+03 7.042e-11
  5.59606    -63.1 7.961e+03 6.358e-11
  5.62108    -61.4 8.059e+03 8.312e-11
  5.66297    -59.5 8.159e+03 1.093e-10
  5.69658    -57.5 8.231e+03 1.315e-10
  5.71263    -57.6 8.259e+03 1.390e-10
  5.72091    -56.3 8.121e+03 1.192e-10
  5.74675    -54.3 8.166e+03 1.330e-10
  5.78863    -52.4 8.182e+03 1.394e-10
  5.82482    -50.4 8.179e+03 1.419e-10
  5.84577    -49.2 8.123e+03 1.409e-10
  5.87241    -47.3 8.210e+03 1.530e-10
  5.91189    -45.5 8.312e+03 1.702e-10
  5.93284    -46.1 8.338e+03 1.873e-10
  5.94968    -44.4 8.495e+03 2.275e-10
  5.97062    -43.3 8.590e+03 2.617e-10
  5.99807    -41.6 8.831e+03 3.253e-10
  6.03996    -39.9 9.129e+03 4.042e-10
  6.07453    -38.2 9.412e+03 5.084e-10
  6.09547    -37.2 9.582e+03 5.934e-10
  6.12374    -35.6 9.778e+03 6.788e-10
  6.14815    -34.3 9.948e+03 7.296e-10
  6.16909    -34.6 9.252e+03 4.761e-10
  6.19938    -33.5 9.336e+03 4.867e-10
  6.22033    -32.7 9.324e+03 4.790e-10
  6.24940    -31.9 9.503e+03 5.121e-10
  6.27218    -31.5 9.646e+03 5.473e-10
  6.28256    -31.2 9.579e+03 5.202e-10
  6.30157    -31.4 9.693e+03 5.811e-10
  6.32251    -31.6 9.979e+03 7.397e-10
  6.33451    -31.2 1.030e+04 9.064e-10
  6.34499    -30.9 1.040e+04 9.603e-10
  6.36327    -30.5 1.075e+04 1.142e-09
  6.37374    -30.6 1.050e+04 1.039e-09
  6.38534    -30.1 1.084e+04 1.205e-09
  6.39694    -29.8 1.109e+04 1.289e-09
  6.40741    -29.6 1.134e+04 1.448e-09
  6.42723    -29.6 1.141e+04 1.466e-09
  6.44818    -29.6 1.144e+04 1.419e-09
  6.45937    -29.9 1.134e+04 1.268e-09
  6.46984    -29.9 1.159e+04 1.446e-09
  6.48139    -30.5 1.135e+04 1.246e-09
  6.49187    -30.3 1.139e+04 1.316e-09
  6.51101    -30.9 1.110e+04 1.152e-09
  6.52179    -31.2 1.080e+04 9.950e-10
  6.53227    -31.4 1.095e+04 1.087e-09
  6.55290    -31.6 1.069e+04 9.196e-10
  6.57375    -31.6 1.039e+04 7.620e-10
  6.58896    -31.8 1.010e+04 6.756e-10
  6.59952    -31.3 9.927e+03 6.070e-10
  6.61573    -31.3 9.598e+03 4.720e-10
  6.63618    -31.2 9.470e+03 4.012e-10
  6.64665    -31.3 9.483e+03 4.103e-10
  6.66819    -31.1 9.340e+03 3.375e-10
  6.69880    -30.2 8.974e+03 2.382e-10
  6.71974    -30.6 9.180e+03 2.542e-10
  6.75206    -29.6 8.925e+03 1.887e-10
  6.79395    -28.6 8.875e+03 1.719e-10
  6.82365    -26.5 8.718e+03 1.484e-10
  6.84459    -27.2 9.320e+03 2.355e-10
  6.86715    -26.3 9.425e+03 2.570e-10
  6.88588    -26.5 9.582e+03 2.919e-10
  6.89635    -27.5 1.009e+04 4.311e-10
  6.90894    -27.5 1.048e+04 6.181e-10
  6.92249    -27.4 1.088e+04 8.376e-10
  6.93296    -26.8 1.068e+04 6.985e-10
  6.94831    -26.4 1.116e+04 1.019e-09
  6.95878    -27.2 1.187e+04 1.536e-09
  6.97178    -26.5 1.227e+04 1.901e-09
  6.99272    -25.8 1.255e+04 2.136e-09
  7.01074    -25.5 1.275e+04 2.181e-09
  7.02121    -26.5 1.274e+04 2.110e-09
  7.03015    -26.6 1.258e+04 1.821e-09
  7.04062    -25.6 1.282e+04 2.113e-09
  7.05555    -25.8 1.263e+04 1.779e-09
  7.07316    -26.3 1.240e+04 1.459e-09
  7.08363    -28.3 1.205e+04 1.191e-09
  7.09744    -29.3 1.182e+04 1.121e-09
  7.11838    -29.9 1.181e+04 1.205e-09
  7.13559    -30.2 1.188e+04 1.357e-09
  7.14454    -31.5 1.218e+04 1.658e-09
  7.14828    -30.9 1.241e+04 1.753e-09
  7.16027    -30.8 1.273e+04 2.128e-09
  7.18122    -30.5 1.301e+04 2.456e-09
  7.19802    -30.1 1.314e+04 2.626e-09
  7.20849    -30.7 1.349e+04 3.143e-09
  7.22310    -30.2 1.337e+04 2.923e-09
  7.24405    -29.7 1.301e+04 2.394e-09
  7.25593    -29.3 1.254e+04 1.890e-09
  7.26185    -28.8 1.274e+04 2.105e-09
  7.27091    -29.5 1.268e+04 2.014e-09
  7.28594    -29.2 1.211e+04 1.532e-09
  7.30688    -28.9 1.154e+04 1.167e-09
  7.32287    -28.4 1.105e+04 9.039e-10
  7.33334    -29.0 1.087e+04 8.128e-10
  7.34877    -28.4 1.063e+04 6.806e-10
  7.36359    -27.8 1.044e+04 5.922e-10
  7.37406    -27.3 1.045e+04 5.894e-10
  7.38530    -26.9 1.024e+04 5.206e-10
  7.39577    -27.4 1.013e+04 5.030e-10
  7.42217    -26.7 9.975e+03 4.575e-10
  7.44792    -24.5 9.757e+03 4.095e-10
  7.46567    -24.7 9.639e+03 4.013e-10
  7.48191    -24.0 9.472e+03 3.474e-10
  7.50604    -21.9 9.412e+03 3.263e-10
  7.54793    -19.7 9.376e+03 3.086e-10
  7.57277    -17.6 9.364e+03 2.948e-10
  7.59372    -17.3 9.256e+03 2.782e-10
  7.63171    -15.2 9.304e+03 2.800e-10
  7.67360    -13.1 9.404e+03 3.124e-10
  7.69722    -11.0 9.519e+03 3.744e-10
  7.70031    -10.1 9.257e+03 2.726e-10
  7.71857     -9.7 9.184e+03 2.417e-10
  7.75737     -7.4 9.329e+03 3.280e-10
  7.79926     -4.8 9.607e+03 4.053e-10
  7.82248     -2.4 9.768e+03 4.191e-10
  7.84342     -2.0 9.781e+03 4.258e-10
  7.88304     -0.1 9.901e+03 4.595e-10
  7.91254      1.8 9.997e+03 4.919e-10
  7.93348      2.9 9.931e+03 4.886e-10
  7.94733      4.9 1.002e+04 4.956e-10
  7.96828      5.3 1.022e+04 5.504e-10
  8.00870      7.1 1.024e+04 5.766e-10
  8.05059      9.2 1.011e+04 5.256e-10
  8.07219     11.4 9.937e+03 3.972e-10
  8.09313     12.0 9.902e+03 3.904e-10
  8.12785     14.0 9.716e+03 2.477e-10
  8.14879     14.8 9.791e+03 3.131e-10
  8.17609     16.8 9.640e+03 2.141e-10
  8.21798     19.1 9.339e+03 1.090e-10
  8.26003     20.5 9.411e+03 6.680e-11
  8.30095     21.9 9.179e+03 5.659e-11
  8.32189     22.1 9.149e+03 5.664e-11
  8.34316     24.0 9.130e+03 5.810e-11
  8.36411     24.7 9.263e+03 6.174e-11
  8.38569     26.6 9.247e+03 6.610e-11
  8.42580     28.7 9.249e+03 7.287e-11
  8.44675     29.0 9.241e+03 7.222e-11
  8.46947     31.1 9.301e+03 7.471e-11
  8.51136     33.1 9.361e+03 7.691e-11
  8.55066     34.9 9.409e+03 8.059e-11
  8.57160     34.7 9.438e+03 7.809e-11
  8.57942     36.1 9.462e+03 8.639e-11
  8.60036     36.5 9.418e+03 7.764e-11
  8.63702     37.1 9.673e+03 1.019e-10
  8.67551     35.9 1.031e+04 1.562e-10
  8.69645     33.0 1.068e+04 2.046e-10
  8.71023     29.9 1.126e+04 4.270e-10
  8.73107     29.7 1.107e+04 7.314e-10
  8.74821     29.1 1.161e+04 1.047e-09
  8.75868     28.9 1.155e+04 1.028e-09
  8.77296     28.8 1.155e+04 1.010e-09
  8.79463     27.6 1.141e+04 7.977e-10
  8.81146     27.5 1.143e+04 7.980e-10
  8.82131     26.5 1.095e+04 4.823e-10
  8.84646     23.0 1.026e+04 2.022e-10
  8.88835     19.5 9.448e+03 9.816e-11
  8.92522     18.6 9.288e+03 9.973e-11
  8.94616     19.3 9.091e+03 9.458e-11
  8.97212     19.4 9.147e+03 1.035e-10
  9.01004     20.2 9.094e+03 1.297e-10
  9.03099     20.5 9.054e+03 1.354e-10
  9.05007     22.1 8.931e+03 1.298e-10
  9.07101     23.1 8.843e+03 8.981e-11
  9.09779     24.7 8.742e+03 7.362e-11
  9.13968     26.3 8.669e+03 5.595e-11
  9.17492     27.8 8.628e+03 4.231e-11
  9.19587     27.9 8.583e+03 3.700e-11
  9.22345     29.3 8.542e+03 3.534e-11
  9.24630     30.9 8.493e+03 3.693e-11
  9.26724     31.1 8.478e+03 3.597e-11
  9.29978     33.0 8.506e+03 4.106e-11
  9.32072     33.2 8.554e+03 4.762e-11
  9.34912     34.9 8.630e+03 6.050e-11
  9.39101     36.5 8.689e+03 7.883e-11
  9.42463     38.2 8.737e+03 1.017e-10
  9.44557     38.1 8.921e+03 1.413e-10
  9.46161     39.5 9.053e+03 1.679e-10
  9.48256     39.5 9.198e+03 1.995e-10
  9.51667     40.6 9.334e+03 2.308e-10
  9.54948     41.5 9.352e+03 2.303e-10
  9.57043     40.2 9.368e+03 2.270e-10
  9.60045     41.0 9.157e+03 2.016e-10
  9.64233     42.0 8.901e+03 1.634e-10
  9.67434     43.2 8.646e+03 1.236e-10
  9.68798     41.9 8.455e+03 9.729e-11
  9.69787     41.7 8.444e+03 8.331e-11
  9.72611     42.7 8.286e+03 5.946e-11
  9.76800     43.5 8.177e+03 4.645e-11
  9.79919     44.3 8.074e+03 4.102e-11
  9.82013     42.9 8.049e+03 4.355e-11
  9.85177     43.9 7.998e+03 4.643e-11
  9.89224     45.2 7.914e+03 5.207e-11
  9.91318     45.0 7.909e+03 6.050e-11
  9.92404     46.6 7.874e+03 5.945e-11
  9.94499     46.0 8.000e+03 7.650e-11
  9.97744     47.6 7.963e+03 6.619e-11
 10.01933     49.0 7.940e+03 5.453e-11
 10.04890     50.2 7.913e+03 4.787e-11
 10.06984     49.1 8.086e+03 5.588e-11
 10.10310     49.9 8.154e+03 5.998e-11
 10.12849     50.1 8.379e+03 8.144e-11
 10.14944     48.4 8.839e+03 1.382e-10
 10.17375     48.7 9.453e+03 2.781e-10
 10.19469     47.3 1.013e+04 5.444e-10
 10.22877     48.5 1.048e+04 6.706e-10
 10.27065     49.3 1.051e+04 6.544e-10
 10.29860     50.0 1.039e+04 5.454e-10
 10.31955     47.9 1.022e+04 3.814e-10
 10.34381     48.0 9.854e+03 2.677e-10
 10.36475     46.5 9.640e+03 2.363e-10
 10.39632     46.9 9.201e+03 1.835e-10
 10.42346     47.7 9.110e+03 1.752e-10
 10.44440     46.6 9.175e+03 1.723e-10
 10.48009     47.2 9.253e+03 1.792e-10
 10.52198     47.4 9.506e+03 2.112e-10
 10.54831     47.4 9.942e+03 3.067e-10
 10.56450     45.6 1.002e+04 3.079e-10
 10.58006     44.3 1.014e+04 3.535e-10
 10.60576     43.2 1.064e+04 4.721e-10
 10.64765     42.0 1.106e+04 6.146e-10
 10.67316     41.3 1.112e+04 7.088e-10
 10.69411     40.0 1.117e+04 7.841e-10
 10.73142     40.1 1.091e+04 6.976e-10
 10.77331     40.3 1.062e+04 5.051e-10
 10.79538     38.2 1.076e+04 3.301e-10
 10.79904     35.9 1.085e+04 2.929e-10
 10.80829     36.3 1.028e+04 2.454e-10
 10.82548     33.4 1.195e+04 2.693e-10
 10.84642     24.5 1.601e+04 9.456e-10
 10.86025     16.8 1.729e+04 5.042e-09
 10.87072     16.7 1.726e+04 5.745e-09
 10.88831     17.1 1.826e+04 1.464e-08
 10.90284     17.7 1.916e+04 1.846e-08
 10.91331     15.8 1.986e+04 1.985e-08
 10.92268     15.1 1.985e+04 1.475e-08
 10.93315     13.9 1.954e+04 1.039e-08
 10.95114      9.6 1.852e+04 4.050e-09
 10.97208      2.4 1.489e+04 1.387e-09
 10.98510     -1.6 1.223e+04 9.467e-10
 10.99557     -1.3 1.261e+04 1.029e-09
 11.01049     -1.4 1.231e+04 8.724e-10
 11.03154     -3.0 1.200e+04 6.601e-10
 11.04772     -4.0 1.207e+04 7.561e-10
 11.05810     -2.1 1.218e+04 1.032e-09
 11.07680     -2.8 1.262e+04 1.141e-09
 11.09775     -4.8 1.382e+04 1.507e-09
 11.10996     -7.5 1.482e+04 2.197e-09
 11.11989     -9.2 1.548e+04 3.422e-09
 11.12862    -10.5 1.526e+04 3.486e-09
 11.13964     -9.9 1.454e+04 4.406e-09
 11.16058     -8.4 1.396e+04 4.480e-09
 11.17238     -6.7 1.358e+04 4.013e-09
 11.18285     -5.8 1.385e+04 3.618e-09
 11.20247     -6.1 1.411e+04 2.478e-09
 11.22341     -8.5 1.442e+04 1.636e-09
 11.23481    -12.6 1.385e+04 1.168e-09
 11.23720    -15.6 1.256e+04 9.455e-10
 11.24675    -17.6 1.210e+04 8.886e-10
 11.26530    -18.4 1.173e+04 9.112e-10
