# Columns:
#   distance along LOS (in CHIMPs)
#   peculiar velocity  (in km/s)
#   temperature (K)
#   HI number density
# pos=(182.353,74.3913,241.477), angles=(1.58068,3.35566)
  0.00846     16.5 8.277e+03 1.753e-10
  0.03691     18.5 8.091e+03 1.386e-10
  0.07689     20.4 7.866e+03 1.035e-10
  0.10058     22.0 7.665e+03 8.349e-11
  0.12057     21.8 7.589e+03 7.564e-11
  0.15684     23.7 7.577e+03 7.461e-11
  0.19682     25.7 7.600e+03 7.664e-11
  0.23680     27.7 7.693e+03 8.537e-11
  0.27248     29.6 7.847e+03 1.045e-10
  0.29247     29.5 7.877e+03 1.046e-10
  0.31675     31.2 8.164e+03 1.485e-10
  0.35673     32.9 8.521e+03 2.216e-10
  0.39670     34.8 8.884e+03 3.054e-10
  0.43668     36.6 9.095e+03 3.404e-10
  0.46437     38.0 9.099e+03 3.333e-10
  0.48435     37.7 9.108e+03 3.369e-10
  0.51664     39.0 9.024e+03 2.901e-10
  0.55661     40.1 8.987e+03 2.456e-10
  0.59659     41.1 9.011e+03 2.429e-10
  0.63626     42.0 9.106e+03 2.560e-10
  0.65625     42.0 9.067e+03 2.524e-10
  0.67654     43.1 9.191e+03 2.717e-10
  0.71652     44.3 9.229e+03 2.680e-10
  0.75650     45.5 9.220e+03 2.327e-10
  0.79647     46.5 9.198e+03 1.795e-10
  0.82815     47.2 9.227e+03 1.508e-10
  0.84813     47.7 9.244e+03 1.546e-10
  0.87643     48.4 9.282e+03 1.602e-10
  0.91640     49.1 9.447e+03 1.994e-10
  0.95638     50.1 9.685e+03 2.750e-10
  0.99636     51.3 9.942e+03 3.473e-10
  1.02003     52.6 1.011e+04 3.615e-10
  1.04002     52.9 1.024e+04 4.092e-10
  1.07631     53.9 1.027e+04 3.983e-10
  1.11629     54.9 1.029e+04 3.661e-10
  1.15627     56.0 1.026e+04 3.220e-10
  1.19193     57.3 1.020e+04 2.731e-10
  1.21191     57.1 1.026e+04 2.844e-10
  1.23622     58.3 1.017e+04 2.321e-10
  1.27620     59.6 1.008e+04 1.884e-10
  1.31617     60.9 1.001e+04 1.567e-10
  1.35615     62.3 9.962e+03 1.365e-10
  1.38381     63.8 9.919e+03 1.261e-10
  1.40380     63.4 9.916e+03 1.229e-10
  1.43610     65.0 9.919e+03 1.171e-10
  1.47608     66.7 9.944e+03 1.159e-10
  1.51606     68.5 9.979e+03 1.167e-10
  1.55571     70.2 1.005e+04 1.202e-10
  1.57570     69.8 1.008e+04 1.200e-10
  1.59601     71.4 1.019e+04 1.301e-10
  1.63599     73.0 1.030e+04 1.448e-10
  1.67597     74.7 1.041e+04 1.576e-10
  1.71594     76.4 1.051e+04 1.590e-10
  1.74759     78.0 1.055e+04 1.510e-10
  1.76758     77.9 1.060e+04 1.401e-10
  1.79590     79.5 1.065e+04 1.220e-10
  1.83587     81.1 1.073e+04 1.076e-10
  1.87585     82.7 1.083e+04 9.887e-11
  1.91583     84.4 1.087e+04 9.726e-11
  1.93948     86.0 1.088e+04 9.742e-11
  1.95946     86.6 1.087e+04 9.316e-11
  1.99578     88.3 1.088e+04 9.537e-11
  2.03576     90.0 1.084e+04 1.019e-10
  2.07574     91.7 1.075e+04 1.116e-10
  2.11137     93.4 1.067e+04 1.209e-10
  2.13136     94.3 1.068e+04 1.183e-10
  2.15569     96.1 1.065e+04 1.249e-10
  2.19567     97.8 1.065e+04 1.253e-10
  2.23564     99.4 1.064e+04 1.230e-10
  2.27562    101.0 1.061e+04 1.153e-10
  2.30326    102.7 1.056e+04 1.031e-10
  2.32325    103.7 1.060e+04 1.097e-10
  2.35557    105.4 1.051e+04 9.528e-11
  2.39555    107.2 1.041e+04 8.097e-11
  2.43553    109.0 1.032e+04 6.846e-11
  2.47515    110.8 1.022e+04 5.874e-11
  2.49514    111.7 1.025e+04 5.823e-11
  2.51548    113.6 1.010e+04 5.430e-11
  2.55546    115.7 1.008e+04 5.453e-11
  2.59544    117.8 1.006e+04 5.630e-11
  2.63541    119.9 1.004e+04 6.324e-11
  2.66704    122.0 1.009e+04 7.797e-11
  2.68703    122.1 1.031e+04 9.297e-11
  2.71537    124.3 1.033e+04 1.237e-10
  2.75534    126.4 1.036e+04 1.585e-10
  2.79532    128.5 1.038e+04 1.913e-10
  2.83530    130.5 1.037e+04 2.168e-10
  2.85892    132.4 1.035e+04 2.279e-10
  2.87891    132.5 1.045e+04 2.285e-10
  2.91525    134.4 1.038e+04 2.167e-10
  2.95523    136.3 1.029e+04 1.991e-10
  2.99520    138.1 1.022e+04 1.784e-10
  3.03082    140.0 1.015e+04 1.570e-10
  3.05081    140.2 1.016e+04 1.341e-10
  3.07516    142.0 1.005e+04 1.184e-10
  3.11513    143.9 9.922e+03 1.130e-10
  3.15511    146.0 9.902e+03 1.136e-10
  3.19509    148.1 9.877e+03 1.172e-10
  3.22270    150.1 9.851e+03 1.288e-10
  3.24269    150.5 9.892e+03 1.311e-10
  3.27504    152.5 9.944e+03 1.546e-10
  3.31502    154.4 1.001e+04 1.840e-10
  3.35500    156.1 1.011e+04 2.104e-10
  3.39460    157.6 1.022e+04 2.173e-10
  3.41459    158.0 1.023e+04 2.003e-10
  3.43495    159.3 1.025e+04 1.993e-10
  3.47493    160.4 1.027e+04 1.938e-10
  3.51490    161.5 1.026e+04 1.867e-10
  3.55488    162.4 1.025e+04 1.845e-10
  3.58444    163.2 1.026e+04 1.858e-10
  3.59606    163.4 1.029e+04 2.046e-10
  3.60647    163.8 1.055e+04 2.164e-10
  3.63483    164.4 1.076e+04 2.367e-10
  3.67481    164.6 1.095e+04 2.644e-10
  3.71479    164.4 1.106e+04 2.988e-10
  3.75477    164.4 1.109e+04 3.317e-10
  3.77837    164.4 1.108e+04 3.583e-10
  3.79836    164.3 1.157e+04 5.649e-10
  3.83472    164.4 1.157e+04 5.772e-10
  3.87470    164.7 1.155e+04 5.806e-10
  3.91467    165.3 1.151e+04 5.708e-10
  3.95026    166.1 1.145e+04 5.554e-10
  3.97015    165.4 1.173e+04 7.071e-10
  3.98444    165.8 1.162e+04 6.704e-10
  4.00443    166.3 1.153e+04 6.319e-10
  4.02441    166.9 1.145e+04 5.987e-10
  4.04440    167.6 1.139e+04 5.744e-10
  4.05600    168.2 1.135e+04 5.658e-10
  4.06600    168.2 1.139e+04 5.554e-10
  4.08438    169.0 1.140e+04 5.531e-10
  4.10437    169.7 1.142e+04 5.543e-10
  4.12436    170.3 1.147e+04 5.609e-10
  4.14195    170.9 1.157e+04 5.961e-10
  4.15195    171.1 1.154e+04 5.463e-10
  4.16433    171.5 1.159e+04 5.581e-10
  4.19441    172.9 1.167e+04 5.929e-10
  4.23449    174.4 1.191e+04 7.164e-10
  4.27447    175.6 1.226e+04 9.136e-10
  4.31404    176.1 1.260e+04 1.117e-09
  4.33403    177.3 1.263e+04 1.108e-09
  4.35442    177.7 1.311e+04 1.414e-09
  4.39440    177.9 1.334e+04 1.518e-09
  4.43437    177.5 1.331e+04 1.423e-09
  4.46426    176.9 1.329e+04 1.380e-09
  4.48415    176.6 1.324e+04 1.306e-09
  4.50414    176.1 1.302e+04 1.100e-09
  4.51573    175.6 1.286e+04 9.735e-10
  4.52582    176.8 1.335e+04 1.305e-09
  4.55430    175.8 1.273e+04 8.723e-10
  4.59428    175.8 1.225e+04 6.827e-10
  4.63426    176.0 1.202e+04 6.279e-10
  4.67423    176.4 1.200e+04 6.186e-10
  4.69781    176.9 1.202e+04 6.221e-10
  4.71780    177.6 1.191e+04 5.863e-10
  4.75419    177.7 1.206e+04 6.533e-10
  4.79417    177.4 1.253e+04 8.639e-10
  4.83414    176.7 1.317e+04 1.192e-09
  4.86403    175.5 1.397e+04 1.723e-09
  4.87951    174.4 1.430e+04 2.030e-09
  4.88950    173.8 1.478e+04 2.580e-09
  4.90391    171.9 1.486e+04 2.801e-09
  4.92389    170.1 1.479e+04 2.727e-09
  4.94388    168.7 1.453e+04 2.356e-09
  4.96387    167.3 1.425e+04 1.959e-09
  4.99395    164.5 1.362e+04 1.297e-09
  5.03403    161.8 1.278e+04 8.898e-10
  5.06159    160.3 1.210e+04 6.965e-10
  5.08158    159.7 1.197e+04 6.756e-10
  5.11398    159.5 1.175e+04 6.173e-10
  5.15396    159.5 1.162e+04 5.638e-10
  5.19393    159.8 1.146e+04 4.863e-10
  5.23349    160.4 1.124e+04 4.053e-10
  5.25348    160.3 1.129e+04 4.771e-10
  5.27389    161.3 1.105e+04 4.219e-10
  5.31387    162.7 1.095e+04 4.064e-10
  5.35384    164.2 1.095e+04 4.073e-10
  5.39382    165.6 1.099e+04 4.160e-10
  5.42537    166.9 1.103e+04 4.140e-10
  5.44536    166.8 1.098e+04 4.249e-10
  5.47377    168.0 1.098e+04 4.084e-10
  5.51375    169.4 1.088e+04 3.637e-10
  5.55373    170.8 1.066e+04 2.889e-10
  5.59370    172.2 1.040e+04 2.136e-10
  5.61726    173.6 1.014e+04 1.610e-10
  5.63725    173.9 1.011e+04 1.593e-10
  5.67366    175.6 9.992e+03 1.454e-10
  5.71363    177.4 9.990e+03 1.454e-10
  5.75361    179.4 1.002e+04 1.516e-10
  5.78915    181.4 1.019e+04 1.786e-10
  5.80914    181.6 1.022e+04 1.823e-10
  5.83357    183.3 1.051e+04 2.328e-10
  5.87354    184.1 1.072e+04 2.857e-10
  5.89499    184.5 1.094e+04 3.584e-10
  5.90489    184.5 1.099e+04 3.637e-10
  5.92332    184.8 1.142e+04 5.239e-10
  5.94331    184.8 1.201e+04 8.432e-10
  5.96329    184.8 1.274e+04 1.407e-09
  5.98084    184.8 1.351e+04 2.315e-09
  5.99084    185.1 1.336e+04 2.120e-09
  6.00327    185.1 1.398e+04 3.072e-09
  6.02326    184.8 1.442e+04 3.759e-09
  6.04325    184.1 1.450e+04 3.790e-09
  6.06324    183.4 1.443e+04 3.631e-09
  6.07679    182.8 1.414e+04 3.015e-09
  6.08678    182.8 1.393e+04 2.710e-09
  6.10321    182.1 1.351e+04 2.051e-09
  6.12320    181.1 1.292e+04 1.454e-09
  6.14319    180.1 1.227e+04 1.082e-09
  6.16273    179.4 1.181e+04 9.742e-10
  6.17273    179.9 1.191e+04 1.017e-09
  6.19326    180.5 1.183e+04 1.009e-09
  6.23333    181.0 1.186e+04 1.048e-09
  6.27331    181.2 1.208e+04 1.202e-09
  6.31329    181.3 1.232e+04 1.304e-09
  6.34482    181.3 1.234e+04 1.299e-09
  6.36471    180.8 1.298e+04 1.646e-09
  6.38305    180.8 1.288e+04 1.594e-09
  6.40304    180.9 1.269e+04 1.484e-09
  6.42303    181.2 1.255e+04 1.415e-09
  6.44057    181.6 1.242e+04 1.344e-09
  6.45056    181.6 1.282e+04 1.580e-09
  6.47310    182.1 1.212e+04 1.147e-09
  6.51317    182.7 1.169e+04 9.189e-10
  6.53670    183.6 1.123e+04 6.971e-10
  6.55669    183.9 1.145e+04 6.889e-10
  6.58303    184.3 1.126e+04 6.416e-10
  6.60293    184.8 1.106e+04 5.778e-10
  6.62246    185.4 1.085e+04 4.886e-10
  6.63245    185.3 1.092e+04 4.765e-10
  6.64290    185.8 1.068e+04 3.971e-10
  6.66289    186.2 1.047e+04 3.391e-10
  6.68288    186.5 1.069e+04 3.037e-10
  6.70287    186.8 1.076e+04 3.039e-10
  6.71840    187.1 1.086e+04 3.137e-10
  6.72839    186.5 1.117e+04 4.613e-10
  6.74284    186.9 1.121e+04 5.340e-10
  6.76283    187.4 1.126e+04 6.295e-10
  6.78282    188.1 1.134e+04 7.394e-10
  6.80281    188.9 1.143e+04 8.519e-10
  6.81434    189.8 1.155e+04 9.626e-10
  6.82434    189.8 1.171e+04 1.273e-09
  6.84279    190.7 1.182e+04 1.327e-09
  6.86278    191.3 1.202e+04 1.410e-09
  6.88276    191.5 1.238e+04 1.641e-09
  6.90029    191.5 1.294e+04 2.081e-09
  6.91028    191.8 1.254e+04 1.521e-09
  6.92274    191.8 1.307e+04 1.739e-09
  6.94273    191.7 1.369e+04 2.087e-09
  6.96272    191.3 1.417e+04 2.430e-09
  6.98271    190.7 1.426e+04 2.500e-09
  6.99623    189.8 1.420e+04 2.454e-09
  7.00623    188.7 1.250e+04 1.114e-09
  7.02268    188.5 1.245e+04 1.133e-09
  7.04267    188.6 1.243e+04 1.133e-09
  7.07228    189.5 1.236e+04 1.095e-09
  7.09237    189.0 1.123e+04 6.917e-10
  7.11283    189.4 1.091e+04 5.918e-10
  7.15280    190.2 1.049e+04 4.411e-10
  7.19278    191.3 1.007e+04 3.125e-10
  7.23276    192.5 9.699e+03 2.166e-10
  7.26427    194.0 9.406e+03 1.587e-10
  7.28425    195.0 9.537e+03 1.909e-10
  7.31271    196.6 9.291e+03 1.531e-10
  7.35269    198.5 9.221e+03 1.481e-10
  7.39266    200.6 9.219e+03 1.483e-10
  7.43264    202.6 9.226e+03 1.512e-10
  7.45615    204.5 9.269e+03 1.591e-10
  7.47614    205.3 9.271e+03 1.588e-10
  7.51260    207.0 9.348e+03 1.732e-10
  7.54040    208.5 9.444e+03 1.918e-10
  7.56038    208.9 9.556e+03 2.125e-10
  7.59255    210.3 9.652e+03 2.354e-10
  7.62805    211.6 9.739e+03 2.556e-10
  7.64803    212.2 9.841e+03 2.830e-10
  7.67250    213.1 9.995e+03 3.198e-10
  7.71248    213.9 1.014e+04 3.428e-10
  7.75246    214.5 1.026e+04 3.478e-10
  7.79243    215.1 1.028e+04 3.456e-10
  7.81993    215.7 1.029e+04 3.368e-10
  7.83992    215.5 1.032e+04 3.257e-10
  7.87239    216.0 1.029e+04 2.704e-10
  7.91236    216.7 1.020e+04 2.071e-10
  7.95234    217.5 1.005e+04 1.633e-10
  7.99183    218.6 9.931e+03 1.550e-10
  8.01182    218.7 9.781e+03 1.275e-10
  8.03230    220.3 9.760e+03 1.303e-10
  8.07227    222.0 9.731e+03 1.447e-10
  8.11225    223.7 9.790e+03 1.762e-10
  8.15223    225.5 9.924e+03 2.228e-10
  8.18371    227.3 1.009e+04 2.791e-10
  8.20370    227.8 9.992e+03 2.770e-10
  8.23218    229.5 1.017e+04 3.418e-10
  8.27216    231.2 1.031e+04 4.012e-10
  8.31213    232.9 1.043e+04 4.490e-10
  8.35211    234.5 1.050e+04 4.793e-10
  8.37560    236.1 1.052e+04 4.907e-10
  8.39558    236.2 1.049e+04 4.951e-10
  8.43206    237.6 1.046e+04 4.923e-10
  8.47204    239.1 1.038e+04 4.782e-10
  8.51202    240.6 1.028e+04 4.523e-10
  8.54749    242.1 1.018e+04 4.197e-10
  8.56748    242.2 9.928e+03 3.482e-10
  8.59197    243.7 9.806e+03 3.032e-10
  8.63195    245.1 9.684e+03 2.593e-10
  8.67193    246.4 9.558e+03 2.234e-10
  8.71190    247.5 9.442e+03 2.041e-10
  8.73938    248.5 9.373e+03 1.944e-10
  8.75937    248.3 9.059e+03 1.595e-10
  8.79186    249.3 9.052e+03 1.606e-10
  8.83183    250.4 9.050e+03 1.649e-10
  8.87181    251.6 9.031e+03 1.769e-10
  8.91127    252.8 9.089e+03 2.007e-10
  8.93126    253.6 8.894e+03 1.695e-10
  8.95176    255.1 8.979e+03 1.810e-10
  8.99174    256.6 9.086e+03 1.916e-10
  9.03172    258.3 9.181e+03 2.006e-10
  9.07170    260.0 9.264e+03 2.073e-10
  9.10316    261.7 9.336e+03 2.130e-10
  9.12315    262.7 9.040e+03 1.603e-10
  9.15165    264.5 9.131e+03 1.702e-10
  9.19163    266.3 9.218e+03 1.825e-10
  9.23160    268.0 9.313e+03 1.994e-10
  9.27158    269.7 9.414e+03 2.240e-10
  9.29504    271.4 9.523e+03 2.554e-10
  9.31503    272.2 9.396e+03 2.295e-10
  9.35153    273.8 9.536e+03 2.696e-10
  9.39151    275.2 9.644e+03 3.074e-10
  9.43149    276.4 9.689e+03 3.297e-10
  9.46694    277.3 9.669e+03 3.353e-10
  9.48693    277.9 9.566e+03 3.048e-10
  9.51144    278.5 9.515e+03 2.917e-10
  9.55142    279.0 9.464e+03 2.772e-10
  9.59139    279.5 9.426e+03 2.655e-10
  9.63137    280.1 9.421e+03 2.629e-10
  9.65882    280.6 9.442e+03 2.641e-10
  9.67881    281.2 9.255e+03 2.234e-10
  9.71133    281.9 9.341e+03 2.318e-10
  9.75130    282.8 9.545e+03 2.593e-10
  9.79128    284.0 9.746e+03 2.916e-10
  9.83072    285.5 9.910e+03 3.196e-10
  9.85071    285.9 9.997e+03 3.518e-10
  9.86114    286.6 9.995e+03 3.632e-10
  9.88103    287.3 1.001e+04 3.795e-10
  9.90102    288.1 1.007e+04 4.214e-10
  9.92101    288.7 1.032e+04 5.086e-10
  9.93646    288.9 1.085e+04 6.768e-10
  9.94645    288.5 1.116e+04 7.902e-10
  9.96099    288.3 1.215e+04 1.192e-09
  9.98097    288.0 1.332e+04 1.915e-09
 10.00096    287.8 1.445e+04 3.059e-09
 10.02095    287.5 1.530e+04 4.353e-09
 10.03235    287.1 1.567e+04 5.024e-09
 10.03730    286.9 1.593e+04 5.522e-09
 10.04584    286.4 1.652e+04 6.744e-09
 10.05583    285.7 1.715e+04 8.521e-09
 10.06583    285.2 1.752e+04 1.056e-08
 10.07528    284.9 1.776e+04 1.227e-08
 10.08028    284.5 1.798e+04 1.383e-08
 10.08582    284.4 1.814e+04 1.536e-08
 10.09581    284.1 1.842e+04 1.652e-08
 10.10580    283.4 1.884e+04 1.744e-08
 10.11580    282.1 1.947e+04 1.813e-08
 10.12325    279.9 2.040e+04 1.881e-08
 10.12825    278.1 2.132e+04 2.528e-08
 10.13579    274.5 2.251e+04 2.779e-08
 10.14578    270.1 2.342e+04 3.084e-08
 10.15578    265.4 2.375e+04 3.466e-08
 10.16577    260.7 2.346e+04 3.956e-08
 10.17122    256.6 2.290e+04 4.567e-08
 10.17622    256.1 2.256e+04 5.561e-08
 10.18576    253.0 2.255e+04 5.599e-08
 10.19575    250.0 2.259e+04 5.531e-08
 10.20575    246.9 2.279e+04 5.174e-08
 10.21419    243.6 2.310e+04 4.252e-08
 10.21919    243.0 2.325e+04 3.019e-08
 10.22574    238.8 2.329e+04 2.047e-08
 10.23573    234.2 2.270e+04 1.372e-08
 10.24572    229.3 2.135e+04 9.700e-09
 10.25572    224.6 1.955e+04 7.455e-09
 10.26217    220.4 1.776e+04 6.232e-09
 10.26716    219.4 1.652e+04 5.012e-09
 10.27571    216.7 1.581e+04 4.918e-09
 10.28570    214.9 1.571e+04 4.922e-09
 10.29570    213.4 1.568e+04 5.002e-09
 10.30514    212.4 1.566e+04 5.152e-09
 10.31019    213.8 1.541e+04 4.453e-09
 10.32078    212.1 1.555e+04 5.147e-09
 10.34077    211.7 1.586e+04 5.808e-09
 10.36076    210.9 1.612e+04 6.050e-09
 10.38074    209.5 1.612e+04 5.817e-09
 10.39618    208.1 1.581e+04 4.855e-09
 10.40618    207.9 1.520e+04 3.910e-09
 10.42072    206.3 1.441e+04 2.619e-09
 10.44071    204.5 1.320e+04 1.601e-09
 10.47079    202.7 1.165e+04 9.050e-10
 10.51086    202.2 1.019e+04 5.578e-10
 10.55084    202.6 9.963e+03 4.519e-10
 10.57817    202.6 1.002e+04 4.651e-10
 10.59816    204.2 9.908e+03 4.360e-10
 10.63079    205.3 9.966e+03 4.395e-10
 10.67077    206.6 1.003e+04 4.391e-10
 10.71075    208.3 1.015e+04 4.410e-10
 10.75016    210.4 1.029e+04 4.464e-10
 10.77015    210.4 1.019e+04 4.132e-10
 10.79070    212.7 1.025e+04 4.128e-10
 10.82059    213.4 1.030e+04 4.208e-10
 10.84048    214.1 1.033e+04 4.236e-10
 10.85591    215.0 1.035e+04 4.247e-10
 10.86590    215.4 1.037e+04 4.247e-10
 10.88046    216.4 1.041e+04 4.269e-10
 10.90044    217.0 1.058e+04 4.406e-10
 10.92043    217.1 1.087e+04 4.935e-10
 10.94042    216.9 1.149e+04 6.111e-10
 10.95185    216.5 1.239e+04 8.906e-10
 10.96184    216.3 1.267e+04 1.099e-09
 10.98040    216.4 1.365e+04 1.847e-09
 11.00039    216.9 1.467e+04 3.151e-09
 11.02037    217.9 1.566e+04 5.013e-09
 11.03780    218.7 1.651e+04 6.802e-09
 11.04779    219.3 1.649e+04 7.304e-09
 11.06035    219.4 1.704e+04 7.916e-09
 11.08034    219.2 1.704e+04 7.736e-09
 11.10033    219.3 1.682e+04 6.745e-09
 11.12032    219.3 1.627e+04 5.056e-09
 11.13374    219.1 1.547e+04 3.481e-09
 11.14373    219.8 1.514e+04 3.109e-09
 11.16029    219.2 1.427e+04 2.141e-09
 11.18028    218.4 1.338e+04 1.621e-09
 11.20027    218.2 1.270e+04 1.510e-09
 11.21969    218.6 1.260e+04 1.502e-09
 11.22968    218.9 1.238e+04 1.358e-09
 11.24025    219.4 1.239e+04 1.363e-09
 11.26024    219.9 1.242e+04 1.392e-09
 11.28022    220.4 1.254e+04 1.479e-09
 11.30021    220.9 1.276e+04 1.635e-09
 11.31563    221.2 1.310e+04 1.876e-09
 11.32562    220.8 1.303e+04 1.894e-09
 11.34019    221.1 1.338e+04 2.218e-09
 11.36018    221.5 1.387e+04 2.638e-09
 11.38017    221.8 1.452e+04 3.222e-09
 11.40016    222.2 1.525e+04 3.966e-09
 11.41157    222.6 1.594e+04 4.811e-09
 11.42156    222.4 1.513e+04 3.441e-09
 11.44013    222.6 1.600e+04 4.097e-09
 11.46012    222.8 1.671e+04 4.949e-09
 11.48011    223.0 1.725e+04 5.849e-09
 11.49615    223.1 1.760e+04 6.640e-09
 11.50357    223.0 1.693e+04 5.512e-09
 11.50751    222.1 1.541e+04 4.378e-09
 11.52009    222.2 1.606e+04 4.978e-09
 11.54007    222.2 1.685e+04 5.601e-09
 11.56006    222.3 1.755e+04 6.247e-09
 11.58005    222.3 1.819e+04 7.108e-09
 11.59346    222.4 1.883e+04 8.457e-09
 11.60345    221.1 1.787e+04 5.216e-09
 11.62003    221.1 1.924e+04 6.659e-09
 11.64002    221.1 2.059e+04 8.661e-09
 11.66000    221.1 2.177e+04 1.099e-08
 11.67941    221.0 2.277e+04 1.346e-08
 11.68940    217.8 2.196e+04 8.201e-09
 11.69998    217.5 2.335e+04 9.565e-09
 11.71997    217.3 2.421e+04 1.117e-08
 11.73996    217.0 2.465e+04 1.296e-08
 11.75995    216.8 2.460e+04 1.467e-08
 11.77535    216.7 2.462e+04 1.497e-08
 11.78535    212.6 2.132e+04 8.683e-09
 11.79992    213.0 2.169e+04 9.456e-09
 11.81991    213.7 2.177e+04 1.038e-08
 11.83990    214.7 2.164e+04 1.112e-08
 11.85989    215.7 2.197e+04 1.095e-08
 11.87129    216.8 2.206e+04 1.092e-08
 11.88129    213.5 1.819e+04 3.303e-09
 11.89987    214.7 1.942e+04 3.435e-09
 11.91985    216.1 2.094e+04 3.639e-09
 11.93984    217.5 2.232e+04 3.753e-09
 11.95724    218.9 2.482e+04 3.782e-09
 11.96724    211.7 1.495e+04 1.046e-09
 11.97982    212.2 1.609e+04 1.105e-09
 11.99981    212.1 1.732e+04 1.187e-09
 12.01016    211.3 1.817e+04 1.349e-09
 12.01511    210.6 1.652e+04 1.156e-09
 12.02470    208.9 1.483e+04 1.128e-09
 12.03469    207.0 1.450e+04 1.185e-09
 12.04469    205.8 1.434e+04 1.258e-09
 12.05309    204.3 1.447e+04 1.473e-09
 12.06313    206.1 1.369e+04 1.197e-09
 12.07976    204.6 1.429e+04 1.601e-09
 12.09975    204.1 1.464e+04 2.171e-09
 12.11974    204.6 1.490e+04 2.842e-09
 12.13913    205.2 1.506e+04 3.442e-09
 12.14913    207.1 1.450e+04 2.654e-09
 12.15972    207.6 1.498e+04 3.522e-09
 12.17970    208.4 1.537e+04 4.459e-09
 12.19969    209.7 1.554e+04 5.218e-09
 12.21968    210.9 1.566e+04 5.673e-09
 12.23507    211.8 1.568e+04 5.667e-09
 12.24507    212.4 1.520e+04 5.043e-09
 12.25966    212.9 1.523e+04 4.954e-09
 12.27965    213.3 1.517e+04 4.566e-09
 12.29964    213.5 1.494e+04 3.864e-09
 12.31962    213.6 1.455e+04 3.083e-09
 12.33102    213.5 1.399e+04 2.396e-09
 12.34101    214.7 1.372e+04 2.264e-09
 12.35960    214.5 1.310e+04 1.720e-09
 12.37959    214.4 1.240e+04 1.364e-09
 12.39958    214.6 1.179e+04 1.149e-09
 12.41696    215.0 1.134e+04 1.013e-09
 12.42696    215.9 1.119e+04 8.824e-10
