# Columns:
#   distance along LOS (in CHIMPs)
#   peculiar velocity  (in km/s)
#   temperature (K)
#   HI number density
# pos=(190.336,2.01163,30.0154), angles=(1.60994,5.46721)
  0.00135    -45.3 1.230e+04 9.797e-10
  0.00588    -45.0 1.227e+04 9.672e-10
  0.01930    -44.5 1.199e+04 7.645e-10
  0.03357    -44.0 1.197e+04 7.708e-10
  0.04698    -43.4 1.175e+04 6.290e-10
  0.05913    -42.8 1.175e+04 6.295e-10
  0.07838    -43.1 1.191e+04 7.654e-10
  0.10254    -41.7 1.155e+04 5.491e-10
  0.13107    -40.4 1.170e+04 6.786e-10
  0.15790    -39.2 1.157e+04 5.557e-10
  0.18643    -38.5 1.188e+04 7.408e-10
  0.21327    -37.4 1.167e+04 6.072e-10
  0.22743    -37.4 1.172e+04 6.962e-10
  0.24075    -36.9 1.161e+04 6.249e-10
  0.25502    -36.7 1.171e+04 7.062e-10
  0.26843    -36.2 1.164e+04 6.337e-10
  0.28270    -36.4 1.189e+04 7.663e-10
  0.29611    -36.1 1.183e+04 6.986e-10
  0.31038    -36.5 1.205e+04 8.765e-10
  0.32380    -36.1 1.195e+04 8.073e-10
  0.33806    -36.2 1.205e+04 1.014e-09
  0.36489    -35.5 1.189e+04 1.018e-09
  0.37916    -35.2 1.185e+04 1.005e-09
  0.39258    -34.5 1.166e+04 8.228e-10
  0.40684    -34.2 1.159e+04 7.248e-10
  0.42026    -33.4 1.157e+04 5.877e-10
  0.43452    -33.5 1.159e+04 5.213e-10
  0.46145    -33.0 1.164e+04 4.696e-10
  0.49008    -33.0 1.152e+04 4.458e-10
  0.51691    -31.3 1.129e+04 3.358e-10
  0.54544    -30.2 1.120e+04 3.294e-10
  0.57228    -28.3 1.117e+04 2.650e-10
  0.60080    -27.2 1.117e+04 2.737e-10
  0.62764    -25.5 1.118e+04 2.434e-10
  0.65617    -24.3 1.118e+04 2.614e-10
  0.68300    -22.6 1.119e+04 2.408e-10
  0.71153    -21.5 1.116e+04 2.547e-10
  0.73836    -19.8 1.114e+04 2.362e-10
  0.76689    -18.6 1.110e+04 2.394e-10
  0.79373    -17.0 1.110e+04 2.251e-10
  0.82226    -15.8 1.107e+04 2.279e-10
  0.84909    -14.1 1.109e+04 2.223e-10
  0.87762    -13.0 1.103e+04 2.376e-10
  0.90445    -11.5 1.104e+04 2.366e-10
  0.93298    -10.4 1.098e+04 2.668e-10
  0.95982     -9.2 1.125e+04 2.913e-10
  0.98834     -8.2 1.119e+04 3.188e-10
  1.01518     -7.1 1.136e+04 4.000e-10
  1.04138     -6.1 1.130e+04 3.972e-10
  1.06248     -6.1 1.138e+04 4.602e-10
  1.07054     -5.0 1.162e+04 5.953e-10
  1.09907     -4.1 1.145e+04 5.553e-10
  1.12590     -3.0 1.160e+04 6.252e-10
  1.15443     -2.0 1.148e+04 6.063e-10
  1.18127     -0.9 1.155e+04 6.201e-10
  1.20979      0.3 1.157e+04 6.323e-10
  1.23663      1.4 1.159e+04 6.286e-10
  1.26412      2.4 1.173e+04 7.229e-10
  1.29199      3.4 1.204e+04 9.289e-10
  1.31883      4.2 1.208e+04 9.289e-10
  1.34735      5.1 1.246e+04 1.266e-09
  1.37419      5.9 1.245e+04 1.259e-09
  1.40272      6.7 1.286e+04 1.640e-09
  1.42955      7.3 1.271e+04 1.566e-09
  1.45808      7.9 1.299e+04 1.766e-09
  1.48491      8.7 1.263e+04 1.561e-09
  1.51344      9.3 1.276e+04 1.656e-09
  1.54028     10.2 1.243e+04 1.415e-09
  1.56881     10.9 1.263e+04 1.579e-09
  1.59564     11.6 1.242e+04 1.440e-09
  1.62417     12.5 1.274e+04 1.732e-09
  1.65100     13.2 1.244e+04 1.541e-09
  1.67943     13.6 1.240e+04 1.577e-09
  1.69275     14.1 1.213e+04 1.357e-09
  1.70670     14.7 1.234e+04 1.541e-09
  1.72043     15.1 1.254e+04 1.683e-09
  1.73385     15.3 1.234e+04 1.457e-09
  1.74812     15.5 1.241e+04 1.536e-09
  1.76153     15.9 1.213e+04 1.297e-09
  1.77580     16.3 1.219e+04 1.357e-09
  1.78921     16.8 1.193e+04 1.111e-09
  1.80348     17.0 1.201e+04 1.152e-09
  1.81690     17.4 1.176e+04 9.492e-10
  1.83116     17.7 1.180e+04 9.638e-10
  1.84458     18.1 1.159e+04 8.131e-10
  1.85884     18.5 1.160e+04 8.174e-10
  1.87226     19.0 1.147e+04 7.340e-10
  1.88652     19.5 1.149e+04 7.292e-10
  1.89994     20.0 1.144e+04 6.798e-10
  1.91420     20.4 1.147e+04 6.761e-10
  1.92772     20.7 1.137e+04 6.262e-10
  1.95634     21.6 1.141e+04 5.874e-10
  1.98318     23.0 1.111e+04 5.145e-10
  2.01171     24.2 1.110e+04 4.760e-10
  2.03854     25.5 1.092e+04 4.080e-10
  2.05036     26.6 1.097e+04 3.977e-10
  2.07510     27.1 1.085e+04 3.869e-10
  2.09390     28.3 1.068e+04 2.879e-10
  2.12243     29.4 1.071e+04 2.789e-10
  2.14927     30.5 1.057e+04 2.252e-10
  2.17651     31.6 1.061e+04 2.373e-10
  2.20463     33.0 1.062e+04 2.496e-10
  2.23146     34.2 1.049e+04 2.305e-10
  2.25999     35.6 1.051e+04 2.382e-10
  2.28683     36.9 1.048e+04 2.348e-10
  2.31535     38.4 1.049e+04 2.427e-10
  2.34219     39.7 1.049e+04 2.659e-10
  2.37072     41.4 1.061e+04 2.923e-10
  2.39755     42.5 1.072e+04 3.494e-10
  2.42608     44.0 1.097e+04 3.965e-10
  2.45291     44.6 1.098e+04 4.525e-10
  2.48135     45.1 1.109e+04 5.125e-10
  2.49466     45.7 1.104e+04 5.449e-10
  2.50893     46.3 1.126e+04 6.762e-10
  2.52235     46.8 1.123e+04 6.830e-10
  2.53661     47.5 1.160e+04 9.169e-10
  2.55003     48.0 1.149e+04 8.582e-10
  2.55466     48.5 1.193e+04 1.158e-09
  2.56695     48.9 1.189e+04 1.078e-09
  2.57771     49.1 1.175e+04 8.561e-10
  2.59197     49.4 1.213e+04 1.135e-09
  2.60539     49.3 1.192e+04 8.729e-10
  2.61908     49.5 1.225e+04 1.130e-09
  2.63307     49.6 1.255e+04 1.422e-09
  2.64649     49.4 1.227e+04 1.132e-09
  2.66075     49.4 1.242e+04 1.282e-09
  2.67427     49.4 1.209e+04 9.765e-10
  2.70289     49.1 1.240e+04 1.278e-09
  2.72973     49.6 1.204e+04 1.067e-09
  2.75826     49.2 1.220e+04 1.129e-09
  2.78509     50.0 1.197e+04 9.752e-10
  2.81362     49.4 1.191e+04 9.230e-10
  2.84045     50.3 1.189e+04 9.057e-10
  2.86898     50.3 1.163e+04 7.233e-10
  2.89582     50.8 1.168e+04 7.509e-10
  2.92434     50.9 1.127e+04 5.273e-10
  2.95118     51.6 1.131e+04 5.595e-10
  2.97971     52.1 1.089e+04 3.873e-10
  3.00654     52.8 1.089e+04 3.844e-10
  3.03251     53.6 1.063e+04 2.786e-10
  3.05920     53.9 1.053e+04 2.716e-10
  3.08874     55.5 1.030e+04 1.671e-10
  3.11727     56.7 1.026e+04 1.645e-10
  3.14410     57.5 1.020e+04 1.380e-10
  3.17263     59.0 1.017e+04 1.451e-10
  3.19946     59.9 1.012e+04 1.381e-10
  3.22799     61.5 1.015e+04 1.610e-10
  3.25483     62.5 1.014e+04 1.750e-10
  3.28336     64.0 1.020e+04 2.162e-10
  3.31019     65.0 1.025e+04 2.595e-10
  3.33872     66.3 1.033e+04 3.156e-10
  3.36555     67.4 1.038e+04 3.698e-10
  3.39408     68.6 1.044e+04 4.248e-10
  3.42092     69.6 1.046e+04 4.577e-10
  3.44944     70.7 1.052e+04 4.733e-10
  3.47628     71.6 1.050e+04 4.748e-10
  3.50481     72.4 1.051e+04 4.711e-10
  3.53164     73.2 1.035e+04 4.288e-10
  3.56017     73.9 1.038e+04 4.358e-10
  3.58700     74.4 1.024e+04 4.024e-10
  3.61553     74.9 1.041e+04 5.053e-10
  3.64237     75.3 1.041e+04 5.560e-10
  3.67089     75.9 1.092e+04 8.686e-10
  3.69773     76.1 1.091e+04 8.868e-10
  3.72626     76.5 1.133e+04 1.218e-09
  3.75309     76.4 1.081e+04 8.261e-10
  3.78162     76.3 1.078e+04 8.024e-10
  3.80845     75.9 1.039e+04 5.921e-10
  3.83698     76.1 1.010e+04 4.969e-10
  3.86382     76.3 9.963e+03 4.580e-10
  3.89234     77.1 9.599e+03 3.824e-10
  3.91918     77.8 9.617e+03 3.922e-10
  3.94760     79.1 9.495e+03 3.739e-10
  4.00127     81.6 9.562e+03 4.047e-10
  4.02990     83.2 9.641e+03 4.414e-10
  4.04330     84.1 9.672e+03 4.489e-10
  4.06833     84.2 9.562e+03 4.013e-10
  4.08527     85.5 9.752e+03 4.827e-10
  4.11210     86.3 9.739e+03 4.797e-10
  4.14063     87.2 9.909e+03 5.484e-10
  4.16747     87.7 9.920e+03 5.527e-10
  4.19599     88.1 9.960e+03 5.669e-10
  4.22283     88.3 1.009e+04 5.976e-10
  4.25136     88.5 9.972e+03 5.710e-10
  4.27819     88.7 1.009e+04 5.903e-10
  4.30672     89.0 9.868e+03 5.333e-10
  4.33355     88.8 1.027e+04 5.965e-10
  4.36208     89.3 1.001e+04 5.550e-10
  4.37540     88.3 1.067e+04 7.816e-10
  4.38957     88.5 1.054e+04 7.516e-10
  4.40298     88.6 1.102e+04 9.615e-10
  4.41702     88.9 1.082e+04 8.652e-10
  4.43067     89.0 1.064e+04 7.914e-10
  4.44418     89.0 1.108e+04 9.758e-10
  4.47281     89.3 1.062e+04 7.679e-10
  4.49964     88.9 1.139e+04 1.160e-09
  4.52817     89.2 1.085e+04 8.601e-10
  4.55500     88.8 1.133e+04 1.169e-09
  4.58353     89.1 1.071e+04 8.315e-10
  4.61037     89.0 1.107e+04 1.072e-09
  4.63889     89.4 1.057e+04 8.116e-10
  4.66573     89.4 1.077e+04 8.895e-10
  4.69426     89.7 1.031e+04 6.629e-10
  4.72109     89.5 1.033e+04 6.374e-10
  4.74962     89.8 9.931e+03 4.575e-10
  4.77645     89.5 9.788e+03 3.787e-10
  4.80498     89.7 9.449e+03 2.874e-10
  4.83182     89.3 9.387e+03 2.746e-10
  4.85998     89.9 9.387e+03 2.756e-10
  4.88718     90.6 9.444e+03 2.857e-10
  4.91401     90.6 9.480e+03 2.902e-10
  4.94254     91.3 9.664e+03 3.311e-10
  4.96938     91.4 9.608e+03 3.241e-10
  4.99791     92.2 9.759e+03 3.736e-10
  5.02474     92.7 9.592e+03 3.571e-10
  5.05048     93.5 9.600e+03 3.559e-10
  5.05592     95.2 9.832e+03 4.350e-10
  5.08010     95.7 9.690e+03 3.969e-10
  5.10863     96.4 9.648e+03 3.880e-10
  5.13547     97.0 9.501e+03 3.405e-10
  5.16399     97.3 9.304e+03 3.094e-10
  5.19083     97.8 9.162e+03 2.914e-10
  5.21936     97.9 9.135e+03 2.972e-10
  5.24619     98.7 9.149e+03 3.090e-10
  5.27472     98.7 9.229e+03 3.470e-10
  5.30155     99.6 9.301e+03 3.697e-10
  5.33008     99.5 9.546e+03 4.640e-10
  5.35692    100.5 9.601e+03 4.833e-10
  5.38544    100.2 9.838e+03 5.723e-10
  5.41228    101.3 9.688e+03 5.380e-10
  5.44081    100.7 9.713e+03 5.365e-10
  5.46764    101.8 9.392e+03 4.284e-10
  5.49617    101.1 9.339e+03 4.134e-10
  5.52300    102.1 9.056e+03 3.400e-10
  5.55153    101.8 8.977e+03 3.343e-10
  5.57837    102.9 8.877e+03 3.229e-10
  5.60689    102.9 8.813e+03 3.176e-10
  5.63373    104.2 8.804e+03 3.244e-10
  5.66226    104.3 8.737e+03 3.143e-10
  5.68909    105.7 8.789e+03 3.300e-10
  5.71762    105.9 8.747e+03 3.222e-10
  5.74446    107.4 8.780e+03 3.295e-10
  5.77237    107.7 8.777e+03 3.297e-10
  5.79982    108.0 8.795e+03 3.382e-10
  5.82665    109.2 8.759e+03 3.187e-10
  5.85518    109.6 8.835e+03 3.412e-10
  5.88202    110.2 8.742e+03 2.957e-10
  5.91054    110.4 8.856e+03 3.219e-10
  5.93738    110.2 8.836e+03 3.091e-10
  5.96591    110.4 8.932e+03 3.341e-10
  5.99274    110.1 9.175e+03 4.085e-10
  6.02127    110.5 9.187e+03 4.108e-10
  6.04002    110.8 9.492e+03 5.338e-10
  6.05946    109.8 9.269e+03 4.749e-10
  6.07663    110.5 9.040e+03 3.954e-10
  6.10347    110.9 9.130e+03 3.986e-10
  6.13199    111.8 8.903e+03 3.240e-10
  6.15883    112.1 8.779e+03 2.275e-10
  6.18736    113.1 8.599e+03 1.893e-10
  6.21419    112.4 7.821e+03 9.861e-11
  6.24272    113.2 7.780e+03 8.745e-11
  6.26955    111.9 7.653e+03 8.300e-11
  6.29808    112.5 7.731e+03 9.514e-11
  6.32492    112.5 7.763e+03 1.072e-10
  6.35344    113.3 7.892e+03 1.244e-10
  6.38028    113.3 8.053e+03 1.339e-10
  6.40881    113.9 8.309e+03 1.587e-10
  6.43564    113.5 8.695e+03 1.873e-10
  6.46417    113.9 8.927e+03 2.196e-10
  6.49100    113.3 9.310e+03 2.852e-10
  6.50517    113.4 9.377e+03 2.933e-10
  6.51849    112.9 9.511e+03 3.177e-10
  6.53275    112.2 9.825e+03 3.679e-10
  6.54613    110.2 1.055e+04 5.842e-10
  6.56040    109.5 1.085e+04 5.894e-10
  6.57385    106.7 1.199e+04 1.114e-09
  6.58812    104.7 1.259e+04 1.610e-09
  6.60153    103.4 1.340e+04 2.942e-09
  6.61580    102.9 1.374e+04 3.758e-09
  6.62922    102.9 1.430e+04 4.970e-09
  6.64348    102.8 1.432e+04 4.933e-09
  6.65690    102.6 1.446e+04 4.940e-09
  6.67114    101.9 1.430e+04 4.123e-09
  6.69797     98.5 1.371e+04 2.467e-09
  6.71226     96.3 1.332e+04 2.353e-09
  6.72568     94.0 1.347e+04 2.371e-09
  6.73994     92.6 1.369e+04 2.734e-09
  6.75336     90.9 1.442e+04 3.668e-09
  6.76762     90.2 1.481e+04 4.582e-09
  6.78104     89.5 1.528e+04 6.225e-09
  6.79530     89.1 1.557e+04 7.008e-09
  6.80872     89.0 1.579e+04 8.060e-09
  6.82299     88.0 1.616e+04 8.485e-09
  6.83640     87.2 1.602e+04 7.422e-09
  6.85067     84.6 1.661e+04 7.955e-09
  6.86408     82.4 1.645e+04 6.918e-09
  6.87835     79.2 1.725e+04 8.884e-09
  6.89177     77.1 1.654e+04 7.352e-09
  6.90603     75.1 1.688e+04 8.708e-09
  6.91945     73.9 1.563e+04 5.777e-09
  6.93371     72.3 1.560e+04 5.491e-09
  6.94713     71.2 1.435e+04 3.318e-09
  6.96139     68.7 1.407e+04 2.494e-09
  6.97481     66.4 1.289e+04 1.542e-09
  6.98907     62.6 1.209e+04 1.263e-09
  7.00249     60.8 1.141e+04 1.163e-09
  7.01676     58.4 1.136e+04 1.192e-09
  7.03017     58.6 1.116e+04 1.196e-09
  7.04142     57.8 1.133e+04 1.399e-09
  7.05245     57.2 1.134e+04 1.409e-09
  7.05785     57.9 1.137e+04 1.450e-09
  7.07212     57.3 1.166e+04 1.632e-09
  7.08554     57.9 1.161e+04 1.542e-09
  7.09980     57.2 1.178e+04 1.607e-09
  7.11322     57.7 1.154e+04 1.438e-09
  7.12733     56.9 1.154e+04 1.434e-09
  7.14090     56.2 1.154e+04 1.420e-09
  7.15432     56.7 1.130e+04 1.279e-09
  7.16858     55.9 1.135e+04 1.299e-09
  7.18200     56.5 1.133e+04 1.284e-09
  7.19626     55.8 1.140e+04 1.327e-09
  7.20968     56.3 1.153e+04 1.428e-09
  7.22394     55.6 1.163e+04 1.516e-09
  7.23736     56.2 1.179e+04 1.697e-09
  7.25162     55.6 1.192e+04 1.844e-09
  7.26504     56.4 1.210e+04 2.051e-09
  7.27930     56.0 1.229e+04 2.250e-09
  7.29272     56.7 1.242e+04 2.360e-09
  7.30699     56.5 1.264e+04 2.621e-09
  7.32040     57.1 1.263e+04 2.562e-09
  7.33467     56.8 1.280e+04 2.604e-09
  7.34808     57.4 1.246e+04 2.245e-09
  7.36235     57.0 1.246e+04 2.209e-09
  7.37577     57.6 1.200e+04 1.796e-09
  7.39003     57.2 1.199e+04 1.713e-09
  7.40345     58.0 1.156e+04 1.399e-09
  7.41771     57.6 1.158e+04 1.347e-09
  7.43113     58.5 1.130e+04 1.146e-09
  7.44539     58.2 1.131e+04 1.132e-09
  7.45881     59.2 1.113e+04 1.014e-09
  7.47307     59.0 1.114e+04 1.014e-09
  7.48649     59.9 1.106e+04 9.803e-10
  7.50076     59.9 1.108e+04 9.822e-10
  7.51417     60.9 1.110e+04 9.887e-10
  7.52844     60.9 1.113e+04 9.894e-10
  7.54185     61.9 1.123e+04 1.028e-09
  7.54591     61.8 1.122e+04 1.022e-09
  7.55876     61.3 1.127e+04 1.054e-09
  7.56954     62.2 1.134e+04 1.081e-09
  7.58352     62.0 1.128e+04 1.041e-09
  7.59722     61.8 1.118e+04 9.599e-10
  7.61063     62.6 1.135e+04 1.035e-09
  7.62490     62.2 1.123e+04 9.341e-10
  7.65183     63.1 1.147e+04 1.056e-09
  7.68046     62.1 1.127e+04 9.006e-10
  7.70729     63.4 1.178e+04 1.136e-09
  7.73582     62.3 1.147e+04 9.371e-10
  7.76265     63.3 1.182e+04 1.165e-09
  7.79118     62.3 1.125e+04 8.465e-10
  7.81802     63.6 1.140e+04 9.242e-10
  7.84654     63.1 1.065e+04 5.703e-10
  7.87338     64.2 1.064e+04 5.446e-10
  7.90191     63.7 9.948e+03 3.304e-10
  7.92874     64.3 9.978e+03 3.656e-10
  7.95727     64.2 9.936e+03 3.627e-10
  7.98410     64.9 1.045e+04 5.233e-10
  8.01263     65.0 1.044e+04 5.556e-10
  8.03674     65.5 1.102e+04 8.352e-10
  8.05050     65.2 1.105e+04 8.232e-10
  8.06790     65.0 1.129e+04 1.000e-09
  8.09473     65.5 1.169e+04 1.247e-09
  8.12326     65.0 1.188e+04 1.364e-09
  8.15009     65.0 1.167e+04 1.197e-09
  8.16426     64.5 1.159e+04 1.160e-09
  8.17768     64.6 1.144e+04 1.023e-09
  8.19194     63.9 1.134e+04 9.868e-10
  8.20536     63.5 1.086e+04 7.900e-10
  8.21962     62.8 1.086e+04 7.904e-10
  8.23304     63.0 1.075e+04 7.080e-10
  8.24730     62.3 1.071e+04 7.187e-10
  8.26072     62.3 1.056e+04 6.464e-10
  8.27499     61.7 1.052e+04 6.662e-10
  8.28840     61.9 1.050e+04 6.261e-10
  8.30267     61.5 1.045e+04 6.243e-10
  8.31618     61.7 1.049e+04 6.020e-10
  8.34481     61.0 1.037e+04 5.080e-10
  8.37164     61.1 1.012e+04 3.884e-10
  8.40017     60.0 9.934e+03 2.789e-10
  8.42701     59.8 9.848e+03 2.357e-10
  8.45553     58.7 9.806e+03 2.335e-10
  8.48237     58.6 9.834e+03 2.391e-10
  8.50952     57.9 9.809e+03 2.627e-10
  8.53773     57.6 1.001e+04 3.513e-10
  8.56457     58.2 1.026e+04 4.125e-10
  8.59300     58.0 1.053e+04 4.992e-10
  8.60632     57.9 1.057e+04 5.298e-10
  8.62058     57.8 1.071e+04 6.263e-10
  8.63400     57.9 1.067e+04 6.535e-10
  8.64826     58.3 1.083e+04 7.753e-10
  8.66168     58.4 1.086e+04 7.724e-10
  8.67594     58.6 1.120e+04 8.972e-10
  8.68936     57.3 1.183e+04 9.114e-10
  8.70362     56.2 1.244e+04 1.079e-09
  8.71704     54.0 1.302e+04 1.244e-09
  8.73131     53.1 1.339e+04 1.545e-09
  8.74472     51.8 1.301e+04 1.777e-09
  8.75899     51.2 1.371e+04 2.345e-09
  8.77240     50.1 1.347e+04 2.171e-09
  8.78667     48.0 1.482e+04 2.868e-09
  8.80009     45.4 1.492e+04 2.568e-09
  8.81435     42.2 1.607e+04 3.620e-09
  8.82777     40.1 1.534e+04 3.382e-09
  8.84203     37.9 1.574e+04 4.226e-09
  8.85545     37.2 1.495e+04 3.931e-09
  8.86971     35.9 1.516e+04 4.190e-09
  8.88313     36.4 1.432e+04 3.327e-09
  8.89739     34.8 1.417e+04 2.957e-09
  8.91081     35.1 1.370e+04 2.230e-09
  8.92507     33.4 1.365e+04 2.223e-09
  8.93849     33.7 1.321e+04 1.651e-09
  8.95209     32.6 1.330e+04 1.853e-09
  8.96617     31.9 1.375e+04 2.362e-09
  8.97959     32.3 1.355e+04 2.007e-09
  8.99385     31.7 1.440e+04 2.896e-09
  9.00727     31.7 1.444e+04 2.824e-09
  9.02154     30.8 1.555e+04 4.528e-09
  9.03490     30.9 1.565e+04 5.224e-09
  9.04917     31.2 1.670e+04 9.091e-09
  9.06263     32.0 1.669e+04 9.844e-09
  9.07690     32.3 1.732e+04 1.168e-08
  9.09032     33.0 1.732e+04 1.223e-08
  9.10458     32.8 1.721e+04 1.144e-08
  9.11800     33.4 1.737e+04 1.246e-08
  9.13226     33.5 1.670e+04 8.978e-09
  9.14568     33.6 1.698e+04 1.036e-08
  9.15994     33.6 1.585e+04 5.600e-09
  9.17336     34.0 1.609e+04 6.932e-09
  9.18762     33.9 1.463e+04 2.906e-09
  9.20104     34.5 1.490e+04 3.721e-09
  9.21531     34.3 1.335e+04 1.523e-09
  9.22872     35.1 1.374e+04 2.135e-09
  9.25735     35.3 1.215e+04 7.572e-10
  9.28428     36.9 1.240e+04 1.167e-09
  9.31281     37.3 1.101e+04 4.109e-10
  9.33964     39.1 1.160e+04 7.534e-10
  9.36817     40.2 1.076e+04 3.506e-10
  9.42184     43.1 1.057e+04 3.466e-10
  9.45037     44.6 1.033e+04 2.974e-10
  9.47720     46.3 1.068e+04 4.277e-10
  9.50573     47.9 1.064e+04 4.302e-10
  9.51905     48.1 1.071e+04 4.897e-10
  9.53322     48.9 1.072e+04 5.043e-10
  9.54122     49.8 1.092e+04 5.383e-10
  9.55046     49.9 1.091e+04 5.405e-10
  9.56090     50.6 1.098e+04 5.788e-10
  9.57432     51.1 1.103e+04 5.850e-10
  9.58858     51.7 1.112e+04 6.486e-10
  9.60200     52.2 1.111e+04 6.207e-10
  9.61626     52.8 1.125e+04 7.030e-10
  9.62968     53.4 1.129e+04 6.287e-10
  9.64394     53.9 1.143e+04 7.212e-10
  9.65736     54.3 1.146e+04 6.347e-10
  9.67162     54.6 1.162e+04 7.325e-10
  9.68504     54.7 1.160e+04 6.830e-10
  9.69931     54.9 1.177e+04 7.777e-10
  9.71272     55.0 1.182e+04 7.915e-10
  9.72699     55.1 1.195e+04 8.422e-10
  9.74040     55.2 1.194e+04 9.879e-10
  9.75467     55.4 1.193e+04 9.761e-10
  9.76809     56.0 1.191e+04 1.131e-09
  9.78235     56.4 1.184e+04 1.024e-09
  9.79577     57.2 1.188e+04 1.090e-09
  9.81003     57.5 1.177e+04 8.527e-10
  9.82345     58.1 1.173e+04 8.235e-10
  9.83764     57.9 1.167e+04 5.996e-10
  9.86448     57.6 1.147e+04 4.589e-10
  9.87881     57.3 1.116e+04 4.463e-10
  9.89223     57.6 1.108e+04 4.288e-10
  9.90649     57.7 1.104e+04 4.328e-10
  9.92001     58.4 1.100e+04 3.961e-10
  9.94863     59.0 1.098e+04 3.991e-10
  9.97547     60.4 1.090e+04 3.345e-10
 10.00400     61.3 1.077e+04 2.872e-10
 10.03083     62.8 1.042e+04 2.030e-10
 10.04173     63.5 1.031e+04 1.607e-10
 10.06199     63.2 1.056e+04 2.347e-10
 10.08619     64.1 1.040e+04 1.634e-10
 10.11472     64.7 1.039e+04 1.641e-10
 10.14156     65.5 1.044e+04 1.581e-10
 10.17008     66.2 1.046e+04 1.781e-10
 10.19692     67.0 1.061e+04 2.220e-10
 10.22545     67.9 1.063e+04 2.396e-10
 10.25228     68.7 1.086e+04 3.108e-10
 10.28061     69.4 1.085e+04 2.674e-10
 10.30764     69.8 1.082e+04 2.341e-10
 10.33448     70.1 1.077e+04 2.570e-10
 10.36301     70.6 1.068e+04 2.481e-10
 10.38984     71.4 1.046e+04 2.906e-10
 10.41837     72.2 1.050e+04 2.949e-10
 10.44520     73.3 1.035e+04 2.761e-10
 10.47373     74.1 1.053e+04 3.129e-10
 10.50057     75.2 1.033e+04 2.492e-10
 10.52909     75.9 1.056e+04 3.468e-10
 10.55593     76.1 1.058e+04 2.802e-10
 10.58446     76.6 1.084e+04 3.689e-10
 10.61129     76.4 1.079e+04 3.590e-10
 10.63982     76.9 1.145e+04 5.774e-10
 10.66665     76.6 1.102e+04 6.736e-10
