# Columns:
#   distance along LOS (in CHIMPs)
#   peculiar velocity  (in km/s)
#   temperature (K)
#   HI number density
# pos=(80.171,17.9632,164.474), angles=(1.81995,1.53638)
  0.00307     -2.4 1.034e+04 3.219e-10
  0.01621     -2.0 1.030e+04 3.170e-10
  0.03638     -1.4 1.028e+04 3.182e-10
  0.05484     -0.7 1.030e+04 3.284e-10
  0.06492      0.6 1.030e+04 3.316e-10
  0.07671      1.3 1.046e+04 3.622e-10
  0.09688     -0.6 1.373e+04 5.616e-10
  0.11704     -1.3 1.548e+04 1.008e-09
  0.13212      0.2 1.548e+04 1.256e-09
  0.13972      0.1 1.585e+04 1.597e-09
  0.14476      1.4 1.570e+04 1.459e-09
  0.15223      0.9 1.672e+04 2.280e-09
  0.16232      0.2 1.919e+04 3.992e-09
  0.17240     -3.2 2.494e+04 1.064e-08
  0.17969    -10.0 2.950e+04 6.368e-08
  0.18473     -9.1 2.977e+04 5.953e-08
  0.19256    -16.1 2.760e+04 3.315e-07
  0.20265    -21.4 2.523e+04 6.496e-07
  0.21273    -24.9 2.491e+04 6.236e-07
  0.21965    -27.7 2.555e+04 4.068e-07
  0.22470    -26.9 2.541e+04 4.000e-07
  0.23290    -29.4 2.843e+04 1.349e-07
  0.24298    -34.5 4.010e+04 1.922e-08
  0.25306    -35.4 4.111e+04 5.744e-09
  0.25962    -41.7 4.139e+04 3.550e-09
  0.26466    -42.1 4.137e+04 3.139e-09
  0.27832    -72.3 3.365e+04 1.435e-09
  0.29465    -81.5 1.960e+04 1.285e-09
  0.30473    -83.8 1.930e+04 9.073e-10
  0.31870    -88.1 1.419e+04 7.097e-10
  0.33886    -92.1 1.129e+04 4.506e-10
  0.35903    -94.2 1.052e+04 3.905e-10
  0.36973    -94.7 1.033e+04 3.776e-10
  0.37520    -95.4 1.110e+04 4.890e-10
  0.38466    -98.3 1.079e+04 4.478e-10
  0.39936    -96.1 1.074e+04 4.763e-10
  0.41952    -94.0 1.076e+04 5.319e-10
  0.43969    -92.1 1.088e+04 5.494e-10
  0.45452    -90.5 1.073e+04 5.493e-10
  0.46460    -91.4 1.077e+04 6.009e-10
  0.48002    -89.7 1.075e+04 5.880e-10
  0.50019    -88.4 1.091e+04 6.457e-10
  0.52035    -87.8 1.081e+04 6.067e-10
  0.53445    -86.0 1.058e+04 5.143e-10
  0.54453    -86.3 1.070e+04 5.313e-10
  0.56068    -86.1 1.073e+04 5.207e-10
  0.59103    -83.8 1.193e+04 5.157e-10
  0.61458    -83.5 1.184e+04 4.738e-10
  0.63475    -85.0 1.173e+04 3.807e-10
  0.67179    -85.9 1.038e+04 4.154e-10
  0.69442    -86.7 9.794e+03 4.373e-10
  0.70440    -86.8 9.814e+03 4.376e-10
  0.72201    -86.7 9.807e+03 4.416e-10
  0.74217    -87.0 9.712e+03 4.631e-10
  0.76234    -86.4 9.707e+03 4.592e-10
  0.77426    -86.2 9.675e+03 4.413e-10
  0.78434    -86.4 9.649e+03 4.227e-10
  0.80267    -86.3 9.570e+03 3.937e-10
  0.83301    -87.0 9.543e+03 3.655e-10
  0.87344    -88.9 9.320e+03 3.257e-10
  0.91377    -89.9 9.307e+03 3.527e-10
  0.93432    -89.4 9.436e+03 4.390e-10
  0.95449    -88.9 9.154e+03 3.612e-10
  0.99444    -87.4 9.175e+03 3.747e-10
  1.03477    -86.4 9.212e+03 3.612e-10
  1.07403    -86.5 9.774e+03 3.783e-10
  1.09419    -85.5 9.271e+03 3.059e-10
  1.11543    -85.6 9.867e+03 3.943e-10
  1.14558    -85.9 1.077e+04 6.771e-10
  1.16385    -85.8 1.108e+04 8.379e-10
  1.17393    -85.0 1.057e+04 6.058e-10
  1.18581    -84.5 1.103e+04 1.015e-09
  1.20598    -83.7 1.131e+04 1.266e-09
  1.22614    -82.7 1.159e+04 1.553e-09
  1.24378    -81.9 1.181e+04 1.686e-09
  1.25387    -81.4 1.153e+04 1.467e-09
  1.26647    -80.7 1.166e+04 1.551e-09
  1.28664    -80.1 1.167e+04 1.554e-09
  1.30681    -79.5 1.152e+04 1.467e-09
  1.32372    -78.8 1.131e+04 1.335e-09
  1.33380    -78.2 1.116e+04 1.221e-09
  1.34714    -77.5 1.096e+04 1.106e-09
  1.36730    -76.8 1.074e+04 9.742e-10
  1.38747    -76.1 1.054e+04 8.389e-10
  1.40365    -75.2 1.037e+04 7.008e-10
  1.41374    -75.0 1.029e+04 6.977e-10
  1.42780    -74.2 1.016e+04 5.991e-10
  1.44796    -73.3 1.013e+04 5.385e-10
  1.46813    -72.6 9.999e+03 4.676e-10
  1.48359    -72.2 9.934e+03 4.518e-10
  1.49367    -71.9 1.007e+04 4.838e-10
  1.51864    -71.0 1.005e+04 4.727e-10
  1.54044    -69.1 1.003e+04 4.738e-10
  1.55518    -68.7 9.554e+03 3.667e-10
  1.57380    -68.2 9.917e+03 4.472e-10
  1.59940    -66.1 9.853e+03 4.434e-10
  1.63973    -63.9 9.895e+03 4.384e-10
  1.68006    -61.7 1.008e+04 4.284e-10
  1.71351    -59.7 1.040e+04 4.350e-10
  1.73367    -59.4 1.069e+04 4.776e-10
  1.76072    -57.6 1.095e+04 4.892e-10
  1.80106    -55.8 1.145e+04 5.728e-10
  1.83121    -55.0 1.156e+04 6.491e-10
  1.85127    -54.0 1.200e+04 7.808e-10
  1.87144    -53.2 1.251e+04 1.010e-09
  1.88326    -52.7 1.287e+04 1.253e-09
  1.89335    -53.1 1.322e+04 1.464e-09
  1.91177    -52.9 1.389e+04 2.072e-09
  1.93194    -54.4 1.596e+04 3.445e-09
  1.95210    -57.2 1.853e+04 6.747e-09
  1.96320    -58.9 1.965e+04 1.276e-08
  1.97328    -59.4 1.937e+04 1.396e-08
  1.98734    -58.2 1.936e+04 1.957e-08
  1.99738    -57.8 1.950e+04 2.034e-08
  2.00307    -57.0 1.961e+04 2.019e-08
  2.00811    -57.0 1.934e+04 2.066e-08
  2.01754    -56.3 1.910e+04 2.012e-08
  2.03271    -54.9 1.929e+04 1.594e-08
  2.04313    -55.4 1.922e+04 1.015e-08
  2.05322    -55.3 1.809e+04 7.211e-09
  2.07309    -57.2 1.743e+04 4.584e-09
  2.09326    -59.1 1.644e+04 3.086e-09
  2.11299    -59.8 1.595e+04 2.483e-09
  2.12307    -60.2 1.463e+04 1.406e-09
  2.12551    -60.0 1.412e+04 1.397e-09
  2.13559    -58.7 1.510e+04 2.209e-09
  2.15376    -57.9 1.503e+04 2.224e-09
  2.17392    -57.0 1.542e+04 2.079e-09
  2.19292    -56.2 1.512e+04 2.117e-09
  2.20300    -56.6 1.419e+04 1.263e-09
  2.21425    -55.6 1.379e+04 1.389e-09
  2.23442    -54.6 1.392e+04 1.381e-09
  2.25458    -53.5 1.388e+04 1.525e-09
  2.27286    -52.5 1.412e+04 1.650e-09
  2.28294    -53.2 1.375e+04 1.050e-09
  2.29491    -52.9 1.432e+04 1.195e-09
  2.31508    -52.5 1.457e+04 1.484e-09
  2.33525    -51.8 1.461e+04 1.865e-09
  2.35279    -50.7 1.460e+04 2.268e-09
  2.36288    -51.3 1.390e+04 1.427e-09
  2.37558    -50.2 1.400e+04 1.663e-09
  2.39574    -49.2 1.416e+04 1.876e-09
  2.41591    -48.1 1.426e+04 2.051e-09
  2.43273    -47.1 1.436e+04 2.169e-09
  2.44281    -47.7 1.299e+04 1.251e-09
  2.45624    -46.7 1.320e+04 1.266e-09
  2.47640    -46.1 1.358e+04 1.290e-09
  2.49657    -45.4 1.404e+04 1.333e-09
  2.51266    -45.0 1.463e+04 1.455e-09
  2.52275    -45.9 1.316e+04 8.992e-10
  2.53690    -45.9 1.387e+04 1.130e-09
  2.55707    -46.2 1.483e+04 1.520e-09
  2.57723    -46.9 1.574e+04 2.129e-09
  2.59260    -47.1 1.604e+04 2.932e-09
  2.60268    -48.2 1.624e+04 3.336e-09
  2.61756    -47.8 1.654e+04 5.122e-09
  2.63773    -47.1 1.794e+04 7.886e-09
  2.65789    -47.6 1.977e+04 1.005e-08
  2.67248    -49.2 2.166e+04 1.077e-08
  2.67748    -50.3 2.161e+04 1.560e-08
  2.68300    -51.0 2.223e+04 1.818e-08
  2.69309    -51.8 2.246e+04 2.238e-08
  2.70317    -51.8 2.277e+04 2.439e-08
  2.71067    -52.0 2.328e+04 2.289e-08
  2.72080    -52.5 2.340e+04 8.658e-09
  2.73856    -54.0 2.242e+04 7.224e-09
  2.75247    -55.9 2.083e+04 5.972e-09
  2.76255    -56.7 2.133e+04 1.121e-08
  2.77380    -57.4 2.128e+04 1.081e-08
  2.78383    -58.7 2.140e+04 1.149e-08
  2.79234    -59.8 2.148e+04 1.177e-08
  2.79738    -60.8 2.234e+04 1.628e-08
  2.80400    -62.0 2.274e+04 1.907e-08
  2.81408    -63.6 2.305e+04 2.305e-08
  2.82416    -65.4 2.343e+04 2.787e-08
  2.83231    -67.9 2.378e+04 3.325e-08
  2.83735    -69.3 2.389e+04 3.705e-08
  2.84433    -72.3 2.378e+04 3.885e-08
  2.85441    -75.2 2.321e+04 4.130e-08
  2.86449    -77.7 2.226e+04 3.770e-08
  2.87227    -79.8 2.107e+04 2.881e-08
  2.87731    -81.2 2.016e+04 1.777e-08
  2.88466    -83.1 1.924e+04 1.212e-08
  2.89474    -85.3 1.797e+04 7.452e-09
  2.90482    -86.4 1.715e+04 5.311e-09
  2.91224    -88.1 1.573e+04 3.601e-09
  2.92237    -89.0 1.489e+04 2.874e-09
  2.94021    -90.9 1.320e+04 1.628e-09
  2.96038    -91.9 1.247e+04 1.083e-09
  2.98054    -92.2 1.202e+04 8.377e-10
  2.99227    -92.3 1.152e+04 6.994e-10
  3.00236    -92.4 1.123e+04 6.121e-10
  3.02087    -92.0 1.086e+04 5.293e-10
  3.04104    -91.3 1.063e+04 4.751e-10
  3.06120    -90.4 1.042e+04 4.224e-10
  3.07221    -89.4 1.026e+04 3.683e-10
  3.08229    -89.4 1.016e+04 3.202e-10
  3.10153    -89.2 1.014e+04 3.128e-10
  3.13188    -87.9 1.012e+04 2.976e-10
  3.17231    -87.2 1.013e+04 2.748e-10
  3.20246    -86.2 1.013e+04 2.738e-10
  3.22200    -85.7 1.008e+04 2.732e-10
  3.23208    -86.2 1.009e+04 2.717e-10
  3.24269    -85.8 1.004e+04 2.656e-10
  3.26286    -86.0 1.063e+04 3.519e-10
  3.28302    -86.6 1.143e+04 5.139e-10
  3.29603    -87.4 1.222e+04 8.498e-10
  3.30485    -89.2 1.257e+04 1.245e-09
  3.31201    -89.7 1.250e+04 1.258e-09
  3.32335    -89.7 1.303e+04 1.977e-09
  3.34352    -89.4 1.361e+04 2.892e-09
  3.36369    -89.1 1.445e+04 3.937e-09
  3.38187    -89.8 1.597e+04 5.274e-09
  3.39195    -90.5 1.554e+04 4.504e-09
  3.40402    -94.2 1.795e+04 6.663e-09
  3.42418   -100.3 1.955e+04 1.080e-08
  3.43926   -104.5 2.028e+04 1.636e-08
  3.44929   -107.3 2.121e+04 2.125e-08
  3.45937   -110.4 2.252e+04 2.993e-08
  3.46674   -113.4 2.353e+04 3.764e-08
  3.47179   -113.4 2.377e+04 4.065e-08
  3.47954   -116.0 2.405e+04 4.412e-08
  3.48962   -118.3 2.368e+04 4.248e-08
  3.49971   -120.0 2.261e+04 3.118e-08
  3.50671   -121.7 2.111e+04 2.053e-08
  3.51175   -121.5 2.113e+04 2.063e-08
  3.52496   -123.0 1.981e+04 1.360e-08
  3.54174   -125.4 1.860e+04 6.086e-09
  3.55182   -124.8 1.859e+04 5.708e-09
  3.56534   -129.1 1.646e+04 1.742e-09
  3.58551   -133.7 1.265e+04 7.511e-10
  3.60567   -134.7 1.132e+04 5.797e-10
  3.62167   -134.3 1.113e+04 5.354e-10
  3.63175   -133.8 1.094e+04 4.684e-10
  3.64600   -133.0 1.087e+04 4.311e-10
  3.66617   -132.4 1.073e+04 3.933e-10
  3.68633   -131.6 1.060e+04 3.638e-10
  3.70161   -130.8 1.054e+04 3.477e-10
  3.71169   -130.5 1.048e+04 3.254e-10
  3.73684   -129.8 1.050e+04 3.270e-10
  3.77165   -128.4 1.045e+04 3.225e-10
  3.79182   -128.3 1.043e+04 3.164e-10
  3.81760   -126.8 1.044e+04 3.181e-10
  3.84776   -125.9 1.067e+04 3.375e-10
  3.86148   -125.2 1.090e+04 3.684e-10
  3.87156   -125.0 1.090e+04 3.682e-10
  3.88129   -124.3 1.127e+04 4.214e-10
  3.90155   -124.7 1.192e+04 6.790e-10
  3.93152   -123.9 1.220e+04 8.754e-10
  3.95169   -123.8 1.252e+04 1.009e-09
  3.97893   -123.3 1.289e+04 1.400e-09
  4.00908   -122.6 1.309e+04 1.564e-09
  4.02135   -122.2 1.350e+04 1.967e-09
  4.03143   -121.8 1.362e+04 1.995e-09
  4.04931   -121.6 1.406e+04 2.473e-09
  4.06948   -121.2 1.446e+04 3.079e-09
  4.08964   -120.6 1.476e+04 3.652e-09
  4.10128   -119.9 1.493e+04 4.044e-09
  4.11136   -120.1 1.496e+04 4.025e-09
  4.12997   -119.6 1.498e+04 4.169e-09
  4.15014   -119.2 1.486e+04 4.077e-09
  4.17031   -118.9 1.458e+04 3.723e-09
  4.18122   -118.8 1.441e+04 3.309e-09
  4.19130   -119.2 1.485e+04 4.189e-09
  4.21064   -118.9 1.476e+04 3.876e-09
  4.23080   -118.5 1.473e+04 3.468e-09
  4.25097   -118.2 1.471e+04 2.955e-09
  4.26115   -118.1 1.464e+04 2.431e-09
  4.27123   -118.2 1.518e+04 3.592e-09
  4.29130   -118.2 1.493e+04 2.906e-09
  4.31146   -118.4 1.456e+04 2.404e-09
  4.33100   -118.7 1.407e+04 2.083e-09
  4.34109   -118.5 1.471e+04 2.889e-09
  4.35179   -118.6 1.424e+04 2.539e-09
  4.37196   -118.6 1.388e+04 2.348e-09
  4.39213   -118.1 1.353e+04 2.183e-09
  4.41094   -117.5 1.322e+04 2.007e-09
  4.42102   -117.6 1.368e+04 2.502e-09
  4.43246   -117.0 1.329e+04 2.295e-09
  4.45262   -116.2 1.286e+04 2.079e-09
  4.46655   -115.5 1.253e+04 1.865e-09
  4.47663   -115.7 1.221e+04 1.442e-09
  4.49087   -114.8 1.226e+04 1.555e-09
  4.50096   -114.7 1.251e+04 1.721e-09
  4.51312   -114.0 1.239e+04 1.687e-09
  4.53328   -113.2 1.234e+04 1.731e-09
  4.55345   -112.3 1.227e+04 1.616e-09
  4.57081   -111.6 1.227e+04 1.556e-09
  4.58089   -111.6 1.251e+04 1.753e-09
  4.59378   -111.0 1.245e+04 1.666e-09
  4.61395   -110.1 1.238e+04 1.567e-09
  4.63411   -109.2 1.230e+04 1.471e-09
  4.65074   -108.2 1.223e+04 1.382e-09
  4.66083   -108.2 1.244e+04 1.540e-09
  4.67444   -107.5 1.235e+04 1.417e-09
  4.69461   -106.8 1.230e+04 1.333e-09
  4.71477   -106.1 1.224e+04 1.280e-09
  4.73068   -105.4 1.214e+04 1.238e-09
  4.74076   -105.5 1.239e+04 1.384e-09
  4.75510   -104.9 1.225e+04 1.332e-09
  4.77527   -104.2 1.216e+04 1.286e-09
  4.79544   -103.4 1.215e+04 1.238e-09
  4.82578   -103.0 1.239e+04 1.286e-09
  4.86621   -102.0 1.255e+04 1.332e-09
  4.89075   -100.4 1.243e+04 1.221e-09
  4.91091   -100.8 1.316e+04 1.628e-09
  4.94687    -99.3 1.266e+04 1.181e-09
  4.98720    -97.8 1.188e+04 8.439e-10
  5.02753    -96.0 1.087e+04 5.706e-10
  5.05062    -94.1 1.022e+04 4.274e-10
  5.05492    -94.2 1.027e+04 4.246e-10
  5.07217    -94.3 9.874e+03 4.021e-10
  5.10820    -91.9 9.554e+03 3.121e-10
  5.14853    -89.6 9.342e+03 2.554e-10
  5.18886    -87.1 9.157e+03 2.145e-10
  5.21049    -84.7 8.997e+03 1.798e-10
  5.23065    -84.3 8.983e+03 1.812e-10
  5.26952    -81.8 8.838e+03 1.513e-10
  5.30985    -79.4 8.730e+03 1.264e-10
  5.35018    -77.3 8.686e+03 1.117e-10
  5.39051    -74.7 8.812e+03 1.264e-10
  5.43084    -72.8 8.858e+03 1.512e-10
  5.47117    -70.2 8.855e+03 1.729e-10
  5.51006    -67.6 8.639e+03 1.786e-10
  5.53023    -66.7 8.785e+03 1.928e-10
  5.55184    -63.9 8.674e+03 1.719e-10
  5.59217    -61.3 8.646e+03 1.465e-10
  5.63250    -59.1 8.751e+03 1.252e-10
  5.66993    -57.2 8.960e+03 1.286e-10
  5.69010    -56.7 9.311e+03 1.602e-10
  5.71316    -55.3 9.853e+03 2.065e-10
  5.75349    -53.8 1.028e+04 3.271e-10
  5.79382    -52.1 1.073e+04 5.451e-10
  5.82980    -50.3 1.129e+04 8.393e-10
  5.84997    -50.1 1.199e+04 1.144e-09
  5.87448    -48.3 1.269e+04 1.547e-09
  5.91482    -46.8 1.292e+04 1.573e-09
  5.95515    -45.7 1.275e+04 1.416e-09
  5.98967    -45.3 1.214e+04 1.196e-09
  6.00984    -45.0 1.249e+04 1.488e-09
  6.03581    -44.4 1.195e+04 1.300e-09
  6.07614    -43.9 1.149e+04 1.101e-09
  6.11647    -43.6 1.098e+04 8.588e-10
  6.14954    -43.7 1.072e+04 7.482e-10
  6.16971    -43.9 1.111e+04 8.877e-10
  6.18695    -46.2 1.176e+04 1.060e-09
  6.20702    -48.1 1.222e+04 1.367e-09
  6.22232    -48.3 1.248e+04 1.738e-09
  6.23241    -49.3 1.250e+04 2.020e-09
  6.23936    -49.1 1.274e+04 2.321e-09
  6.24945    -49.9 1.328e+04 2.722e-09
  6.26752    -50.4 1.386e+04 2.923e-09
  6.28768    -51.3 1.425e+04 3.006e-09
  6.30785    -52.3 1.431e+04 2.904e-09
  6.31930    -53.4 1.429e+04 2.883e-09
  6.32938    -55.9 1.455e+04 3.044e-09
  6.34818    -62.3 1.799e+04 3.528e-09
  6.36834    -71.8 2.272e+04 7.263e-09
  6.38342    -77.6 2.284e+04 1.897e-08
  6.39345    -79.0 2.254e+04 2.926e-08
  6.39914    -80.1 2.215e+04 3.624e-08
  6.40418    -81.3 2.227e+04 3.910e-08
  6.41362    -82.5 2.168e+04 3.821e-08
  6.42370    -83.8 2.191e+04 3.149e-08
  6.43378    -87.9 2.342e+04 2.065e-08
  6.43910    -99.1 2.376e+04 9.558e-09
  6.44415   -108.0 2.137e+04 5.155e-09
  6.45395   -122.2 1.782e+04 3.593e-09
  6.46403   -129.0 1.730e+04 4.206e-09
  6.47403   -132.8 1.738e+04 5.855e-09
  6.47907   -134.3 1.710e+04 5.903e-09
  6.48420   -136.9 1.714e+04 7.957e-09
  6.49428   -138.7 1.744e+04 1.012e-08
  6.50436   -140.1 1.785e+04 1.160e-08
  6.51400   -141.3 1.822e+04 1.191e-08
  6.51904   -141.5 1.801e+04 1.125e-08
  6.51990   -143.0 1.831e+04 1.094e-08
  6.52494   -142.7 1.814e+04 1.130e-08
  6.53461   -144.7 1.911e+04 8.568e-09
  6.54469   -148.6 1.841e+04 5.646e-09
  6.55396   -153.2 1.681e+04 4.017e-09
  6.55901   -152.8 1.674e+04 3.853e-09
  6.56995   -157.5 1.536e+04 2.878e-09
  6.59016   -163.6 1.364e+04 2.013e-09
  6.61033   -165.8 1.335e+04 1.774e-09
  6.62896   -167.4 1.338e+04 1.693e-09
  6.63904   -166.9 1.242e+04 1.326e-09
  6.65066   -168.2 1.239e+04 1.259e-09
  6.67083   -169.4 1.238e+04 1.200e-09
  6.69099   -170.5 1.242e+04 1.164e-09
  6.70889   -171.6 1.249e+04 1.175e-09
  6.71897   -170.9 1.171e+04 9.106e-10
  6.73132   -171.8 1.176e+04 9.275e-10
  6.75149   -172.5 1.172e+04 9.964e-10
  6.77165   -173.0 1.174e+04 1.135e-09
  6.78883   -173.6 1.223e+04 1.395e-09
  6.79891   -173.3 1.158e+04 1.084e-09
  6.80758   -174.2 1.268e+04 1.457e-09
  6.81767   -177.3 1.499e+04 2.714e-09
  6.83215   -178.8 1.600e+04 3.934e-09
  6.85232   -179.7 1.640e+04 4.942e-09
  6.86739   -180.1 1.643e+04 5.296e-09
  6.87371   -180.2 1.654e+04 5.382e-09
  6.87880   -180.4 1.636e+04 5.116e-09
  6.88756   -180.7 1.665e+04 5.279e-09
  6.89759   -181.1 1.694e+04 5.259e-09
  6.90767   -182.0 1.739e+04 5.152e-09
  6.91367   -182.8 1.794e+04 4.960e-09
  6.91871   -182.5 1.771e+04 4.784e-09
  6.92784   -184.5 1.881e+04 4.206e-09
  6.93792   -185.4 1.934e+04 4.046e-09
  6.94800   -188.5 2.001e+04 3.551e-09
  6.95364   -189.8 2.024e+04 3.524e-09
  6.95873   -188.9 1.990e+04 3.172e-09
  6.97331   -192.9 1.906e+04 3.023e-09
  6.98838   -195.3 1.824e+04 3.199e-09
  6.99361   -196.0 1.757e+04 3.838e-09
  6.99865   -195.1 1.761e+04 3.136e-09
  7.00850   -196.1 1.641e+04 4.195e-09
  7.01858   -196.4 1.659e+04 4.816e-09
  7.02858   -196.7 1.668e+04 7.091e-09
  7.03871   -195.5 1.595e+04 4.972e-09
  7.05397   -195.0 1.629e+04 6.955e-09
  7.07414   -193.9 1.665e+04 8.167e-09
  7.09430   -193.0 1.665e+04 7.522e-09
  7.10857   -192.5 1.642e+04 6.262e-09
  7.11865   -191.1 1.631e+04 6.758e-09
  7.13463   -190.6 1.600e+04 5.343e-09
  7.15480   -190.3 1.530e+04 3.484e-09
  7.17496   -190.6 1.413e+04 1.987e-09
  7.18850   -191.1 1.262e+04 1.137e-09
  7.19858   -189.0 1.328e+04 1.515e-09
  7.21529   -189.5 1.189e+04 9.137e-10
  7.23546   -189.6 1.079e+04 6.498e-10
  7.25562   -188.9 1.023e+04 5.445e-10
  7.26844   -187.5 1.013e+04 4.981e-10
  7.27852   -186.7 1.012e+04 4.987e-10
  7.29596   -185.2 1.008e+04 4.670e-10
  7.32630   -183.1 1.006e+04 4.478e-10
  7.36673   -180.5 9.913e+03 4.103e-10
  7.39304   -177.7 9.675e+03 3.605e-10
  7.41320   -177.8 9.597e+03 3.382e-10
  7.42850   -175.1 9.375e+03 2.978e-10
  7.44867   -173.6 9.568e+03 3.358e-10
  7.48772   -170.8 9.356e+03 2.987e-10
  7.52805   -168.1 9.161e+03 2.648e-10
  7.56821   -165.4 9.029e+03 2.425e-10
  7.60854   -161.4 9.132e+03 2.622e-10
  7.64905   -158.6 9.121e+03 2.607e-10
  7.68938   -155.9 9.172e+03 2.668e-10
  7.72808   -153.3 9.281e+03 2.883e-10
  7.74824   -152.3 9.326e+03 3.004e-10
  7.77004   -149.8 9.426e+03 3.297e-10
  7.81037   -147.3 9.526e+03 3.598e-10
  7.85070   -144.8 9.651e+03 3.877e-10
  7.88795   -142.3 9.768e+03 4.127e-10
  7.90811   -141.3 9.625e+03 3.788e-10
  7.93136   -138.6 9.701e+03 3.789e-10
  7.97170   -135.8 9.830e+03 3.856e-10
  8.01203   -133.1 9.903e+03 3.854e-10
  8.04218   -130.5 1.001e+04 3.897e-10
  8.05771   -130.3 1.010e+04 4.175e-10
  8.06789   -129.7 9.907e+03 3.517e-10
  8.09269   -127.5 1.013e+04 4.098e-10
  8.13302   -125.6 1.044e+04 5.397e-10
  8.17335   -123.7 1.072e+04 7.017e-10
  8.20769   -121.9 1.089e+04 8.100e-10
  8.22785   -120.3 1.075e+04 7.067e-10
  8.25401   -118.7 1.087e+04 7.779e-10
  8.29434   -117.3 1.078e+04 7.183e-10
  8.33467   -115.9 1.045e+04 5.523e-10
  8.36756   -114.7 9.980e+03 3.978e-10
  8.38772   -113.0 1.037e+04 5.032e-10
  8.41534   -111.9 9.980e+03 3.893e-10
  8.45567   -110.6 9.655e+03 3.247e-10
  8.49600   -109.1 9.441e+03 2.896e-10
  8.52743   -107.3 9.293e+03 2.619e-10
  8.54759   -106.2 9.720e+03 3.315e-10
  8.56356   -104.4 9.580e+03 3.016e-10
  8.58372   -104.0 9.999e+03 4.352e-10
  8.61699   -102.0 9.941e+03 4.144e-10
  8.65732   -100.1 9.941e+03 4.032e-10
  8.68730    -98.1 9.960e+03 3.863e-10
  8.70746    -97.5 1.019e+04 4.952e-10
  8.73798    -95.4 1.015e+04 4.561e-10
  8.77831    -93.5 1.006e+04 3.856e-10
  8.81865    -91.5 9.880e+03 3.072e-10
  8.84717    -89.5 9.610e+03 2.433e-10
  8.86733    -88.4 9.688e+03 2.794e-10
  8.89931    -86.1 9.439e+03 2.172e-10
  8.93964    -83.7 9.268e+03 1.768e-10
  8.97997    -81.3 9.213e+03 1.539e-10
  9.00704    -79.1 9.163e+03 1.483e-10
  9.02720    -77.8 9.239e+03 1.500e-10
  9.06063    -75.6 9.233e+03 1.606e-10
  9.10096    -73.5 9.262e+03 1.864e-10
  9.14129    -71.1 9.332e+03 2.164e-10
  9.16691    -68.6 9.468e+03 2.442e-10
  9.18707    -67.7 9.564e+03 2.655e-10
  9.22196    -64.9 9.737e+03 2.870e-10
  9.26229    -62.6 9.902e+03 2.730e-10
  9.30262    -60.5 9.936e+03 2.559e-10
  9.32678    -58.2 9.959e+03 2.550e-10
  9.34694    -57.2 1.002e+04 2.614e-10
  9.38328    -55.0 1.009e+04 2.960e-10
  9.42361    -52.7 1.033e+04 3.662e-10
  9.46394    -50.6 1.070e+04 4.820e-10
  9.48665    -48.6 1.118e+04 6.826e-10
