# Columns:
#   distance along LOS (in CHIMPs)
#   peculiar velocity  (in km/s)
#   temperature (K)
#   HI number density
# pos=(225.831,236.06,26.5815), angles=(0.20831,6.00926)
  0.00357   -127.8 1.280e+04 1.121e-09
  0.01712   -126.9 1.283e+04 1.166e-09
  0.03097   -126.1 1.284e+04 1.198e-09
  0.04095   -126.1 1.252e+04 1.060e-09
  0.05705   -125.3 1.251e+04 1.091e-09
  0.07701   -124.4 1.249e+04 1.111e-09
  0.09698   -123.4 1.248e+04 1.117e-09
  0.11694   -122.4 1.244e+04 1.107e-09
  0.12992   -121.3 1.239e+04 1.080e-09
  0.14000   -121.7 1.236e+04 8.384e-10
  0.15790   -119.3 1.218e+04 8.207e-10
  0.17787   -119.3 1.206e+04 6.644e-10
  0.20697   -117.1 1.194e+04 6.402e-10
  0.24689   -114.8 1.186e+04 6.101e-10
  0.28682   -112.6 1.178e+04 5.782e-10
  0.31805   -110.3 1.174e+04 5.624e-10
  0.33801   -109.5 1.175e+04 5.478e-10
  0.36667   -107.3 1.178e+04 5.674e-10
  0.40659   -105.2 1.182e+04 5.920e-10
  0.44652   -103.2 1.190e+04 6.309e-10
  0.48645   -101.3 1.204e+04 6.927e-10
  0.51596    -99.5 1.218e+04 7.709e-10
  0.53593    -99.1 1.222e+04 8.458e-10
  0.55622    -98.2 1.221e+04 8.635e-10
  0.57608    -97.7 1.218e+04 8.666e-10
  0.59605    -97.0 1.216e+04 8.974e-10
  0.61473    -96.3 1.220e+04 9.358e-10
  0.62471    -96.1 1.224e+04 1.032e-09
  0.63597    -95.5 1.229e+04 1.091e-09
  0.65593    -95.0 1.231e+04 1.150e-09
  0.67590    -94.6 1.230e+04 1.198e-09
  0.69586    -94.2 1.227e+04 1.222e-09
  0.71368    -93.8 1.225e+04 1.223e-09
  0.72366    -93.6 1.249e+04 1.490e-09
  0.73579    -93.2 1.244e+04 1.488e-09
  0.75575    -92.8 1.216e+04 1.474e-09
  0.77571    -92.3 1.194e+04 1.377e-09
  0.79567    -91.8 1.175e+04 1.234e-09
  0.81264    -91.3 1.158e+04 1.071e-09
  0.82262    -91.0 1.173e+04 1.248e-09
  0.83560    -90.5 1.151e+04 1.050e-09
  0.85556    -90.0 1.129e+04 8.648e-10
  0.86615    -89.5 1.111e+04 7.070e-10
  0.88621    -89.7 1.085e+04 5.217e-10
  0.91179    -88.8 1.062e+04 3.773e-10
  0.93175    -87.9 1.068e+04 4.617e-10
  0.96555    -86.5 1.035e+04 3.069e-10
  1.00548    -85.1 1.026e+04 2.444e-10
  1.04540    -83.9 1.029e+04 2.380e-10
  1.08533    -82.8 1.048e+04 2.861e-10
  1.10971    -81.8 1.059e+04 3.988e-10
  1.12967    -80.4 1.064e+04 3.430e-10
  1.16518    -79.3 1.075e+04 4.723e-10
  1.20511    -78.0 1.080e+04 5.955e-10
  1.24503    -76.6 1.078e+04 6.540e-10
  1.27488    -75.4 1.079e+04 6.774e-10
  1.29474    -74.8 1.076e+04 6.750e-10
  1.30752    -73.9 1.063e+04 6.476e-10
  1.32758    -72.9 1.056e+04 5.657e-10
  1.36481    -71.3 1.043e+04 5.569e-10
  1.40474    -69.5 1.039e+04 5.092e-10
  1.44466    -67.7 1.031e+04 4.425e-10
  1.48459    -66.0 1.020e+04 3.690e-10
  1.50553    -64.4 1.006e+04 3.072e-10
  1.52550    -63.6 1.009e+04 3.094e-10
  1.55483    -62.2 1.001e+04 2.778e-10
  1.57480    -63.2 1.005e+04 2.645e-10
  1.60436    -62.1 1.004e+04 2.594e-10
  1.64429    -61.1 1.010e+04 2.768e-10
  1.68348    -60.3 1.023e+04 3.128e-10
  1.70345    -59.6 1.033e+04 3.286e-10
  1.72414    -58.9 1.036e+04 3.360e-10
  1.76407    -58.2 1.025e+04 3.201e-10
  1.80399    -57.7 1.008e+04 2.704e-10
  1.84392    -57.2 9.872e+03 2.213e-10
  1.88140    -56.5 9.676e+03 1.778e-10
  1.90136    -55.8 9.676e+03 1.813e-10
  1.92377    -54.9 9.490e+03 1.476e-10
  1.96369    -53.6 9.333e+03 1.247e-10
  2.00362    -52.0 9.217e+03 1.103e-10
  2.04355    -50.2 9.133e+03 9.614e-11
  2.07931    -48.4 9.049e+03 8.197e-11
  2.09927    -47.7 9.100e+03 7.567e-11
  2.12340    -45.9 9.023e+03 6.092e-11
  2.16332    -44.1 8.954e+03 4.896e-11
  2.20325    -42.2 8.875e+03 4.088e-11
  2.24317    -40.4 8.800e+03 3.593e-11
  2.27722    -39.2 8.718e+03 3.382e-11
  2.29719    -38.5 8.785e+03 3.796e-11
  2.32302    -36.5 8.783e+03 3.800e-11
  2.36295    -34.6 8.749e+03 4.114e-11
  2.40288    -32.7 8.691e+03 4.718e-11
  2.44280    -30.6 8.667e+03 5.428e-11
  2.47514    -28.5 8.706e+03 5.994e-11
  2.49510    -27.8 8.846e+03 6.822e-11
  2.52265    -25.8 8.858e+03 7.197e-11
  2.56258    -23.9 8.875e+03 7.212e-11
  2.60250    -22.1 8.910e+03 7.008e-11
  2.64243    -20.5 8.939e+03 6.881e-11
  2.67305    -18.9 8.998e+03 6.995e-11
  2.69301    -18.3 9.010e+03 7.858e-11
  2.72228    -16.7 9.025e+03 7.982e-11
  2.76221    -15.1 9.061e+03 7.905e-11
  2.80213    -13.5 9.100e+03 7.626e-11
  2.84206    -12.1 9.103e+03 7.260e-11
  2.87096    -10.9 9.091e+03 6.948e-11
  2.89093    -10.3 9.104e+03 7.023e-11
  2.92191     -8.9 9.083e+03 6.832e-11
  2.95176     -7.5 9.065e+03 6.713e-11
  2.97173     -8.1 9.115e+03 7.722e-11
  3.00176     -6.6 9.131e+03 7.747e-11
  3.04169     -5.2 9.219e+03 7.792e-11
  3.06888     -4.2 9.376e+03 8.678e-11
  3.08884     -3.6 9.372e+03 8.320e-11
  3.12154     -2.5 9.421e+03 1.001e-10
  3.16146     -1.4 9.547e+03 1.319e-10
  3.20139     -0.6 9.812e+03 1.791e-10
  3.24131     -0.4 1.003e+04 2.646e-10
  3.26679     -0.0 1.028e+04 4.133e-10
  3.28675      0.2 1.016e+04 3.696e-10
  3.32117      1.3 1.055e+04 4.669e-10
  3.36109      1.3 1.071e+04 4.413e-10
  3.40102      0.7 1.073e+04 3.399e-10
  3.44094     -0.6 1.068e+04 2.970e-10
  3.46471     -1.5 1.062e+04 3.433e-10
  3.48467     -1.0 1.052e+04 3.326e-10
  3.52079     -0.6 1.068e+04 4.444e-10
  3.56072      0.1 1.087e+04 4.869e-10
  3.60064      0.7 1.074e+04 4.158e-10
  3.64025      1.6 1.054e+04 2.633e-10
  3.66021      1.0 1.052e+04 2.550e-10
  3.66262      2.0 1.032e+04 1.635e-10
  3.68258      2.5 1.029e+04 1.565e-10
  3.72042      3.9 1.019e+04 1.096e-10
  3.76035      5.4 1.018e+04 7.928e-11
  3.80027      6.7 1.029e+04 5.953e-11
  3.84020      7.6 1.034e+04 5.529e-11
  3.86053      8.3 1.039e+04 6.584e-11
  3.88050      9.1 1.044e+04 5.666e-11
  3.92005      9.8 1.028e+04 8.799e-11
  3.95998     11.4 1.026e+04 1.344e-10
  3.99990     13.4 1.034e+04 1.718e-10
  4.03848     15.0 1.038e+04 1.746e-10
  4.05845     15.8 1.044e+04 1.603e-10
  4.07975     17.5 1.060e+04 1.230e-10
  4.11968     18.9 1.053e+04 9.522e-11
  4.15960     20.3 1.062e+04 6.819e-11
  4.19953     21.5 1.059e+04 5.465e-11
  4.23640     23.1 1.053e+04 4.871e-11
  4.25636     23.8 1.054e+04 5.767e-11
  4.27938     25.6 1.059e+04 5.371e-11
  4.31931     27.4 1.079e+04 4.817e-11
  4.34869     29.1 1.098e+04 4.635e-11
  4.36866     29.1 1.063e+04 4.391e-11
  4.39916     30.1 1.078e+04 5.098e-11
  4.43431     30.4 1.105e+04 8.209e-11
  4.45427     30.9 1.114e+04 9.469e-11
  4.47901     31.5 1.112e+04 2.036e-10
  4.51893     32.7 1.124e+04 4.036e-10
  4.55886     33.7 1.159e+04 5.510e-10
  4.59879     34.2 1.174e+04 5.689e-10
  4.63222     34.5 1.171e+04 5.155e-10
  4.65219     34.9 1.163e+04 4.446e-10
  4.67864     35.1 1.146e+04 3.937e-10
  4.71856     35.6 1.139e+04 3.867e-10
  4.75849     36.0 1.144e+04 4.311e-10
  4.79841     36.5 1.153e+04 5.632e-10
  4.83014     37.3 1.168e+04 6.445e-10
  4.85010     37.7 1.185e+04 7.615e-10
  4.87826     38.3 1.185e+04 7.740e-10
  4.91819     39.4 1.163e+04 6.476e-10
  4.95812     40.5 1.134e+04 4.188e-10
  4.99804     41.5 1.111e+04 2.493e-10
  5.02805     42.2 1.105e+04 1.540e-10
  5.04723     42.6 1.105e+04 1.378e-10
  5.05714     41.9 1.093e+04 1.367e-10
  5.07789     42.9 1.086e+04 1.054e-10
  5.11782     44.3 1.074e+04 9.892e-11
  5.15774     45.8 1.067e+04 9.855e-11
  5.19767     47.4 1.061e+04 9.584e-11
  5.22597     48.9 1.059e+04 8.719e-11
  5.24593     49.2 1.052e+04 7.639e-11
  5.27752     50.6 1.048e+04 6.799e-11
  5.31745     51.7 1.046e+04 6.144e-11
  5.35737     52.8 1.035e+04 6.068e-11
  5.39730     53.9 1.024e+04 6.273e-11
  5.42388     55.2 1.019e+04 6.453e-11
  5.44384     55.8 1.000e+04 5.693e-11
  5.47715     57.0 9.960e+03 6.002e-11
  5.51707     58.1 9.934e+03 6.524e-11
  5.55700     59.3 9.946e+03 7.052e-11
  5.59693     60.5 1.001e+04 7.444e-11
  5.62179     61.3 1.022e+04 7.963e-11
  5.64176     62.3 9.933e+03 7.477e-11
  5.67678     62.3 1.015e+04 7.982e-11
  5.71670     62.0 1.049e+04 1.062e-10
  5.74563     61.5 1.068e+04 2.031e-10
  5.76559     61.9 1.047e+04 1.447e-10
  5.79655     61.4 1.087e+04 2.673e-10
  5.81971     60.7 1.125e+04 4.754e-10
  5.83967     62.7 1.106e+04 4.058e-10
  5.87641     62.2 1.136e+04 6.209e-10
  5.91633     61.8 1.157e+04 6.886e-10
  5.94618     61.1 1.170e+04 6.581e-10
  5.96604     60.7 1.169e+04 5.766e-10
  5.98601     59.8 1.187e+04 5.450e-10
  6.00597     59.2 1.181e+04 5.348e-10
  6.01742     58.0 1.191e+04 5.861e-10
  6.02741     58.8 1.205e+04 6.507e-10
  6.04589     58.0 1.200e+04 7.313e-10
  6.06586     57.3 1.203e+04 8.836e-10
  6.08582     57.3 1.199e+04 1.025e-09
  6.09965     57.1 1.199e+04 1.025e-09
  6.10963     57.3 1.204e+04 1.024e-09
  6.11638     57.2 1.202e+04 1.012e-09
  6.12636     57.7 1.209e+04 1.078e-09
  6.15579     57.5 1.169e+04 9.014e-10
  6.19557     57.6 1.115e+04 6.025e-10
  6.21553     58.1 1.115e+04 5.972e-10
  6.23574     58.3 1.066e+04 3.760e-10
  6.27566     58.7 1.032e+04 2.575e-10
  6.31559     59.4 1.014e+04 2.104e-10
  6.35551     60.5 1.005e+04 1.998e-10
  6.39348     61.9 1.000e+04 2.000e-10
  6.41345     62.5 9.981e+03 2.031e-10
  6.43411     64.0 9.938e+03 1.996e-10
  6.45407     64.2 1.001e+04 2.382e-10
  6.47529     65.8 9.900e+03 2.098e-10
  6.51522     67.7 9.782e+03 1.657e-10
  6.55514     69.4 9.721e+03 1.201e-10
  6.59140     70.9 9.679e+03 8.731e-11
  6.61136     71.5 9.662e+03 8.820e-11
  6.63499     73.2 9.594e+03 7.912e-11
  6.67492     74.9 9.604e+03 8.087e-11
  6.71484     76.5 9.662e+03 8.967e-11
  6.75477     78.0 9.827e+03 1.234e-10
  6.78931     79.7 9.971e+03 1.756e-10
  6.80927     80.5 9.855e+03 1.517e-10
  6.83462     82.2 9.956e+03 1.831e-10
  6.87455     84.0 9.999e+03 1.818e-10
  6.91447     85.8 9.955e+03 1.685e-10
  6.95440     87.8 9.860e+03 1.349e-10
  6.98722     89.8 9.809e+03 9.704e-11
  7.00719     90.4 9.789e+03 9.745e-11
  7.03425     92.3 9.855e+03 6.590e-11
  7.07417     94.1 9.936e+03 4.568e-11
  7.11410     95.8 9.752e+03 3.818e-11
  7.14256     97.9 9.623e+03 3.795e-11
  7.16252     98.1 9.589e+03 3.979e-11
  7.18514    100.3 9.575e+03 3.997e-11
  7.20510    100.9 9.571e+03 4.018e-11
  7.23388    103.3 9.552e+03 4.177e-11
  7.27380    105.6 9.550e+03 4.674e-11
  7.31373    107.7 9.595e+03 5.566e-11
  7.35365    109.8 9.643e+03 7.122e-11
  7.38305    111.9 9.695e+03 9.920e-11
  7.40301    112.6 9.676e+03 9.844e-11
  7.43350    114.8 9.836e+03 1.488e-10
  7.47343    116.8 1.021e+04 2.352e-10
  7.51336    118.2 1.056e+04 3.315e-10
  7.55328    119.0 1.096e+04 4.580e-10
  7.58087    119.0 1.103e+04 4.761e-10
  7.59075    119.4 1.098e+04 4.673e-10
  7.60299    119.3 1.112e+04 5.191e-10
  7.62296    119.2 1.128e+04 5.860e-10
  7.64292    119.1 1.137e+04 6.236e-10
  7.66288    119.0 1.138e+04 6.245e-10
  7.67973    118.8 1.139e+04 6.086e-10
  7.68971    119.1 1.143e+04 6.281e-10
  7.70281    118.9 1.146e+04 6.253e-10
  7.72277    118.5 1.154e+04 6.361e-10
  7.74273    117.9 1.171e+04 6.911e-10
  7.76270    117.5 1.183e+04 8.206e-10
  7.77868    117.5 1.199e+04 1.061e-09
  7.78867    117.8 1.209e+04 1.118e-09
  7.80262    118.0 1.216e+04 1.272e-09
  7.83094    118.2 1.234e+04 1.442e-09
  7.85091    118.9 1.226e+04 1.398e-09
  7.87259    119.4 1.260e+04 1.735e-09
  7.91261    118.9 1.283e+04 1.965e-09
  7.95254    118.6 1.269e+04 1.826e-09
  7.97679    119.0 1.221e+04 1.329e-09
  7.99676    119.6 1.203e+04 1.096e-09
  8.03239    120.4 1.144e+04 6.623e-10
  8.07231    121.5 1.092e+04 3.700e-10
  8.11224    122.7 1.059e+04 2.282e-10
  8.15217    124.1 1.040e+04 1.750e-10
  8.17471    125.9 1.031e+04 1.560e-10
  8.19467    126.8 1.036e+04 1.687e-10
  8.23202    128.8 1.030e+04 1.539e-10
  8.27194    131.0 1.025e+04 1.417e-10
  8.31187    133.3 1.023e+04 1.317e-10
  8.35179    135.7 1.023e+04 1.233e-10
  8.37262    138.0 1.023e+04 1.243e-10
  8.39258    138.6 1.025e+04 1.165e-10
  8.43164    140.9 1.027e+04 1.173e-10
  8.47157    143.1 1.032e+04 1.245e-10
  8.51150    145.2 1.038e+04 1.460e-10
  8.53949    147.3 1.047e+04 1.863e-10
  8.55860    147.0 1.042e+04 1.887e-10
  8.57053    147.4 1.032e+04 1.646e-10
  8.59135    149.4 1.041e+04 2.206e-10
  8.63127    151.3 1.056e+04 2.870e-10
  8.67120    153.1 1.068e+04 3.527e-10
  8.71112    154.8 1.080e+04 4.110e-10
  8.74848    156.4 1.092e+04 4.735e-10
  8.76845    156.8 1.059e+04 3.478e-10
  8.79098    158.1 1.075e+04 4.081e-10
  8.83090    159.0 1.100e+04 5.300e-10
  8.87083    159.7 1.136e+04 7.522e-10
  8.91075    160.1 1.169e+04 1.057e-09
  8.94640    160.2 1.182e+04 1.194e-09
  8.96636    161.1 1.162e+04 1.056e-09
  8.99060    161.2 1.162e+04 1.056e-09
  9.03053    161.3 1.150e+04 9.803e-10
  9.07045    161.7 1.114e+04 7.559e-10
  9.11038    162.4 1.070e+04 4.977e-10
  9.14431    162.9 1.029e+04 3.115e-10
  9.16427    163.9 1.041e+04 3.665e-10
  9.19023    164.4 1.005e+04 2.508e-10
  9.22797    165.0 9.862e+03 2.130e-10
  9.24793    164.5 9.936e+03 2.416e-10
  9.27008    165.1 9.755e+03 2.110e-10
  9.31001    165.8 9.766e+03 2.111e-10
  9.34222    166.7 9.793e+03 2.218e-10
  9.36219    167.6 9.728e+03 2.123e-10
  9.38986    168.5 9.781e+03 2.305e-10
  9.42979    169.5 9.868e+03 2.543e-10
  9.46971    170.4 9.909e+03 2.598e-10
  9.50964    171.3 9.897e+03 2.560e-10
  9.54014    172.4 9.835e+03 2.395e-10
  9.56010    173.6 9.780e+03 2.339e-10
  9.58949    174.8 9.693e+03 2.116e-10
  9.62941    176.0 9.578e+03 1.867e-10
  9.66934    177.3 9.441e+03 1.720e-10
  9.70926    178.8 9.369e+03 1.711e-10
  9.73805    180.4 9.367e+03 1.724e-10
  9.75801    181.6 9.354e+03 1.717e-10
  9.78912    183.3 9.349e+03 1.786e-10
  9.82904    184.9 9.391e+03 1.905e-10
  9.86897    186.6 9.475e+03 2.023e-10
  9.90889    188.3 9.544e+03 2.077e-10
  9.93597    190.0 9.557e+03 2.066e-10
  9.94353    191.1 9.547e+03 2.172e-10
  9.95638    190.4 9.500e+03 2.156e-10
  9.98874    192.1 9.502e+03 2.133e-10
 10.02867    193.8 9.496e+03 2.076e-10
 10.06860    195.7 9.488e+03 2.039e-10
 10.10852    197.6 9.489e+03 2.048e-10
 10.13388    199.6 9.515e+03 2.133e-10
 10.15384    200.4 9.543e+03 2.323e-10
 10.18837    202.4 9.642e+03 2.530e-10
 10.22830    204.4 9.913e+03 3.074e-10
 10.26822    206.1 1.026e+04 3.867e-10
 10.30815    207.0 1.045e+04 4.563e-10
 10.33170    208.3 1.069e+04 5.844e-10
 10.34158    208.8 1.071e+04 5.875e-10
 10.35786    209.9 1.095e+04 7.255e-10
 10.37782    210.9 1.121e+04 8.734e-10
 10.39779    211.8 1.146e+04 1.015e-09
 10.41775    212.5 1.172e+04 1.148e-09
 10.43055    213.1 1.197e+04 1.283e-09
 10.44054    213.5 1.208e+04 1.408e-09
 10.45767    213.9 1.237e+04 1.607e-09
 10.47764    214.1 1.270e+04 1.913e-09
 10.49760    214.3 1.326e+04 2.482e-09
 10.51756    214.6 1.395e+04 3.424e-09
 10.52951    214.8 1.471e+04 4.707e-09
 10.53949    215.0 1.487e+04 4.921e-09
 10.55245    214.6 1.528e+04 5.746e-09
 10.56238    214.4 1.563e+04 6.434e-09
 10.57236    214.1 1.626e+04 7.979e-09
 10.57889    214.0 1.696e+04 1.041e-08
 10.58388    213.9 1.711e+04 1.125e-08
 10.59233    214.1 1.780e+04 1.502e-08
 10.60231    214.3 1.851e+04 1.813e-08
 10.61229    214.3 1.900e+04 1.827e-08
 10.62227    214.0 1.904e+04 1.800e-08
 10.62837    213.5 1.908e+04 1.679e-08
 10.63336    213.7 1.931e+04 1.988e-08
 10.63958    212.9 1.945e+04 1.807e-08
 10.64457    212.7 1.994e+04 2.768e-08
 10.65221    211.7 2.002e+04 2.385e-08
 10.66220    210.7 1.996e+04 2.007e-08
 10.67218    209.5 1.996e+04 1.953e-08
 10.67785    209.0 1.994e+04 1.899e-08
 10.68284    208.9 2.015e+04 1.961e-08
 10.69718    207.2 2.003e+04 1.810e-08
 10.71719    204.5 1.960e+04 1.353e-08
 10.72742    201.9 1.877e+04 9.916e-09
 10.73741    201.0 1.842e+04 9.057e-09
 10.75712    199.8 1.694e+04 6.312e-09
 10.77708    199.7 1.556e+04 4.198e-09
 10.79704    199.8 1.435e+04 2.630e-09
 10.81640    200.0 1.350e+04 1.700e-09
 10.82638    199.6 1.324e+04 1.530e-09
 10.83697    199.7 1.256e+04 1.067e-09
 10.86701    199.1 1.210e+04 7.853e-10
 10.89695    198.7 1.155e+04 5.829e-10
 10.91536    198.5 1.127e+04 4.866e-10
 10.92544    198.7 1.128e+04 5.093e-10
 10.94696    198.9 1.106e+04 3.733e-10
 10.97681    198.7 1.071e+04 2.999e-10
 10.98891    198.5 1.089e+04 2.852e-10
 10.99889    197.5 1.186e+04 3.592e-10
 11.01431    196.5 1.323e+04 5.361e-10
 11.02430    198.2 1.105e+04 2.601e-10
 11.03660    197.5 1.147e+04 2.992e-10
 11.05656    196.5 1.248e+04 4.453e-10
 11.07652    195.5 1.377e+04 8.329e-10
 11.09648    194.8 1.481e+04 1.575e-09
 11.11327    194.3 1.562e+04 2.715e-09
 11.12325    195.4 1.358e+04 9.674e-10
 11.13641    194.9 1.458e+04 1.808e-09
 11.15637    194.8 1.526e+04 2.942e-09
 11.17634    194.9 1.571e+04 4.133e-09
 11.19630    195.0 1.593e+04 5.022e-09
 11.21223    195.0 1.598e+04 5.274e-09
 11.22221    195.8 1.520e+04 3.914e-09
 11.23622    195.8 1.530e+04 4.068e-09
 11.25619    195.7 1.518e+04 3.841e-09
 11.27615    195.3 1.488e+04 3.305e-09
 11.29611    194.9 1.445e+04 2.709e-09
 11.31118    194.3 1.400e+04 2.243e-09
 11.32117    195.4 1.401e+04 2.242e-09
 11.33315    194.6 1.368e+04 1.969e-09
 11.34313    194.7 1.527e+04 3.660e-09
 11.35600    194.0 1.489e+04 3.193e-09
 11.37596    193.3 1.434e+04 2.660e-09
 11.39593    192.8 1.363e+04 2.153e-09
 11.41014    192.9 1.293e+04 1.744e-09
 11.42012    193.4 1.339e+04 2.119e-09
 11.43585    193.6 1.284e+04 1.800e-09
 11.46589    194.1 1.238e+04 1.489e-09
 11.49931    195.2 1.124e+04 9.657e-10
 11.51927    196.2 1.155e+04 1.118e-09
 11.54584    197.2 1.055e+04 6.839e-10
 11.58577    198.8 9.842e+03 4.202e-10
 11.62569    200.8 9.336e+03 2.669e-10
 11.66562    202.9 8.918e+03 1.919e-10
 11.69723    205.3 8.717e+03 1.770e-10
 11.71719    206.0 8.645e+03 1.675e-10
 11.74547    208.7 8.628e+03 1.668e-10
 11.78540    211.5 8.623e+03 1.677e-10
 11.82532    214.2 8.623e+03 1.724e-10
 11.86525    216.9 8.659e+03 1.822e-10
 11.89514    219.4 8.710e+03 1.956e-10
 11.91510    220.3 8.651e+03 1.862e-10
 11.94510    222.7 8.698e+03 1.990e-10
 11.98503    225.1 8.747e+03 2.138e-10
 12.02183    227.5 8.806e+03 2.330e-10
 12.04179    226.8 8.831e+03 2.309e-10
 12.06488    229.2 8.939e+03 2.589e-10
 12.09305    231.6 9.135e+03 3.039e-10
 12.11302    232.7 9.039e+03 2.769e-10
 12.14473    235.2 9.310e+03 3.396e-10
 12.17457    236.5 9.720e+03 4.383e-10
 12.19181    237.0 9.902e+03 4.919e-10
 12.20180    237.6 9.886e+03 4.780e-10
 12.21440    238.4 1.012e+04 5.566e-10
 12.23437    239.4 1.035e+04 6.497e-10
 12.25433    240.4 1.065e+04 7.703e-10
 12.27429    241.4 1.099e+04 9.280e-10
 12.29077    242.2 1.146e+04 1.165e-09
 12.30075    242.7 1.141e+04 1.131e-09
 12.31422    243.3 1.185e+04 1.388e-09
 12.34426    244.6 1.239e+04 1.709e-09
 12.38428    246.0 1.258e+04 1.917e-09
 12.41413    246.7 1.255e+04 1.921e-09
 12.43399    247.3 1.254e+04 1.913e-09
 12.45396    247.7 1.250e+04 1.893e-09
 12.47392    248.3 1.242e+04 1.853e-09
 12.48868    249.2 1.232e+04 1.787e-09
 12.49867    249.5 1.226e+04 1.725e-09
 12.51384    250.2 1.209e+04 1.627e-09
 12.53381    251.1 1.191e+04 1.516e-09
 12.55377    252.0 1.180e+04 1.423e-09
 12.57373    252.9 1.180e+04 1.356e-09
 12.58764    253.8 1.185e+04 1.341e-09
 12.59762    254.1 1.168e+04 1.227e-09
 12.61366    255.3 1.172e+04 1.229e-09
 12.63362    256.3 1.181e+04 1.244e-09
 12.65358    257.3 1.187e+04 1.258e-09
 12.67355    258.2 1.193e+04 1.275e-09
 12.68660    259.0 1.209e+04 1.339e-09
 12.69658    259.5 1.195e+04 1.238e-09
 12.71347    260.1 1.215e+04 1.344e-09
 12.73008    260.6 1.239e+04 1.528e-09
 12.74006    259.9 1.213e+04 1.552e-09
 12.75340    260.7 1.235e+04 1.689e-09
 12.77336    261.3 1.260e+04 1.867e-09
 12.78555    261.9 1.283e+04 2.055e-09
 12.79554    262.3 1.266e+04 1.921e-09
 12.81329    262.9 1.292e+04 2.108e-09
 12.83325    263.5 1.311e+04 2.222e-09
 12.85321    263.8 1.314e+04 2.229e-09
 12.87318    264.1 1.313e+04 2.210e-09
 12.88451    264.3 1.307e+04 2.119e-09
 12.89449    264.7 1.316e+04 2.081e-09
 12.91310    265.0 1.302e+04 1.912e-09
 12.93306    265.3 1.283e+04 1.712e-09
 12.95303    265.6 1.261e+04 1.529e-09
 12.97299    265.8 1.240e+04 1.383e-09
 12.98347    266.1 1.221e+04 1.273e-09
 12.99345    266.4 1.215e+04 1.225e-09
 13.01291    266.7 1.195e+04 1.164e-09
 13.03288    267.0 1.181e+04 1.130e-09
 13.05284    267.3 1.175e+04 1.121e-09
