# Columns:
#   distance along LOS (in CHIMPs)
#   peculiar velocity  (in km/s)
#   temperature (K)
#   HI number density
# pos=(159.158,155.702,3.21089), angles=(1.47023,4.67365)
  0.00115    -23.6 2.591e+04 4.113e-08
  0.00722    -23.7 2.342e+04 6.441e-08
  0.01704    -23.8 2.209e+04 8.764e-08
  0.02686    -23.6 2.197e+04 1.001e-07
  0.03668    -23.7 2.198e+04 1.014e-07
  0.04651    -23.6 2.195e+04 9.459e-08
  0.05619    -23.1 2.274e+04 7.192e-08
  0.06111    -22.6 2.351e+04 5.214e-08
  0.06615    -22.5 2.739e+04 2.610e-08
  0.07597    -23.3 3.357e+04 9.839e-09
  0.08580    -26.5 3.700e+04 3.399e-09
  0.09562    -33.7 3.058e+04 1.135e-09
  0.10544    -41.2 1.752e+04 5.438e-10
  0.11526    -43.8 1.130e+04 4.324e-10
  0.12509    -44.4 9.989e+03 3.959e-10
  0.13112    -42.6 1.023e+04 3.486e-10
  0.14099    -45.0 8.672e+03 3.005e-10
  0.15956    -43.8 8.520e+03 2.767e-10
  0.17921    -42.4 8.476e+03 2.691e-10
  0.19885    -41.0 8.488e+03 2.667e-10
  0.21850    -40.0 8.374e+03 2.521e-10
  0.24806    -36.5 8.351e+03 2.443e-10
  0.28745    -33.9 8.307e+03 2.405e-10
  0.32674    -31.1 8.226e+03 2.314e-10
  0.36603    -28.5 8.244e+03 2.318e-10
  0.40532    -25.9 8.377e+03 2.521e-10
  0.43766    -23.3 8.545e+03 2.813e-10
  0.45730    -22.7 8.416e+03 2.553e-10
  0.48390    -20.2 8.550e+03 2.857e-10
  0.52319    -17.6 8.660e+03 3.050e-10
  0.56248    -15.1 8.688e+03 3.070e-10
  0.60177    -12.6 8.648e+03 2.849e-10
  0.63037    -10.5 8.582e+03 2.573e-10
  0.65002    -11.2 8.674e+03 2.855e-10
  0.68036     -9.2 8.623e+03 2.713e-10
  0.71965     -7.2 8.624e+03 2.680e-10
  0.75894     -5.0 8.696e+03 2.796e-10
  0.79823     -2.6 8.615e+03 2.644e-10
  0.82865     -0.3 8.575e+03 2.307e-10
  0.84829     -0.5 8.468e+03 2.135e-10
  0.87681      1.0 8.688e+03 2.361e-10
  0.91610      2.1 9.285e+03 3.439e-10
  0.94547      1.9 9.856e+03 5.160e-10
  0.96501      2.9 1.008e+04 6.784e-10
  0.98466      3.9 1.060e+04 9.149e-10
  1.00431      5.1 1.096e+04 1.104e-09
  1.02395      6.3 1.123e+04 1.213e-09
  1.04359      6.9 1.104e+04 1.021e-09
  1.06324      7.4 1.104e+04 9.528e-10
  1.08289      7.4 1.101e+04 8.882e-10
  1.10253      7.2 1.100e+04 8.397e-10
  1.12218      6.9 1.102e+04 8.380e-10
  1.13901      6.6 1.115e+04 8.829e-10
  1.14883      6.6 1.146e+04 1.079e-09
  1.16147      6.8 1.167e+04 1.192e-09
  1.18111      6.7 1.204e+04 1.335e-09
  1.20076      6.0 1.263e+04 1.559e-09
  1.21944      4.4 1.323e+04 1.898e-09
  1.22927      4.0 1.276e+04 1.522e-09
  1.24005      2.5 1.309e+04 1.912e-09
  1.25969      1.8 1.319e+04 2.262e-09
  1.27934      1.5 1.320e+04 2.323e-09
  1.29898      1.3 1.306e+04 2.125e-09
  1.31863      0.5 1.299e+04 1.737e-09
  1.33827     -1.0 1.269e+04 1.378e-09
  1.35792     -2.7 1.219e+04 1.140e-09
  1.37756     -3.9 1.186e+04 1.019e-09
  1.39721     -4.8 1.182e+04 9.672e-10
  1.41494     -5.7 1.187e+04 1.011e-09
  1.42476     -6.9 1.185e+04 1.041e-09
  1.43650     -7.6 1.186e+04 1.122e-09
  1.45614     -7.8 1.194e+04 1.312e-09
  1.47579     -7.7 1.209e+04 1.433e-09
  1.49543     -7.4 1.231e+04 1.565e-09
  1.51508     -7.3 1.239e+04 1.561e-09
  1.53472     -7.9 1.252e+04 1.583e-09
  1.55437    -10.8 1.376e+04 1.957e-09
  1.57402    -17.1 1.680e+04 3.588e-09
  1.59366    -22.8 1.872e+04 7.576e-09
  1.61044    -26.7 1.961e+04 1.275e-08
  1.62026    -28.6 1.973e+04 1.284e-08
  1.63295    -31.8 2.042e+04 1.354e-08
  1.64784    -35.6 2.043e+04 1.021e-08
  1.65767    -41.7 1.959e+04 8.160e-09
  1.67224    -46.8 1.668e+04 4.857e-09
  1.69189    -50.3 1.472e+04 3.232e-09
  1.71153    -52.4 1.373e+04 2.405e-09
  1.73118    -53.6 1.298e+04 1.906e-09
  1.75082    -54.1 1.239e+04 1.534e-09
  1.77047    -54.3 1.186e+04 1.208e-09
  1.79011    -54.4 1.134e+04 9.203e-10
  1.80593    -54.6 1.086e+04 6.935e-10
  1.81575    -55.1 1.079e+04 6.781e-10
  1.82940    -55.3 1.051e+04 5.425e-10
  1.84905    -55.9 1.042e+04 4.735e-10
  1.86869    -56.5 1.041e+04 4.572e-10
  1.88834    -57.2 1.053e+04 4.716e-10
  1.90798    -57.9 1.070e+04 5.346e-10
  1.92763    -58.3 1.083e+04 6.197e-10
  1.94727    -58.5 1.095e+04 6.954e-10
  1.96692    -58.6 1.105e+04 7.338e-10
  1.98656    -58.9 1.109e+04 7.419e-10
  2.00143    -59.3 1.102e+04 6.991e-10
  2.01125    -59.8 1.124e+04 8.262e-10
  2.02585    -60.4 1.098e+04 7.240e-10
  2.04550    -61.0 1.069e+04 6.280e-10
  2.06514    -61.5 1.044e+04 5.343e-10
  2.08479    -62.0 1.023e+04 4.459e-10
  2.10443    -62.4 1.011e+04 3.913e-10
  2.13400    -63.1 9.963e+03 3.277e-10
  2.17339    -63.7 9.864e+03 2.857e-10
  2.21268    -64.4 9.834e+03 2.594e-10
  2.25197    -65.1 9.808e+03 2.455e-10
  2.29126    -65.9 9.786e+03 2.407e-10
  2.33055    -66.7 9.825e+03 2.407e-10
  2.36984    -68.2 1.018e+04 2.717e-10
  2.39252    -69.4 1.047e+04 3.579e-10
  2.41216    -70.2 1.047e+04 3.404e-10
  2.43850    -71.6 1.064e+04 4.746e-10
  2.45805    -72.5 1.074e+04 5.779e-10
  2.47769    -72.9 1.081e+04 6.289e-10
  2.49734    -73.3 1.082e+04 6.381e-10
  2.51698    -73.8 1.072e+04 5.966e-10
  2.53663    -74.3 1.055e+04 4.996e-10
  2.55627    -74.8 1.044e+04 4.122e-10
  2.57592    -75.2 1.039e+04 3.698e-10
  2.58792    -75.6 1.035e+04 3.343e-10
  2.59774    -75.6 1.037e+04 3.463e-10
  2.61521    -75.7 1.038e+04 3.320e-10
  2.64477    -76.2 1.037e+04 3.038e-10
  2.66571    -76.2 1.017e+04 2.480e-10
  2.68535    -75.2 9.873e+03 2.153e-10
  2.72345    -74.7 9.615e+03 1.822e-10
  2.76274    -74.1 9.463e+03 1.672e-10
  2.78361    -73.2 9.449e+03 1.631e-10
  2.80325    -73.1 9.574e+03 1.640e-10
  2.84132    -72.2 9.551e+03 1.642e-10
  2.88061    -71.4 9.626e+03 1.808e-10
  2.91990    -70.4 9.737e+03 2.067e-10
  2.95920    -69.2 9.778e+03 2.277e-10
  2.99849    -68.2 9.844e+03 2.421e-10
  3.03778    -67.8 1.003e+04 2.639e-10
  3.07707    -68.0 1.043e+04 3.362e-10
  3.10644    -69.4 1.072e+04 4.684e-10
  3.12598    -69.9 1.101e+04 6.559e-10
  3.14563    -70.0 1.135e+04 8.728e-10
  3.16452    -69.9 1.164e+04 1.029e-09
  3.17434    -69.4 1.178e+04 1.103e-09
  3.18492    -69.4 1.199e+04 1.199e-09
  3.20456    -69.7 1.202e+04 1.209e-09
  3.22421    -70.0 1.191e+04 1.069e-09
  3.24385    -70.4 1.164e+04 8.579e-10
  3.26350    -71.0 1.139e+04 7.097e-10
  3.28315    -71.6 1.122e+04 6.324e-10
  3.30279    -72.0 1.114e+04 6.096e-10
  3.32244    -72.1 1.107e+04 6.175e-10
  3.34208    -72.2 1.103e+04 6.399e-10
  3.36008    -72.0 1.100e+04 6.532e-10
  3.36990    -72.0 1.107e+04 6.557e-10
  3.38137    -71.6 1.098e+04 6.569e-10
  3.40102    -71.0 1.077e+04 6.027e-10
  3.42066    -70.3 1.058e+04 5.000e-10
  3.44031    -70.0 1.042e+04 4.030e-10
  3.46987    -70.2 1.023e+04 3.317e-10
  3.50926    -69.5 9.968e+03 2.878e-10
  3.54594    -68.0 9.671e+03 2.494e-10
  3.56559    -67.8 9.662e+03 2.386e-10
  3.58784    -66.1 9.488e+03 2.214e-10
  3.62713    -64.1 9.412e+03 2.129e-10
  3.66373    -62.1 9.364e+03 2.053e-10
  3.68337    -61.1 9.401e+03 1.977e-10
  3.70571    -59.2 9.342e+03 1.887e-10
  3.74500    -57.3 9.282e+03 1.778e-10
  3.78429    -55.5 9.265e+03 1.693e-10
  3.82358    -53.7 9.317e+03 1.701e-10
  3.86287    -52.2 9.414e+03 1.922e-10
  3.90216    -50.7 9.544e+03 2.463e-10
  3.93694    -48.9 9.700e+03 3.273e-10
  3.95658    -48.8 9.333e+03 2.294e-10
  3.98074    -46.8 9.431e+03 2.832e-10
  4.02003    -44.8 9.540e+03 3.254e-10
  4.05932    -42.9 9.630e+03 3.477e-10
  4.09862    -41.3 9.770e+03 3.694e-10
  4.13791    -40.1 1.001e+04 4.318e-10
  4.17720    -38.9 1.033e+04 5.684e-10
  4.21649    -37.2 1.065e+04 7.366e-10
  4.25578    -35.5 1.081e+04 8.045e-10
  4.29507    -34.1 1.067e+04 7.316e-10
  4.32793    -32.8 1.034e+04 5.816e-10
  4.34757    -32.1 1.016e+04 4.698e-10
  4.37365    -31.0 9.983e+03 4.220e-10
  4.41294    -29.6 9.820e+03 4.215e-10
  4.45223    -27.8 9.759e+03 4.299e-10
  4.49152    -26.0 9.794e+03 4.208e-10
  4.53081    -24.4 9.871e+03 4.403e-10
  4.57010    -22.8 9.987e+03 4.901e-10
  4.60939    -21.2 1.009e+04 5.681e-10
  4.64868    -19.5 1.023e+04 6.348e-10
  4.68139    -17.9 1.037e+04 6.764e-10
  4.70104    -17.0 9.850e+03 4.794e-10
  4.71892    -15.2 9.871e+03 4.983e-10
  4.73857    -15.3 1.012e+04 5.342e-10
  4.76655    -13.9 1.017e+04 5.500e-10
  4.80584    -12.9 1.033e+04 5.806e-10
  4.84513    -11.9 1.043e+04 6.306e-10
  4.88442    -10.6 1.030e+04 6.026e-10
  4.92371     -8.7 1.000e+04 4.801e-10
  4.96300     -7.0 9.773e+03 3.561e-10
  5.00229     -5.4 9.556e+03 2.793e-10
  5.04158     -3.6 9.428e+03 2.372e-10
  5.08087     -1.4 9.333e+03 2.121e-10
  5.10991      0.8 9.323e+03 1.815e-10
  5.12956      0.3 9.492e+03 2.057e-10
  5.15945      2.6 9.485e+03 2.086e-10
  5.19874      4.8 9.520e+03 2.152e-10
  5.23803      6.6 9.687e+03 2.370e-10
  5.27733      7.9 1.004e+04 3.089e-10
  5.31662      9.1 1.049e+04 4.618e-10
  5.35591     10.6 1.106e+04 7.209e-10
  5.39520     12.4 1.147e+04 9.587e-10
  5.42457     12.9 1.156e+04 1.040e-09
  5.44411     13.4 1.165e+04 1.088e-09
  5.46376     13.8 1.180e+04 1.140e-09
  5.48340     13.9 1.193e+04 1.175e-09
  5.50071     13.8 1.203e+04 1.205e-09
  5.51053     13.1 1.213e+04 1.203e-09
  5.52269     12.1 1.255e+04 1.294e-09
  5.54234      9.9 1.333e+04 1.525e-09
  5.56198      6.2 1.439e+04 2.187e-09
  5.58163      3.3 1.480e+04 3.348e-09
  5.60128      2.4 1.463e+04 4.167e-09
  5.62092      2.8 1.438e+04 3.993e-09
  5.64057      2.9 1.401e+04 3.180e-09
  5.66021      2.5 1.365e+04 2.114e-09
  5.67986      1.2 1.315e+04 1.320e-09
  5.69620      0.1 1.233e+04 8.506e-10
  5.70539     -0.7 1.232e+04 8.459e-10
  5.70869      0.2 1.251e+04 9.630e-10
  5.71915     -0.7 1.202e+04 7.278e-10
  5.73879     -0.7 1.162e+04 5.717e-10
  5.75844     -0.8 1.150e+04 5.271e-10
  5.78800      0.6 1.108e+04 4.490e-10
  5.82739      1.6 1.111e+04 4.713e-10
  5.86668      2.9 1.108e+04 4.966e-10
  5.89189      4.3 1.109e+04 5.163e-10
  5.91154      3.1 1.106e+04 4.706e-10
  5.94526      4.4 1.112e+04 4.752e-10
  5.98455      5.1 1.135e+04 5.340e-10
  6.02384      5.1 1.174e+04 7.168e-10
  6.06313      4.6 1.227e+04 1.082e-09
  6.10242      4.0 1.276e+04 1.609e-09
  6.14171      3.7 1.264e+04 1.646e-09
  6.18100      4.5 1.193e+04 1.287e-09
  6.22029      5.2 1.110e+04 7.278e-10
  6.25958      5.2 1.037e+04 3.938e-10
  6.28289      5.4 9.823e+03 2.631e-10
  6.30253      4.7 9.562e+03 2.147e-10
  6.33816      6.1 9.282e+03 1.827e-10
  6.37745      8.0 9.112e+03 1.608e-10
  6.41675      9.8 9.008e+03 1.392e-10
  6.45604     11.5 8.910e+03 1.207e-10
  6.49533     13.0 8.879e+03 1.154e-10
  6.53462     14.2 8.928e+03 1.225e-10
  6.57391     15.3 9.054e+03 1.532e-10
  6.61320     16.7 9.244e+03 2.029e-10
  6.65249     18.1 9.306e+03 2.211e-10
  6.67388     19.8 9.224e+03 2.059e-10
  6.69352     19.3 9.302e+03 2.254e-10
  6.71673     21.1 9.046e+03 1.582e-10
  6.73637     20.9 8.943e+03 1.253e-10
  6.77036     21.9 8.820e+03 7.436e-11
  6.80965     22.5 8.568e+03 5.340e-11
  6.84894     23.7 8.374e+03 5.142e-11
  6.88823     25.4 8.359e+03 5.222e-11
  6.92752     27.1 8.354e+03 5.649e-11
  6.96681     28.9 8.380e+03 6.363e-11
  7.00610     30.6 8.420e+03 7.260e-11
  7.04522     32.2 8.477e+03 8.425e-11
  7.08452     32.9 8.644e+03 1.067e-10
  7.12397     34.2 8.870e+03 1.401e-10
  7.16326     35.3 9.159e+03 1.884e-10
  7.20255     36.2 9.464e+03 2.501e-10
  7.24184     37.1 9.746e+03 3.159e-10
  7.28113     37.8 9.968e+03 3.745e-10
  7.32042     38.4 1.015e+04 4.314e-10
  7.35971     39.3 1.033e+04 4.883e-10
  7.38908     39.6 1.031e+04 4.737e-10
  7.40863     39.6 1.031e+04 4.712e-10
  7.43612     40.5 1.033e+04 4.717e-10
  7.45586     40.0 1.009e+04 3.735e-10
  7.47758     41.0 9.893e+03 3.064e-10
  7.51687     41.9 9.614e+03 2.265e-10
  7.55617     42.6 9.357e+03 1.628e-10
  7.59546     43.0 9.162e+03 1.246e-10
  7.63475     43.6 9.019e+03 1.147e-10
  7.67404     44.5 9.017e+03 1.163e-10
  7.71333     45.5 9.059e+03 1.258e-10
  7.73439     46.4 9.230e+03 1.559e-10
  7.75404     46.6 9.077e+03 1.254e-10
  7.79191     47.2 9.385e+03 1.778e-10
  7.82721     47.5 9.863e+03 2.869e-10
  7.84685     47.7 9.582e+03 2.347e-10
  7.87049     48.1 1.005e+04 3.695e-10
  7.90978     48.7 1.030e+04 4.880e-10
  7.94907     48.8 1.049e+04 5.179e-10
  7.98836     48.6 1.047e+04 5.008e-10
  8.02765     48.2 1.033e+04 4.340e-10
  8.05702     47.8 1.032e+04 4.279e-10
  8.07657     47.2 1.027e+04 4.166e-10
  8.09621     46.7 1.025e+04 4.161e-10
  8.11586     46.4 1.025e+04 4.202e-10
  8.13550     46.2 1.027e+04 4.358e-10
  8.15515     46.2 1.033e+04 4.607e-10
  8.17479     46.4 1.038e+04 4.918e-10
  8.19444     46.6 1.044e+04 5.250e-10
  8.21408     47.0 1.051e+04 5.480e-10
  8.22783     47.4 1.055e+04 5.512e-10
  8.23713     47.2 1.035e+04 4.878e-10
  8.24303     47.1 1.025e+04 4.574e-10
  8.26329     47.6 1.027e+04 4.411e-10
  8.30268     48.3 1.023e+04 4.126e-10
  8.34197     49.3 1.002e+04 3.548e-10
  8.38126     50.5 9.682e+03 2.824e-10
  8.42055     51.8 9.324e+03 2.207e-10
  8.45984     53.1 9.030e+03 1.783e-10
  8.49913     54.6 8.853e+03 1.545e-10
  8.53842     56.2 8.781e+03 1.429e-10
  8.57771     57.8 8.759e+03 1.357e-10
  8.60919     59.2 8.733e+03 1.283e-10
  8.62884     59.8 8.820e+03 1.375e-10
  8.65629     61.2 8.886e+03 1.401e-10
  8.69559     62.6 8.974e+03 1.422e-10
  8.73241     63.7 9.061e+03 1.461e-10
  8.75206     61.9 9.187e+03 1.649e-10
  8.77417     62.3 9.663e+03 2.090e-10
  8.81346     61.9 1.025e+04 2.759e-10
  8.84283     61.4 1.068e+04 3.374e-10
  8.86237     60.2 1.131e+04 4.723e-10
  8.88202     59.0 1.178e+04 6.833e-10
  8.90166     58.0 1.213e+04 9.537e-10
  8.92131     55.0 1.407e+04 1.567e-09
  8.94095     48.4 1.748e+04 3.011e-09
  8.96060     42.4 1.898e+04 4.787e-09
  8.97528     39.3 1.955e+04 6.132e-09
  8.98506     36.9 1.899e+04 7.290e-09
  8.99488     34.1 1.863e+04 7.589e-09
  9.00127     32.7 1.837e+04 7.462e-09
  9.00618     32.2 1.808e+04 7.060e-09
  9.00976     29.7 1.808e+04 6.945e-09
  9.01963     28.9 1.823e+04 7.206e-09
  9.03918     23.8 1.774e+04 5.415e-09
  9.05883     16.4 1.729e+04 3.540e-09
  9.07847      7.5 1.608e+04 2.722e-09
  9.09812     -0.0 1.560e+04 2.832e-09
  9.11776     -6.6 1.592e+04 3.370e-09
  9.13741    -11.6 1.565e+04 3.436e-09
  9.15705    -15.6 1.509e+04 2.807e-09
  9.17670    -19.4 1.433e+04 1.904e-09
  9.19548    -23.3 1.315e+04 1.022e-09
  9.20531    -21.3 1.364e+04 1.421e-09
  9.21599    -25.1 1.257e+04 8.187e-10
  9.23563    -29.6 1.188e+04 5.670e-10
  9.25087    -35.8 1.395e+04 7.854e-10
  9.26070    -29.4 1.077e+04 4.482e-10
  9.27492    -33.9 1.240e+04 5.986e-10
  9.28961    -37.3 1.446e+04 1.102e-09
  9.29805    -46.7 3.962e+04 9.837e-10
  9.30296    -37.7 1.615e+04 1.122e-09
  9.30920    -52.6 4.712e+04 1.856e-09
  9.31903    -76.0 4.845e+04 3.021e-08
  9.32637    -93.5 2.584e+04 1.016e-06
  9.33126    -96.2 2.279e+04 2.215e-06
  9.33617   -100.5 2.144e+04 3.783e-06
  9.34108   -109.6 2.324e+04 3.678e-06
  9.34599   -122.0 3.201e+04 1.257e-06
  9.34933   -133.7 5.123e+04 1.577e-07
  9.35178   -128.1 4.122e+04 4.699e-07
  9.35829   -142.7 5.533e+04 8.679e-08
  9.36814   -165.8 4.164e+04 7.037e-08
  9.37796   -173.8 2.592e+04 8.790e-08
  9.38778   -175.3 2.398e+04 8.454e-08
  9.39579   -176.1 2.287e+04 7.067e-08
  9.40070   -175.6 2.365e+04 5.866e-08
  9.40743   -176.1 2.251e+04 4.566e-08
  9.41725   -176.2 2.211e+04 3.516e-08
  9.42707   -176.4 2.214e+04 2.625e-08
  9.43690   -176.8 2.217e+04 1.880e-08
  9.44672   -177.4 2.187e+04 1.308e-08
  9.45654   -178.1 2.105e+04 8.957e-09
  9.46637   -178.9 1.967e+04 6.241e-09
  9.47619   -179.2 1.812e+04 4.729e-09
  9.48601   -179.1 1.712e+04 4.097e-09
  9.49354   -178.4 1.674e+04 3.916e-09
  9.49845   -178.3 1.680e+04 4.045e-09
  9.51062   -177.3 1.622e+04 3.667e-09
  9.53031   -176.2 1.503e+04 2.906e-09
  9.54995   -174.6 1.432e+04 2.466e-09
  9.56960   -172.9 1.425e+04 2.379e-09
  9.58648   -171.2 1.432e+04 2.435e-09
  9.59630   -171.0 1.333e+04 2.034e-09
  9.60889   -169.4 1.321e+04 1.970e-09
  9.62854   -168.1 1.319e+04 1.940e-09
  9.64818   -167.1 1.369e+04 1.919e-09
  9.66783   -166.4 1.495e+04 2.110e-09
  9.68747   -165.9 1.642e+04 2.569e-09
  9.70712   -165.2 1.759e+04 3.255e-09
  9.72676   -164.5 1.826e+04 4.142e-09
  9.74641   -163.8 1.855e+04 5.116e-09
  9.75971   -163.0 1.860e+04 6.108e-09
  9.76953   -161.1 1.676e+04 4.320e-09
  9.78197   -160.4 1.720e+04 5.138e-09
  9.79179   -158.8 1.509e+04 3.076e-09
  9.80534   -158.1 1.577e+04 3.781e-09
  9.82499   -157.5 1.629e+04 4.546e-09
  9.84463   -156.9 1.664e+04 5.263e-09
  9.86428   -156.3 1.680e+04 5.810e-09
  9.88392   -155.6 1.679e+04 6.051e-09
  9.90357   -155.0 1.658e+04 6.041e-09
  9.92321   -154.4 1.620e+04 5.591e-09
  9.94286   -153.9 1.577e+04 4.867e-09
  9.96250   -153.4 1.523e+04 3.941e-09
  9.97747   -152.9 1.458e+04 3.003e-09
  9.98729   -152.6 1.529e+04 4.636e-09
 10.00179   -152.2 1.457e+04 3.528e-09
 10.02144   -151.8 1.389e+04 2.673e-09
 10.04108   -151.4 1.332e+04 2.093e-09
 10.06073   -151.1 1.287e+04 1.721e-09
 10.08037   -150.6 1.253e+04 1.492e-09
 10.10002   -150.1 1.228e+04 1.357e-09
 10.11966   -149.5 1.213e+04 1.271e-09
 10.13931   -149.0 1.202e+04 1.209e-09
 10.15896   -148.4 1.191e+04 1.150e-09
 10.17296   -148.0 1.181e+04 1.091e-09
 10.18279   -148.1 1.204e+04 1.301e-09
 10.19825   -147.7 1.190e+04 1.204e-09
 10.21789   -147.5 1.177e+04 1.117e-09
 10.23754   -147.3 1.164e+04 1.039e-09
 10.25718   -147.1 1.153e+04 9.643e-10
 10.26854   -146.9 1.142e+04 8.817e-10
 10.27836   -146.6 1.142e+04 9.093e-10
 10.29647   -146.4 1.128e+04 8.168e-10
 10.31612   -146.2 1.110e+04 7.017e-10
 10.33576   -146.0 1.086e+04 5.707e-10
 10.35541   -145.8 1.059e+04 4.430e-10
 10.36846   -145.5 1.034e+04 3.454e-10
 10.37828   -145.8 1.031e+04 3.736e-10
 10.39470   -145.5 1.017e+04 3.087e-10
 10.42426   -145.2 1.010e+04 2.726e-10
 10.46365   -144.6 9.917e+03 2.412e-10
 10.50294   -143.4 9.708e+03 2.184e-10
 10.54223   -141.9 9.536e+03 2.042e-10
 10.56415   -140.1 9.437e+03 1.959e-10
 10.58379   -140.7 9.700e+03 2.964e-10
 10.62081   -138.9 9.632e+03 2.887e-10
 10.66010   -137.1 9.612e+03 2.899e-10
 10.69939   -135.4 9.631e+03 2.929e-10
 10.73868   -133.9 9.681e+03 2.969e-10
 10.76774   -132.6 9.767e+03 3.006e-10
 10.78739   -131.9 9.693e+03 2.846e-10
 10.81726   -130.6 9.728e+03 2.825e-10
 10.85655   -129.5 9.793e+03 2.811e-10
 10.89584   -128.7 9.890e+03 2.860e-10
 10.93513   -128.2 9.971e+03 2.901e-10
 10.95514   -127.8 1.000e+04 2.852e-10
 10.97479   -128.4 1.016e+04 3.153e-10
 11.01372   -127.9 1.015e+04 2.961e-10
 11.05301   -127.6 1.013e+04 2.771e-10
 11.09230   -127.4 1.011e+04 2.666e-10
 11.13159   -127.2 1.012e+04 2.640e-10
 11.17088   -127.2 1.041e+04 2.863e-10
 11.21017   -127.1 1.075e+04 3.473e-10
 11.24946   -127.1 1.127e+04 4.538e-10
 11.27648   -127.5 1.174e+04 6.035e-10
 11.28621   -127.2 1.182e+04 6.160e-10
 11.29837   -128.1 1.235e+04 8.521e-10
 11.31802   -128.7 1.301e+04 1.386e-09
 11.33612   -129.0 1.358e+04 2.151e-09
 11.34594   -129.7 1.402e+04 2.644e-09
 11.35731   -129.6 1.466e+04 4.202e-09
 11.37696   -129.4 1.510e+04 5.520e-09
 11.39660   -129.4 1.521e+04 5.973e-09
 11.41625   -129.8 1.515e+04 5.976e-09
 11.43589   -130.2 1.483e+04 5.107e-09
 11.45554   -130.9 1.468e+04 4.076e-09
 11.47518   -132.4 1.481e+04 3.684e-09
 11.49483   -134.2 1.497e+04 3.657e-09
 11.51447   -135.9 1.542e+04 4.184e-09
 11.53161   -136.8 1.568e+04 5.250e-09
 11.54143   -137.4 1.672e+04 9.000e-09
 11.55376   -137.7 1.678e+04 9.417e-09
 11.57341   -137.8 1.657e+04 9.085e-09
 11.59305   -137.6 1.585e+04 6.974e-09
 11.61270   -137.0 1.495e+04 4.676e-09
 11.63234   -136.7 1.411e+04 2.914e-09
 11.65199   -136.8 1.329e+04 1.814e-09
 11.67163   -136.9 1.258e+04 1.229e-09
 11.69128   -137.0 1.200e+04 9.503e-10
 11.71092   -136.3 1.158e+04 8.253e-10
 11.72711   -135.3 1.138e+04 7.811e-10
 11.73693   -136.0 1.132e+04 7.294e-10
 11.75021   -134.8 1.130e+04 7.255e-10
 11.76986   -133.8 1.132e+04 7.271e-10
 11.78522   -132.8 1.136e+04 7.449e-10
 11.79504   -132.7 1.159e+04 8.349e-10
 11.80915   -131.8 1.167e+04 8.829e-10
 11.82879   -131.0 1.174e+04 9.377e-10
 11.84844   -130.2 1.178e+04 9.936e-10
 11.86808   -129.3 1.181e+04 1.044e-09
