# Columns:
#   distance along LOS (in CHIMPs)
#   peculiar velocity  (in km/s)
#   temperature (K)
#   HI number density
# pos=(211.304,123.682,20.3086), angles=(1.57151,4.76764)
  0.01441    -27.5 9.723e+03 3.381e-10
  0.04838    -26.9 9.997e+03 4.568e-10
  0.08750    -26.2 1.029e+04 5.888e-10
  0.12662    -25.5 1.041e+04 6.367e-10
  0.16574    -25.0 1.027e+04 5.237e-10
  0.20486    -24.9 9.958e+03 3.093e-10
  0.24399    -25.5 9.548e+03 1.854e-10
  0.28311    -25.3 9.353e+03 1.401e-10
  0.32223    -24.6 9.258e+03 1.243e-10
  0.36135    -23.8 9.224e+03 1.206e-10
  0.40048    -22.9 9.299e+03 1.250e-10
  0.43960    -22.6 9.410e+03 1.585e-10
  0.47872    -22.0 9.477e+03 2.244e-10
  0.51784    -20.9 9.644e+03 3.000e-10
  0.54561    -19.9 9.731e+03 3.237e-10
  0.56517    -20.2 9.523e+03 2.607e-10
  0.59609    -19.8 9.398e+03 2.109e-10
  0.63521    -19.8 9.185e+03 1.780e-10
  0.67433    -19.3 9.052e+03 1.723e-10
  0.71345    -18.2 8.994e+03 1.861e-10
  0.75258    -16.6 8.998e+03 1.978e-10
  0.79170    -15.0 8.979e+03 1.979e-10
  0.83082    -13.6 8.989e+03 1.896e-10
  0.86994    -12.5 9.051e+03 1.891e-10
  0.90906    -11.6 9.071e+03 2.151e-10
  0.94819    -10.1 9.035e+03 2.551e-10
  0.98731     -8.2 8.904e+03 2.544e-10
  1.02643     -6.4 8.893e+03 1.908e-10
  1.06555     -6.1 8.968e+03 1.360e-10
  1.10468     -7.1 9.061e+03 1.250e-10
  1.14380     -9.0 9.245e+03 1.823e-10
  1.18292     -9.9 9.724e+03 3.409e-10
  1.21216    -11.2 1.003e+04 5.321e-10
  1.23163    -12.0 1.028e+04 5.825e-10
  1.25118    -13.2 1.058e+04 6.915e-10
  1.27074    -15.4 1.034e+04 5.903e-10
  1.29031    -17.5 1.059e+04 6.181e-10
  1.30987    -33.5 2.669e+04 8.037e-10
  1.32449    -47.1 2.949e+04 3.088e-09
  1.33423    -52.3 2.668e+04 1.056e-08
  1.34401    -55.2 2.318e+04 3.112e-08
  1.35379    -55.7 2.148e+04 6.835e-08
  1.36357    -55.6 2.103e+04 9.393e-08
  1.37335    -55.2 2.096e+04 9.904e-08
  1.38313    -54.6 2.145e+04 7.377e-08
  1.39291    -54.3 2.315e+04 3.663e-08
  1.40269    -57.5 2.695e+04 1.289e-08
  1.41247    -70.9 2.625e+04 3.479e-09
  1.42225    -84.9 1.645e+04 1.557e-09
  1.43203    -90.1 1.435e+04 1.415e-09
  1.44675    -93.3 1.445e+04 1.849e-09
  1.46636    -95.5 1.538e+04 4.415e-09
  1.48592    -95.3 1.663e+04 8.050e-09
  1.50548    -95.3 1.731e+04 1.096e-08
  1.52504    -96.0 1.737e+04 1.156e-08
  1.54460    -96.0 1.675e+04 9.279e-09
  1.56417    -96.0 1.588e+04 5.324e-09
  1.58373    -98.5 1.506e+04 2.948e-09
  1.60329   -102.3 1.391e+04 1.899e-09
  1.61384   -105.1 1.300e+04 1.614e-09
  1.62362   -104.6 1.281e+04 1.536e-09
  1.64241   -106.0 1.254e+04 1.512e-09
  1.66197   -106.6 1.244e+04 1.623e-09
  1.68153   -106.8 1.241e+04 1.703e-09
  1.70109   -106.8 1.234e+04 1.712e-09
  1.72065   -106.6 1.204e+04 1.501e-09
  1.74022   -106.1 1.160e+04 1.151e-09
  1.75978   -105.8 1.112e+04 8.188e-10
  1.77934   -105.6 1.063e+04 5.744e-10
  1.79890   -105.4 1.023e+04 4.223e-10
  1.81846   -105.1 1.004e+04 3.546e-10
  1.84790   -104.7 9.970e+03 3.212e-10
  1.88712   -103.7 9.765e+03 2.760e-10
  1.92624   -102.1 9.545e+03 2.386e-10
  1.95714   -100.5 9.391e+03 2.134e-10
  1.97670   -100.0 9.369e+03 2.102e-10
  2.00449    -98.5 9.302e+03 1.988e-10
  2.04361    -97.0 9.274e+03 1.955e-10
  2.08273    -95.4 9.253e+03 1.967e-10
  2.12185    -93.8 9.230e+03 1.997e-10
  2.16097    -92.2 9.183e+03 1.985e-10
  2.20010    -90.5 9.103e+03 1.918e-10
  2.23922    -88.7 9.005e+03 1.778e-10
  2.27834    -87.0 8.908e+03 1.617e-10
  2.31746    -85.3 8.849e+03 1.506e-10
  2.35659    -83.6 8.837e+03 1.479e-10
  2.39571    -82.0 8.858e+03 1.504e-10
  2.43483    -80.6 8.949e+03 1.714e-10
  2.47395    -79.2 9.053e+03 2.002e-10
  2.51307    -77.8 9.124e+03 2.192e-10
  2.55220    -76.5 9.157e+03 2.271e-10
  2.59132    -75.2 9.176e+03 2.250e-10
  2.63044    -73.9 9.149e+03 2.098e-10
  2.66291    -72.7 9.116e+03 1.936e-10
  2.68247    -72.0 9.113e+03 1.970e-10
  2.70869    -70.8 9.082e+03 1.820e-10
  2.74781    -69.7 9.029e+03 1.662e-10
  2.78693    -68.7 8.959e+03 1.507e-10
  2.82605    -67.6 8.887e+03 1.384e-10
  2.86517    -66.4 8.832e+03 1.295e-10
  2.90430    -65.2 8.832e+03 1.224e-10
  2.94342    -63.9 8.834e+03 1.173e-10
  2.98254    -62.5 8.838e+03 1.112e-10
  3.02166    -61.2 8.853e+03 1.019e-10
  3.06079    -59.9 8.864e+03 9.030e-11
  3.09991    -58.8 8.903e+03 8.193e-11
  3.13903    -58.4 8.929e+03 8.026e-11
  3.17815    -58.9 9.150e+03 9.400e-11
  3.21727    -60.2 9.743e+03 2.239e-10
  3.25640    -60.5 1.046e+04 5.434e-10
  3.29552    -60.3 1.115e+04 9.479e-10
  3.33464    -61.0 1.150e+04 1.108e-09
  3.36867    -63.2 1.150e+04 9.468e-10
  3.38823    -61.9 1.126e+04 9.210e-10
  3.41289    -64.0 1.081e+04 5.734e-10
  3.45201    -66.6 1.065e+04 4.902e-10
  3.49113    -69.1 1.080e+04 5.629e-10
  3.53025    -71.1 1.167e+04 1.020e-09
  3.56937    -72.6 1.250e+04 1.612e-09
  3.59862    -74.3 1.302e+04 2.116e-09
  3.61808    -75.2 1.317e+04 2.246e-09
  3.63764    -76.5 1.326e+04 2.315e-09
  3.65720    -78.0 1.333e+04 2.376e-09
  3.67677    -79.6 1.334e+04 2.383e-09
  3.69633    -81.2 1.334e+04 2.358e-09
  3.71589    -83.0 1.331e+04 2.280e-09
  3.73114    -84.7 1.322e+04 2.150e-09
  3.74092    -83.3 1.347e+04 2.503e-09
  3.75501    -85.0 1.326e+04 2.240e-09
  3.77457    -86.6 1.286e+04 1.891e-09
  3.79413    -88.0 1.234e+04 1.534e-09
  3.81369    -89.0 1.183e+04 1.215e-09
  3.83325    -89.8 1.137e+04 9.402e-10
  3.85282    -90.5 1.093e+04 7.113e-10
  3.87238    -91.1 1.052e+04 5.296e-10
  3.89194    -91.7 1.013e+04 4.018e-10
  3.92138    -92.2 9.789e+03 3.182e-10
  3.96060    -92.1 9.451e+03 2.432e-10
  3.99972    -91.3 9.090e+03 1.785e-10
  4.03884    -90.2 8.878e+03 1.429e-10
  4.07444    -88.9 8.719e+03 1.205e-10
  4.09400    -87.6 8.691e+03 1.095e-10
  4.11709    -86.2 8.548e+03 9.155e-11
  4.15621    -84.6 8.403e+03 8.025e-11
  4.19533    -82.8 8.297e+03 7.399e-11
  4.23445    -80.8 8.267e+03 7.162e-11
  4.27357    -78.8 8.272e+03 7.144e-11
  4.31270    -77.8 8.382e+03 7.374e-11
  4.35182    -77.9 8.607e+03 9.635e-11
  4.39094    -79.8 1.002e+04 2.990e-10
  4.43006    -81.5 1.157e+04 8.946e-10
  4.45931    -82.2 1.233e+04 1.501e-09
  4.47877    -83.4 1.291e+04 1.954e-09
  4.49833    -84.7 1.337e+04 2.207e-09
  4.51789    -87.1 1.349e+04 2.221e-09
  4.53745    -90.2 1.344e+04 1.890e-09
  4.55702    -94.2 1.304e+04 1.543e-09
  4.57658    -98.7 1.290e+04 1.447e-09
  4.59614   -103.5 1.299e+04 1.447e-09
  4.61570   -108.7 1.339e+04 1.649e-09
  4.63526   -113.7 1.356e+04 1.984e-09
  4.65482   -118.2 1.353e+04 2.113e-09
  4.67438   -122.3 1.324e+04 2.045e-09
  4.69394   -126.2 1.246e+04 1.373e-09
  4.71350   -130.4 1.135e+04 7.150e-10
  4.73306   -134.8 1.051e+04 4.370e-10
  4.75263   -139.5 1.042e+04 3.925e-10
  4.77219   -146.3 1.205e+04 3.840e-10
  4.78979   -153.9 1.487e+04 7.841e-10
  4.79957   -155.3 1.480e+04 8.413e-10
  4.81131   -160.1 1.514e+04 2.018e-09
  4.83087   -163.3 1.511e+04 3.311e-09
  4.85043   -165.8 1.505e+04 3.746e-09
  4.86999   -167.9 1.468e+04 3.572e-09
  4.88955   -169.8 1.379e+04 2.261e-09
  4.90911   -171.9 1.257e+04 1.072e-09
  4.92868   -174.1 1.122e+04 4.902e-10
  4.94824   -175.5 1.052e+04 2.894e-10
  4.97768   -176.1 1.032e+04 2.234e-10
  5.01690   -176.2 1.019e+04 1.906e-10
  5.05602   -175.7 9.950e+03 1.484e-10
  5.09514   -174.8 9.840e+03 1.261e-10
  5.13426   -173.9 9.834e+03 1.210e-10
  5.17339   -173.2 9.844e+03 1.208e-10
  5.21251   -172.6 9.919e+03 1.282e-10
  5.25163   -172.1 9.972e+03 1.424e-10
  5.29075   -171.5 9.980e+03 1.550e-10
  5.32987   -170.9 9.953e+03 1.609e-10
  5.36900   -170.3 9.933e+03 1.620e-10
  5.40812   -169.7 9.876e+03 1.615e-10
  5.44724   -169.0 9.857e+03 1.609e-10
  5.48597   -168.7 9.865e+03 1.613e-10
  5.50553   -168.5 9.681e+03 1.183e-10
  5.52549   -168.5 9.717e+03 1.473e-10
  5.56461   -168.5 1.022e+04 2.348e-10
  5.60373   -168.6 1.088e+04 4.081e-10
  5.64285   -168.6 1.161e+04 6.898e-10
  5.67210   -169.3 1.212e+04 9.930e-10
  5.69156   -170.2 1.252e+04 1.277e-09
  5.71112   -171.0 1.282e+04 1.567e-09
  5.73068   -171.9 1.292e+04 1.670e-09
  5.75024   -172.9 1.293e+04 1.688e-09
  5.76980   -173.8 1.280e+04 1.636e-09
  5.78936   -174.4 1.244e+04 1.383e-09
  5.80893   -174.9 1.202e+04 1.098e-09
  5.82849   -175.3 1.164e+04 8.669e-10
  5.84805   -175.7 1.132e+04 7.014e-10
  5.85822   -176.1 1.108e+04 5.879e-10
  5.86800   -175.6 1.110e+04 5.969e-10
  5.88717   -176.0 1.090e+04 5.072e-10
  5.90673   -176.4 1.079e+04 4.562e-10
  5.92629   -176.9 1.077e+04 4.392e-10
  5.94585   -177.5 1.077e+04 4.374e-10
  5.96541   -178.3 1.087e+04 4.478e-10
  5.98498   -179.3 1.107e+04 5.261e-10
  6.00454   -180.1 1.121e+04 6.513e-10
  6.02410   -180.9 1.130e+04 7.821e-10
  6.04366   -182.1 1.145e+04 9.007e-10
  6.06322   -184.2 1.190e+04 1.058e-09
  6.08278   -187.6 1.288e+04 1.406e-09
  6.10234   -191.6 1.428e+04 2.251e-09
  6.12190   -195.6 1.557e+04 3.905e-09
  6.14146   -199.1 1.646e+04 6.206e-09
  6.16103   -202.3 1.686e+04 8.007e-09
  6.18059   -205.3 1.691e+04 8.443e-09
  6.20015   -207.9 1.669e+04 8.247e-09
  6.21110   -210.0 1.586e+04 6.054e-09
  6.22088   -209.2 1.610e+04 7.379e-09
  6.23927   -210.9 1.509e+04 4.785e-09
  6.25883   -212.4 1.401e+04 2.698e-09
  6.27839   -213.9 1.296e+04 1.474e-09
  6.29795   -215.3 1.200e+04 8.623e-10
  6.31751   -216.2 1.116e+04 5.836e-10
  6.33708   -216.5 1.049e+04 4.621e-10
  6.35664   -216.5 1.020e+04 3.945e-10
  6.37620   -216.3 1.010e+04 3.445e-10
  6.39576   -215.8 1.004e+04 3.143e-10
  6.42520   -215.3 9.954e+03 2.828e-10
  6.46442   -213.7 9.692e+03 2.277e-10
  6.50354   -212.1 9.488e+03 1.813e-10
  6.54266   -210.4 9.347e+03 1.515e-10
  6.58178   -208.8 9.255e+03 1.342e-10
  6.62091   -207.0 9.223e+03 1.273e-10
  6.66003   -205.2 9.217e+03 1.264e-10
  6.69915   -203.5 9.231e+03 1.279e-10
  6.73827   -201.8 9.319e+03 1.374e-10
  6.77740   -200.1 9.413e+03 1.502e-10
  6.81652   -198.6 9.468e+03 1.594e-10
  6.85564   -197.1 9.479e+03 1.622e-10
  6.89476   -195.5 9.472e+03 1.621e-10
  6.91706   -193.8 9.419e+03 1.485e-10
  6.93662   -193.4 9.408e+03 1.491e-10
  6.97301   -191.5 9.341e+03 1.231e-10
  7.01213   -189.5 9.284e+03 1.004e-10
  7.05125   -187.3 9.276e+03 8.432e-11
  7.09037   -185.1 9.340e+03 7.599e-11
  7.12950   -182.8 9.386e+03 7.406e-11
  7.16862   -181.1 9.421e+03 7.413e-11
  7.20774   -180.5 9.859e+03 8.159e-11
  7.24686   -180.5 1.046e+04 1.403e-10
  7.28598   -180.5 1.088e+04 2.966e-10
  7.32511   -180.7 1.126e+04 5.561e-10
  7.36423   -181.1 1.155e+04 8.401e-10
  7.40335   -181.5 1.166e+04 9.993e-10
  7.44247   -181.7 1.166e+04 1.031e-09
  7.48160   -181.7 1.154e+04 9.997e-10
  7.52072   -181.2 1.136e+04 8.079e-10
  7.55984   -180.3 1.132e+04 6.122e-10
  7.59896   -179.5 1.145e+04 4.807e-10
  7.62283   -179.3 1.158e+04 4.050e-10
  7.64239   -180.3 1.136e+04 3.973e-10
  7.67721   -179.8 1.136e+04 3.529e-10
  7.71633   -179.6 1.131e+04 3.203e-10
  7.75545   -179.5 1.122e+04 2.898e-10
  7.79457   -179.5 1.111e+04 2.616e-10
  7.83370   -179.3 1.107e+04 2.378e-10
  7.87282   -179.1 1.110e+04 2.195e-10
  7.91194   -178.8 1.118e+04 2.126e-10
  7.95106   -178.5 1.125e+04 2.186e-10
  7.99018   -178.3 1.144e+04 2.680e-10
  8.02931   -178.3 1.167e+04 3.616e-10
  8.06843   -178.3 1.193e+04 4.889e-10
  8.10755   -178.4 1.218e+04 6.395e-10
  8.14667   -178.9 1.242e+04 8.093e-10
  8.18580   -179.5 1.264e+04 1.007e-09
  8.22492   -180.3 1.282e+04 1.231e-09
  8.26404   -181.2 1.293e+04 1.448e-09
  8.30316   -182.3 1.296e+04 1.582e-09
  8.32859   -183.4 1.295e+04 1.623e-09
  8.34815   -183.2 1.302e+04 2.253e-09
  8.38141   -183.7 1.279e+04 2.246e-09
  8.42053   -183.8 1.236e+04 1.885e-09
  8.45965   -183.5 1.195e+04 1.370e-09
  8.49877   -182.5 1.152e+04 9.530e-10
  8.53790   -181.0 1.124e+04 7.088e-10
  8.57702   -179.6 1.102e+04 5.528e-10
  8.61614   -178.1 1.076e+04 4.262e-10
  8.65526   -176.2 1.050e+04 3.255e-10
  8.69438   -174.1 1.037e+04 2.498e-10
  8.73351   -172.1 1.039e+04 1.997e-10
  8.77263   -170.1 1.045e+04 1.676e-10
  8.81175   -168.1 1.049e+04 1.477e-10
  8.85087   -166.2 1.050e+04 1.355e-10
  8.89000   -164.3 1.049e+04 1.280e-10
  8.92912   -162.5 1.049e+04 1.235e-10
  8.96824   -160.7 1.054e+04 1.206e-10
  9.00736   -159.1 1.058e+04 1.193e-10
  9.03436   -157.6 1.074e+04 1.193e-10
  9.05392   -157.6 1.072e+04 1.387e-10
  9.08561   -156.1 1.084e+04 1.639e-10
  9.12473   -154.8 1.095e+04 2.019e-10
  9.16385   -153.7 1.109e+04 2.473e-10
  9.20297   -152.8 1.122e+04 2.870e-10
  9.24210   -152.3 1.127e+04 3.048e-10
  9.28122   -151.7 1.128e+04 3.076e-10
  9.32034   -150.9 1.116e+04 2.916e-10
  9.35946   -149.9 1.102e+04 2.359e-10
  9.39858   -148.7 1.092e+04 1.810e-10
  9.43771   -147.5 1.085e+04 1.427e-10
  9.47683   -146.3 1.082e+04 1.209e-10
  9.51595   -145.1 1.080e+04 1.122e-10
  9.55507   -144.0 1.079e+04 1.101e-10
  9.59420   -143.1 1.077e+04 1.136e-10
  9.63332   -142.3 1.071e+04 1.254e-10
  9.67244   -141.5 1.066e+04 1.430e-10
  9.71156   -140.6 1.064e+04 1.642e-10
  9.74012   -139.6 1.062e+04 1.869e-10
  9.75969   -139.0 1.063e+04 1.351e-10
  9.78981   -137.9 1.059e+04 1.545e-10
  9.82893   -136.7 1.057e+04 1.748e-10
  9.86805   -135.5 1.057e+04 1.936e-10
  9.90717   -134.4 1.054e+04 2.078e-10
  9.94630   -133.2 1.052e+04 2.151e-10
  9.98542   -132.1 1.051e+04 2.164e-10
 10.02454   -130.9 1.044e+04 2.125e-10
 10.06366   -129.6 1.035e+04 1.995e-10
 10.10278   -128.2 1.026e+04 1.849e-10
 10.14191   -126.8 1.019e+04 1.740e-10
 10.18103   -125.3 1.015e+04 1.702e-10
 10.22015   -124.0 1.015e+04 1.697e-10
 10.25927   -123.1 1.020e+04 1.750e-10
 10.29840   -122.8 1.056e+04 2.726e-10
 10.33752   -122.4 1.107e+04 5.406e-10
 10.37664   -122.0 1.166e+04 9.671e-10
 10.41576   -121.9 1.219e+04 1.401e-09
 10.44589   -122.4 1.243e+04 1.587e-09
 10.46545   -122.5 1.219e+04 1.352e-09
 10.49401   -123.2 1.216e+04 1.338e-09
 10.53313   -123.3 1.186e+04 1.002e-09
 10.57225   -123.3 1.151e+04 6.033e-10
 10.61137   -123.2 1.121e+04 3.545e-10
 10.65050   -123.0 1.095e+04 2.495e-10
 10.68962   -122.2 1.082e+04 2.265e-10
 10.72874   -121.2 1.080e+04 2.237e-10
 10.76786   -120.4 1.086e+04 2.394e-10
 10.80698   -119.8 1.101e+04 2.830e-10
 10.84611   -119.3 1.115e+04 3.349e-10
 10.88523   -119.0 1.127e+04 3.914e-10
 10.92435   -118.9 1.138e+04 4.523e-10
 10.96347   -119.0 1.145e+04 5.067e-10
 11.00259   -119.1 1.150e+04 5.399e-10
 11.04172   -119.3 1.152e+04 5.491e-10
 11.08084   -119.4 1.151e+04 5.512e-10
 11.11996   -119.4 1.145e+04 5.191e-10
 11.15166   -119.3 1.137e+04 4.362e-10
 11.17122   -119.4 1.147e+04 3.624e-10
 11.19821   -119.2 1.135e+04 3.011e-10
 11.23733   -118.9 1.125e+04 2.274e-10
 11.27645   -118.4 1.118e+04 1.730e-10
 11.31557   -117.9 1.113e+04 1.454e-10
 11.35469   -117.1 1.108e+04 1.369e-10
 11.39382   -116.2 1.106e+04 1.352e-10
 11.43294   -115.2 1.105e+04 1.352e-10
 11.47206   -114.2 1.104e+04 1.354e-10
 11.51118   -113.2 1.101e+04 1.359e-10
 11.55031   -112.2 1.096e+04 1.390e-10
 11.58943   -111.1 1.092e+04 1.464e-10
 11.62855   -109.9 1.089e+04 1.558e-10
 11.66767   -108.6 1.088e+04 1.649e-10
 11.70679   -107.2 1.087e+04 1.699e-10
 11.74592   -105.8 1.085e+04 1.710e-10
 11.78504   -104.4 1.078e+04 1.605e-10
 11.82416   -102.8 1.074e+04 1.438e-10
 11.85742   -101.3 1.072e+04 1.283e-10
 11.87698   -101.3 1.080e+04 9.842e-11
 11.90241    -99.6 1.077e+04 9.314e-11
 11.94153    -97.8 1.074e+04 9.173e-11
 11.98065    -96.0 1.071e+04 9.182e-11
 12.01977    -94.0 1.070e+04 9.227e-11
 12.05889    -92.0 1.066e+04 9.259e-11
 12.09802    -90.0 1.066e+04 8.964e-11
 12.13714    -87.9 1.073e+04 8.303e-11
 12.17626    -85.8 1.085e+04 7.545e-11
 12.21538    -83.6 1.091e+04 6.923e-11
 12.25451    -81.5 1.088e+04 6.394e-11
 12.29363    -79.5 1.082e+04 5.918e-11
 12.33275    -77.4 1.076e+04 5.549e-11
 12.37187    -75.3 1.067e+04 5.359e-11
 12.41099    -73.1 1.061e+04 5.263e-11
 12.45012    -70.9 1.056e+04 5.208e-11
 12.48924    -68.5 1.054e+04 5.196e-11
 12.52836    -66.3 1.055e+04 5.222e-11
 12.56319    -64.7 1.072e+04 5.435e-11
 12.58275    -64.1 1.067e+04 5.526e-11
 12.60661    -62.7 1.083e+04 6.785e-11
 12.64573    -61.8 1.105e+04 1.164e-10
 12.68485    -60.6 1.132e+04 2.785e-10
 12.72397    -59.3 1.173e+04 6.595e-10
 12.76309    -58.2 1.218e+04 1.252e-09
 12.80222    -57.3 1.249e+04 1.725e-09
 12.84134    -56.8 1.254e+04 1.821e-09
 12.87428    -56.3 1.229e+04 1.512e-09
 12.89375    -55.6 1.228e+04 1.394e-09
 12.90961    -55.6 1.176e+04 8.971e-10
 12.92566    -55.5 1.149e+04 7.068e-10
 12.93544    -55.3 1.181e+04 1.039e-09
 12.94873    -55.5 1.144e+04 8.700e-10
 12.96829    -55.2 1.110e+04 8.087e-10
 12.98785    -54.2 1.076e+04 7.423e-10
 13.00741    -53.0 1.069e+04 6.961e-10
 13.02697    -51.9 1.078e+04 6.502e-10
 13.04654    -51.4 1.081e+04 6.168e-10
 13.06610    -50.1 1.089e+04 5.647e-10
 13.08566    -49.8 1.091e+04 5.490e-10
 13.10522    -48.8 1.101e+04 5.225e-10
 13.12478    -48.6 1.101e+04 5.197e-10
 13.14434    -48.0 1.117e+04 5.236e-10
 13.16390    -47.9 1.112e+04 5.666e-10
 13.18346    -47.4 1.104e+04 7.049e-10
 13.20302    -45.9 1.107e+04 8.566e-10
 13.22259    -44.5 1.129e+04 1.003e-09
 13.24215    -43.6 1.172e+04 1.147e-09
 13.26171    -43.6 1.259e+04 1.334e-09
 13.27854    -45.2 1.408e+04 1.908e-09
 13.28832    -46.0 1.399e+04 2.833e-09
 13.30083    -47.5 1.508e+04 4.995e-09
 13.32039    -47.8 1.571e+04 8.925e-09
 13.33995    -47.1 1.634e+04 1.324e-08
 13.35951    -45.9 1.670e+04 1.560e-08
 13.37907    -45.3 1.672e+04 1.538e-08
 13.39370    -45.1 1.629e+04 1.156e-08
 13.40343    -45.0 1.621e+04 1.091e-08
 13.41815    -45.4 1.564e+04 7.511e-09
 13.43776    -47.6 1.502e+04 5.391e-09
 13.45238    -49.5 1.460e+04 4.613e-09
 13.45977    -50.0 1.475e+04 4.672e-09
 13.46466    -49.9 1.457e+04 4.461e-09
 13.47189    -51.1 1.453e+04 4.351e-09
 13.48167    -51.4 1.475e+04 4.685e-09
 13.49145    -52.4 1.522e+04 5.565e-09
 13.50123    -53.3 1.650e+04 7.272e-09
 13.51101    -54.6 1.863e+04 1.059e-08
 13.52079    -56.0 2.134e+04 1.535e-08
 13.53058    -57.6 2.398e+04 2.157e-08
 13.54036    -59.7 2.561e+04 2.944e-08
 13.55014    -61.9 2.559e+04 4.162e-08
 13.55992    -64.0 2.434e+04 5.655e-08
 13.56970    -65.3 2.344e+04 6.457e-08
 13.57948    -66.3 2.194e+04 6.758e-08
 13.58926    -67.0 2.113e+04 6.227e-08
 13.59904    -67.9 2.097e+04 5.891e-08
 13.60882    -69.1 2.229e+04 6.344e-08
 13.61860    -70.9 2.391e+04 9.419e-08
 13.62838    -73.1 2.416e+04 1.812e-07
 13.63621    -75.1 2.376e+04 3.280e-07
 13.64108    -77.2 2.419e+04 3.395e-07
 13.64545    -78.6 2.390e+04 3.789e-07
 13.65034    -79.7 2.369e+04 4.064e-07
 13.65523    -81.8 2.301e+04 4.714e-07
 13.66012    -83.7 2.241e+04 5.479e-07
 13.66501    -85.3 2.171e+04 6.585e-07
 13.66990    -86.0 2.119e+04 7.718e-07
 13.67479    -86.2 2.086e+04 8.470e-07
 13.67968    -86.3 2.087e+04 8.500e-07
 13.68457    -86.5 2.110e+04 7.632e-07
 13.68946    -87.0 2.143e+04 6.325e-07
 13.69682    -87.5 2.168e+04 4.564e-07
 13.70662    -87.5 2.354e+04 2.079e-07
 13.71641    -88.7 2.572e+04 9.330e-08
 13.72619    -90.6 2.724e+04 4.326e-08
 13.73597    -92.5 2.700e+04 2.482e-08
 13.74575    -94.0 2.546e+04 1.628e-08
 13.75553    -95.4 2.342e+04 1.090e-08
 13.76531    -96.7 2.113e+04 7.087e-09
 13.77509    -98.2 1.845e+04 4.610e-09
 13.78981    -99.7 1.502e+04 3.186e-09
 13.80942    -99.2 1.334e+04 2.512e-09
 13.82898    -97.9 1.221e+04 1.939e-09
 13.84854    -96.8 1.166e+04 1.568e-09
 13.86810    -95.6 1.137e+04 1.299e-09
 13.88766    -94.2 1.114e+04 1.097e-09
 13.90722    -93.0 1.093e+04 9.477e-10
 13.92679    -91.7 1.067e+04 8.291e-10
 13.94635    -90.2 1.039e+04 7.231e-10
 13.96591    -88.4 1.028e+04 6.206e-10
 13.98431    -86.6 1.059e+04 5.376e-10
 13.99409    -85.8 1.076e+04 5.803e-10
 14.01491    -84.8 1.086e+04 5.885e-10
 14.05413    -82.8 1.083e+04 5.646e-10
 14.09325    -80.5 1.078e+04 5.377e-10
 14.13237    -78.3 1.078e+04 5.261e-10
 14.17149    -76.1 1.084e+04 5.272e-10
 14.21062    -74.2 1.084e+04 5.533e-10
 14.23986    -72.8 1.073e+04 5.753e-10
 14.25932    -72.3 1.090e+04 6.270e-10
 14.28876    -71.1 1.124e+04 7.419e-10
 14.32798    -70.1 1.142e+04 7.664e-10
 14.36711    -69.1 1.150e+04 7.466e-10
