# Columns:
#   distance along LOS (in CHIMPs)
#   peculiar velocity  (in km/s)
#   temperature (K)
#   HI number density
# pos=(201.003,155.791,50.6534), angles=(2.97066,1.72768)
  0.00836    -75.0 9.738e+03 4.442e-10
  0.02071    -74.4 9.738e+03 4.469e-10
  0.04453    -73.0 9.401e+03 3.540e-10
  0.08417    -71.5 9.136e+03 2.862e-10
  0.12381    -69.9 9.072e+03 2.678e-10
  0.16345    -68.8 9.126e+03 2.709e-10
  0.18904    -69.8 1.096e+04 4.619e-10
  0.20886    -66.6 9.376e+03 2.844e-10
  0.23272    -68.4 1.132e+04 5.282e-10
  0.25244    -71.4 1.299e+04 1.265e-09
  0.27226    -72.2 1.396e+04 2.695e-09
  0.29209    -72.1 1.463e+04 4.601e-09
  0.30643    -71.2 1.514e+04 5.992e-09
  0.31634    -70.8 1.512e+04 5.708e-09
  0.33173    -69.9 1.551e+04 6.673e-09
  0.35155    -69.5 1.562e+04 6.792e-09
  0.37137    -69.2 1.544e+04 5.506e-09
  0.39119    -70.6 1.491e+04 3.631e-09
  0.41101    -72.7 1.402e+04 2.334e-09
  0.42401    -74.5 1.325e+04 1.709e-09
  0.43392    -73.1 1.406e+04 2.709e-09
  0.45065    -74.3 1.375e+04 2.413e-09
  0.47047    -74.9 1.368e+04 2.283e-09
  0.49029    -75.3 1.361e+04 2.164e-09
  0.51011    -75.6 1.340e+04 1.921e-09
  0.52993    -76.0 1.287e+04 1.552e-09
  0.54159    -76.7 1.204e+04 1.181e-09
  0.55150    -74.9 1.386e+04 2.275e-09
  0.56957    -75.6 1.277e+04 1.471e-09
  0.58939    -76.5 1.149e+04 1.041e-09
  0.60921    -77.2 1.082e+04 9.236e-10
  0.62903    -77.4 1.071e+04 9.526e-10
  0.64885    -77.1 1.083e+04 1.028e-09
  0.65918    -76.7 1.117e+04 1.214e-09
  0.66909    -76.3 1.081e+04 9.940e-10
  0.68849    -75.8 1.111e+04 1.175e-09
  0.70831    -75.2 1.155e+04 1.436e-09
  0.72813    -74.4 1.193e+04 1.680e-09
  0.74473    -73.6 1.203e+04 1.759e-09
  0.75464    -73.8 1.195e+04 1.716e-09
  0.76685    -73.0 1.189e+04 1.670e-09
  0.77676    -72.8 1.167e+04 1.572e-09
  0.78759    -71.9 1.169e+04 1.543e-09
  0.80741    -71.0 1.143e+04 1.353e-09
  0.83724    -69.9 1.094e+04 1.000e-09
  0.87472    -67.9 9.950e+03 5.475e-10
  0.89445    -66.4 1.028e+04 6.845e-10
  0.90651    -65.6 1.002e+04 5.717e-10
  0.92633    -64.8 9.805e+03 4.925e-10
  0.95616    -62.8 9.395e+03 3.670e-10
  0.99589    -60.7 8.975e+03 2.692e-10
  1.03553    -58.4 8.781e+03 2.306e-10
  1.07517    -56.0 8.731e+03 2.212e-10
  1.10989    -54.1 8.837e+03 2.269e-10
  1.12971    -53.0 9.392e+03 3.583e-10
  1.15445    -51.5 9.802e+03 4.487e-10
  1.18409    -50.3 9.987e+03 4.842e-10
  1.20381    -50.2 1.005e+04 4.945e-10
  1.22363    -49.4 1.014e+04 5.062e-10
  1.23719    -49.1 1.012e+04 5.038e-10
  1.24710    -48.6 1.049e+04 6.926e-10
  1.26327    -47.9 1.037e+04 6.478e-10
  1.28309    -47.3 1.017e+04 5.152e-10
  1.31292    -46.9 9.820e+03 3.690e-10
  1.34506    -46.2 9.341e+03 2.722e-10
  1.36488    -44.9 9.677e+03 3.255e-10
  1.39230    -44.0 9.230e+03 2.510e-10
  1.43194    -42.7 9.140e+03 2.422e-10
  1.46913    -41.9 9.462e+03 3.034e-10
  1.48886    -42.1 9.594e+03 3.476e-10
  1.50111    -42.1 1.009e+04 4.941e-10
  1.52093    -42.8 1.059e+04 6.895e-10
  1.54075    -42.9 1.104e+04 9.530e-10
  1.56057    -42.8 1.138e+04 1.232e-09
  1.58004    -42.3 1.159e+04 1.440e-09
  1.58995    -41.8 1.164e+04 1.462e-09
  1.60021    -41.4 1.171e+04 1.544e-09
  1.62003    -41.0 1.165e+04 1.538e-09
  1.63985    -40.6 1.139e+04 1.309e-09
  1.65967    -40.6 1.109e+04 1.080e-09
  1.67949    -40.9 1.083e+04 9.248e-10
  1.70932    -41.1 1.058e+04 8.229e-10
  1.74906    -39.9 1.025e+04 7.190e-10
  1.78870    -38.3 9.990e+03 6.103e-10
  1.81540    -36.9 9.600e+03 4.701e-10
  1.83522    -36.6 9.406e+03 4.101e-10
  1.86798    -35.2 8.924e+03 2.904e-10
  1.90762    -33.7 8.660e+03 2.359e-10
  1.94726    -31.9 8.578e+03 2.219e-10
  1.98690    -29.9 8.593e+03 2.223e-10
  2.02654    -28.2 8.802e+03 2.482e-10
  2.05057    -26.7 9.071e+03 3.202e-10
  2.07039    -26.1 8.883e+03 2.607e-10
  2.10582    -24.3 9.195e+03 3.731e-10
  2.14546    -21.9 9.543e+03 5.076e-10
  2.18510    -19.4 9.758e+03 5.798e-10
  2.22474    -17.2 9.758e+03 5.456e-10
  2.26438    -14.9 9.485e+03 4.285e-10
  2.28574    -12.8 9.214e+03 3.258e-10
  2.30556    -12.0 9.298e+03 3.598e-10
  2.34366     -9.9 9.099e+03 2.916e-10
  2.38330     -7.8 9.016e+03 2.450e-10
  2.42294     -5.9 9.013e+03 2.278e-10
  2.46258     -4.0 9.087e+03 2.349e-10
  2.50109     -2.1 9.202e+03 2.846e-10
  2.52091     -1.2 9.408e+03 3.244e-10
  2.54186      0.7 9.576e+03 3.868e-10
  2.58150      2.5 9.764e+03 4.692e-10
  2.62114      4.5 9.889e+03 5.780e-10
  2.66078      6.9 9.865e+03 6.201e-10
  2.70042     10.0 9.644e+03 5.585e-10
  2.73626     13.1 9.272e+03 4.092e-10
  2.75608     13.8 9.051e+03 3.160e-10
  2.77970     16.2 8.760e+03 2.259e-10
  2.81934     18.6 8.499e+03 1.779e-10
  2.85898     21.3 8.307e+03 1.544e-10
  2.89862     24.2 8.206e+03 1.421e-10
  2.93737     27.2 8.151e+03 1.337e-10
  2.95719     27.4 8.157e+03 1.434e-10
  2.97143     30.5 8.111e+03 1.365e-10
  2.99125     31.2 8.081e+03 1.342e-10
  3.01754     34.2 8.055e+03 1.307e-10
  3.05718     37.3 8.066e+03 1.322e-10
  3.09682     40.4 8.117e+03 1.397e-10
  3.13646     43.4 8.187e+03 1.524e-10
  3.17610     46.5 8.250e+03 1.678e-10
  3.20660     49.7 8.328e+03 1.857e-10
  3.22642     50.3 8.231e+03 1.600e-10
  3.25538     53.3 8.257e+03 1.666e-10
  3.29502     56.3 8.330e+03 1.779e-10
  3.33467     59.4 8.562e+03 2.032e-10
  3.37431     62.2 8.900e+03 2.439e-10
  3.40394     63.7 8.980e+03 2.582e-10
  3.42366     64.6 9.183e+03 2.829e-10
  3.44157     65.0 9.558e+03 3.663e-10
  3.45148     66.0 9.247e+03 2.919e-10
  3.46330     66.1 9.722e+03 4.029e-10
  3.48312     66.2 1.036e+04 6.297e-10
  3.50294     66.0 1.145e+04 1.068e-09
  3.52276     65.4 1.278e+04 1.860e-09
  3.54258     64.5 1.390e+04 3.045e-09
  3.55916     63.6 1.465e+04 4.361e-09
  3.56907     64.4 1.406e+04 2.776e-09
  3.58222     62.6 1.471e+04 3.845e-09
  3.60204     60.8 1.461e+04 4.023e-09
  3.62186     59.4 1.432e+04 3.818e-09
  3.64168     57.9 1.384e+04 3.357e-09
  3.66150     55.0 1.484e+04 3.314e-09
  3.67674     48.8 1.861e+04 4.693e-09
  3.68649     41.0 2.128e+04 7.137e-09
  3.69107     47.1 2.009e+04 5.910e-09
  3.69614     44.2 2.244e+04 7.606e-09
  3.70600     36.2 2.956e+04 1.534e-08
  3.71591     28.3 2.927e+04 6.103e-08
  3.72582     24.1 2.425e+04 2.804e-07
  3.73544     21.3 2.163e+04 8.963e-07
  3.74039     18.2 2.170e+04 8.332e-07
  3.74564     15.2 2.358e+04 4.775e-07
  3.75555      8.3 3.035e+04 1.148e-07
  3.76546     -5.2 3.863e+04 1.462e-08
  3.77537    -24.7 2.279e+04 4.725e-09
  3.78528    -31.9 1.522e+04 3.744e-09
  3.79423    -33.7 1.485e+04 3.735e-09
  3.79919    -33.2 1.427e+04 3.079e-09
  3.80510    -33.8 1.455e+04 3.238e-09
  3.82001    -34.5 1.420e+04 2.630e-09
  3.83988    -35.9 1.422e+04 2.170e-09
  3.85970    -38.4 1.334e+04 1.446e-09
  3.87952    -42.0 1.222e+04 1.101e-09
  3.89934    -45.3 1.135e+04 9.726e-10
  3.91191    -47.1 1.136e+04 1.101e-09
  3.92182    -46.0 1.072e+04 8.169e-10
  3.93898    -47.2 1.138e+04 1.160e-09
  3.95880    -48.2 1.217e+04 1.685e-09
  3.97862    -48.6 1.294e+04 2.416e-09
  3.99844    -48.5 1.355e+04 3.206e-09
  4.01826    -48.2 1.384e+04 3.599e-09
  4.02950    -48.1 1.371e+04 3.460e-09
  4.03941    -47.4 1.356e+04 3.302e-09
  4.05790    -47.5 1.332e+04 2.928e-09
  4.07772    -47.6 1.289e+04 2.193e-09
  4.09754    -48.9 1.240e+04 1.438e-09
  4.11736    -51.4 1.164e+04 8.861e-10
  4.13717    -54.6 1.068e+04 6.350e-10
  4.15699    -55.7 1.033e+04 6.193e-10
  4.17682    -56.9 1.012e+04 6.073e-10
  4.19664    -57.2 1.016e+04 6.756e-10
  4.21646    -57.3 1.019e+04 6.950e-10
  4.23628    -57.4 1.007e+04 6.799e-10
  4.25476    -57.5 9.777e+03 5.611e-10
  4.26467    -56.9 9.757e+03 5.335e-10
  4.28593    -57.9 9.352e+03 3.933e-10
  4.32567    -58.4 8.957e+03 3.050e-10
  4.36263    -58.4 8.634e+03 2.478e-10
  4.38245    -57.6 8.711e+03 2.497e-10
  4.40495    -57.6 8.664e+03 2.390e-10
  4.42544    -57.5 8.761e+03 2.520e-10
  4.44526    -58.5 8.965e+03 2.867e-10
  4.48423    -58.2 9.284e+03 3.590e-10
  4.52387    -57.5 9.514e+03 4.178e-10
  4.56351    -56.6 9.587e+03 4.316e-10
  4.59780    -55.7 9.541e+03 4.003e-10
  4.61762    -55.9 9.228e+03 3.213e-10
  4.64279    -54.7 8.946e+03 2.688e-10
  4.68243    -53.2 8.702e+03 2.310e-10
  4.72207    -51.6 8.573e+03 2.121e-10
  4.76171    -49.9 8.544e+03 2.088e-10
  4.80135    -47.9 8.557e+03 2.178e-10
  4.83297    -45.9 8.581e+03 2.377e-10
  4.85279    -45.8 8.507e+03 2.217e-10
  4.88063    -43.5 8.501e+03 2.270e-10
  4.92027    -41.1 8.405e+03 2.243e-10
  4.95991    -38.4 8.202e+03 1.989e-10
  4.99955    -35.6 7.970e+03 1.609e-10
  5.03919    -32.8 7.742e+03 1.240e-10
  5.06814    -30.1 7.528e+03 9.526e-11
  5.08796    -30.1 7.558e+03 9.737e-11
  5.11847    -27.3 7.419e+03 8.150e-11
  5.15811    -24.4 7.328e+03 7.195e-11
  5.19775    -21.6 7.252e+03 6.618e-11
  5.23739    -18.6 7.208e+03 6.423e-11
  5.27703    -15.7 7.210e+03 6.463e-11
  5.30331    -12.8 7.203e+03 6.824e-11
  5.32313    -12.9 7.321e+03 7.827e-11
  5.35631     -9.7 7.392e+03 8.674e-11
  5.39596     -6.7 7.447e+03 9.006e-11
  5.43560     -3.8 7.464e+03 8.809e-11
  5.47524     -1.2 7.535e+03 8.619e-11
  5.51488      1.0 7.659e+03 9.346e-11
  5.53848      3.4 7.796e+03 1.090e-10
  5.55830      2.7 8.157e+03 1.644e-10
  5.59416      5.2 8.366e+03 1.987e-10
  5.63380      7.6 8.613e+03 2.367e-10
  5.67344      9.9 8.922e+03 2.889e-10
  5.71308     12.1 9.362e+03 3.662e-10
  5.75272     14.1 9.765e+03 4.697e-10
  5.77355     15.1 1.008e+04 5.602e-10
  5.78336     14.5 1.010e+04 5.668e-10
  5.80207     15.3 1.028e+04 6.217e-10
  5.82189     16.2 1.041e+04 6.538e-10
  5.84171     17.0 1.053e+04 6.693e-10
  5.86153     17.8 1.062e+04 6.783e-10
  5.88113     18.6 1.066e+04 6.694e-10
  5.89104     17.7 1.084e+04 7.190e-10
  5.89348     18.2 1.095e+04 7.492e-10
  5.90339     18.8 1.089e+04 7.225e-10
  5.92099     19.4 1.103e+04 7.665e-10
  5.94081     19.7 1.126e+04 8.441e-10
  5.96063     20.0 1.149e+04 9.399e-10
  5.98045     20.4 1.173e+04 1.035e-09
  5.99871     20.8 1.196e+04 1.109e-09
  6.00862     20.4 1.264e+04 1.592e-09
  6.02009     20.5 1.318e+04 1.745e-09
  6.03991     20.1 1.393e+04 1.874e-09
  6.05973     19.5 1.456e+04 1.905e-09
  6.07955     18.9 1.459e+04 1.795e-09
  6.09937     18.2 1.418e+04 1.572e-09
  6.11630     17.6 1.332e+04 1.336e-09
  6.12621     17.2 1.395e+04 2.150e-09
  6.13901     17.0 1.304e+04 1.632e-09
  6.15883     17.0 1.228e+04 1.254e-09
  6.17865     17.4 1.171e+04 9.822e-10
  6.19847     18.0 1.129e+04 7.883e-10
  6.21829     18.5 1.098e+04 6.295e-10
  6.23388     18.8 1.073e+04 5.212e-10
  6.24379     17.8 1.067e+04 5.100e-10
  6.25793     18.2 1.046e+04 3.981e-10
  6.27775     18.2 1.043e+04 3.852e-10
  6.30758     20.0 1.034e+04 3.734e-10
  6.34732     21.9 1.029e+04 3.647e-10
  6.38696     23.8 1.031e+04 3.650e-10
  6.42660     25.4 1.034e+04 3.694e-10
  6.45623     26.1 1.018e+04 3.481e-10
  6.46905     26.4 1.019e+04 3.534e-10
  6.47906     25.7 9.727e+03 2.798e-10
  6.49587     26.6 9.933e+03 3.096e-10
  6.51560     27.0 1.011e+04 3.379e-10
  6.53542     27.0 1.034e+04 3.927e-10
  6.55524     26.3 1.111e+04 5.413e-10
  6.57506     23.9 1.252e+04 9.371e-10
  6.58663     21.1 1.374e+04 1.788e-09
  6.59654     20.7 1.289e+04 1.303e-09
  6.61470     19.3 1.384e+04 2.404e-09
  6.62760     19.7 1.455e+04 3.699e-09
  6.63751     19.5 1.487e+04 4.110e-09
  6.65434     20.2 1.522e+04 4.756e-09
  6.67416     20.9 1.516e+04 4.438e-09
  6.69398     21.1 1.492e+04 3.258e-09
  6.70422     20.1 1.452e+04 1.922e-09
  6.71413     20.6 1.405e+04 1.848e-09
  6.73362     18.6 1.333e+04 1.045e-09
  6.75344     15.9 1.182e+04 6.082e-10
  6.77326     14.7 1.043e+04 4.120e-10
  6.79308     14.2 1.003e+04 3.336e-10
  6.81189     14.7 9.972e+03 2.658e-10
  6.82180     15.0 1.026e+04 2.987e-10
  6.83272     14.9 1.017e+04 2.751e-10
  6.85254     15.1 1.013e+04 2.628e-10
  6.87236     15.0 1.014e+04 2.682e-10
  6.89218     14.8 1.020e+04 3.024e-10
  6.91200     13.8 1.071e+04 3.987e-10
  6.92948     12.1 1.163e+04 6.390e-10
  6.93939     10.8 1.255e+04 1.072e-09
  6.95164     10.1 1.305e+04 1.666e-09
  6.97146     10.5 1.331e+04 2.284e-09
  6.99128     11.2 1.352e+04 2.666e-09
  7.01110     11.6 1.382e+04 2.672e-09
  7.03092     11.4 1.399e+04 2.499e-09
  7.04706     10.3 1.418e+04 2.315e-09
  7.05697      8.4 1.428e+04 2.179e-09
  7.07056      6.5 1.416e+04 2.165e-09
  7.09038      5.1 1.408e+04 2.314e-09
  7.11020      4.3 1.409e+04 2.616e-09
  7.13002      3.5 1.450e+04 3.020e-09
  7.14984      1.0 1.629e+04 3.959e-09
  7.16460     -3.9 1.742e+04 4.671e-09
  7.17451     -4.2 1.683e+04 3.905e-09
  7.18948     -8.0 1.669e+04 5.216e-09
  7.20930    -11.3 1.655e+04 5.256e-09
  7.22912    -14.0 1.613e+04 4.168e-09
  7.24894    -17.6 1.491e+04 2.870e-09
  7.26876    -21.0 1.367e+04 1.886e-09
  7.28223    -22.7 1.244e+04 1.287e-09
  7.29214    -21.4 1.269e+04 1.344e-09
  7.30840    -21.8 1.201e+04 1.073e-09
  7.32822    -21.6 1.194e+04 9.134e-10
  7.34804    -21.5 1.191e+04 8.078e-10
  7.36172    -21.4 1.183e+04 7.755e-10
  7.37163    -22.3 1.182e+04 7.892e-10
  7.38768    -21.9 1.181e+04 8.067e-10
  7.39982    -21.5 1.189e+04 8.800e-10
  7.40973    -21.2 1.177e+04 7.747e-10
  7.42732    -20.9 1.184e+04 8.830e-10
  7.44714    -20.3 1.208e+04 1.052e-09
  7.46696    -20.0 1.232e+04 1.245e-09
  7.48678    -19.6 1.260e+04 1.545e-09
  7.50660    -19.4 1.298e+04 1.812e-09
  7.51740    -19.0 1.321e+04 2.139e-09
  7.52731    -18.9 1.281e+04 1.796e-09
  7.54624    -18.4 1.293e+04 1.876e-09
  7.56606    -17.9 1.299e+04 1.748e-09
  7.58588    -17.3 1.292e+04 1.436e-09
  7.60570    -17.3 1.257e+04 1.081e-09
  7.62508    -17.5 1.188e+04 8.185e-10
  7.63499    -17.8 1.152e+04 7.330e-10
  7.64534    -17.8 1.110e+04 6.026e-10
  7.66516    -17.6 1.088e+04 5.221e-10
  7.68498    -17.3 1.085e+04 4.526e-10
  7.70480    -17.2 1.071e+04 4.128e-10
  7.73463    -16.1 1.050e+04 3.356e-10
  7.77437    -13.6 1.002e+04 2.670e-10
  7.81401    -10.9 9.728e+03 1.826e-10
  7.85053     -9.1 9.632e+03 1.312e-10
  7.87035     -8.9 9.706e+03 1.305e-10
  7.89329     -7.0 9.722e+03 1.297e-10
  7.93293     -4.6 9.797e+03 1.557e-10
  7.97257     -1.8 9.937e+03 1.920e-10
  8.01221      1.1 1.011e+04 2.262e-10
  8.05185      3.8 1.027e+04 2.572e-10
  8.08570      6.4 1.040e+04 2.854e-10
  8.10552      6.0 1.085e+04 4.540e-10
  8.13113      8.5 1.095e+04 4.852e-10
  8.16076     10.8 1.089e+04 4.846e-10
  8.18048     11.3 1.098e+04 5.109e-10
  8.20030     12.6 1.087e+04 5.234e-10
  8.21300     13.8 1.086e+04 5.553e-10
  8.22291     13.6 1.090e+04 5.981e-10
  8.23994     15.1 1.082e+04 5.714e-10
  8.25976     16.2 1.079e+04 5.523e-10
  8.27958     17.8 1.065e+04 4.901e-10
  8.29940     18.6 1.062e+04 4.602e-10
  8.32077     20.3 1.044e+04 3.760e-10
  8.34059     20.2 1.050e+04 3.635e-10
  8.35886     21.4 1.037e+04 3.459e-10
  8.37868     22.0 1.039e+04 3.491e-10
  8.39850     22.9 1.039e+04 3.639e-10
  8.41832     23.5 1.048e+04 4.052e-10
  8.43814     23.9 1.081e+04 4.796e-10
  8.44817     23.7 1.126e+04 6.183e-10
  8.45808     22.7 1.140e+04 6.204e-10
  8.47778     22.6 1.172e+04 8.604e-10
  8.49760     22.8 1.203e+04 1.167e-09
  8.51742     23.0 1.238e+04 1.503e-09
  8.53725     22.9 1.275e+04 1.813e-09
  8.55585     22.1 1.303e+04 1.966e-09
  8.56576     19.8 1.371e+04 2.284e-09
  8.57689     18.9 1.394e+04 2.887e-09
  8.59671     18.9 1.377e+04 2.939e-09
  8.61653     19.3 1.338e+04 2.714e-09
  8.63635     19.7 1.296e+04 2.122e-09
  8.65617     19.4 1.270e+04 1.507e-09
  8.67343     18.1 1.257e+04 1.112e-09
  8.68334     17.7 1.323e+04 1.642e-09
  8.69581     15.6 1.282e+04 1.375e-09
  8.71563     14.5 1.255e+04 1.361e-09
  8.73545     14.1 1.255e+04 1.405e-09
  8.75527     13.8 1.267e+04 1.471e-09
  8.77509     13.4 1.278e+04 1.531e-09
  8.79102     12.8 1.272e+04 1.581e-09
  8.80093     12.4 1.316e+04 2.168e-09
  8.81473     12.0 1.298e+04 2.228e-09
  8.82996     11.6 1.290e+04 2.187e-09
  8.83987     11.3 1.277e+04 2.079e-09
  8.85437     10.9 1.269e+04 1.870e-09
  8.87419     10.3 1.262e+04 1.668e-09
  8.89401      9.5 1.249e+04 1.501e-09
  8.90860      8.8 1.225e+04 1.361e-09
  8.91851      8.7 1.205e+04 1.116e-09
  8.93365      8.0 1.165e+04 1.018e-09
  8.95347      7.9 1.141e+04 9.792e-10
  8.97329      7.9 1.129e+04 9.651e-10
  8.99311      8.0 1.126e+04 9.734e-10
  9.01293      8.2 1.133e+04 1.006e-09
  9.02619      8.2 1.146e+04 1.069e-09
  9.03610      8.5 1.141e+04 1.046e-09
  9.05257      8.7 1.157e+04 1.137e-09
  9.07239      8.9 1.176e+04 1.264e-09
  9.09221      9.1 1.204e+04 1.442e-09
  9.11203      8.9 1.259e+04 1.744e-09
  9.13185      8.3 1.334e+04 2.302e-09
  9.14377      7.7 1.406e+04 3.225e-09
  9.15368      8.9 1.375e+04 2.676e-09
  9.17149      8.3 1.459e+04 3.944e-09
  9.19131      8.0 1.541e+04 5.668e-09
  9.21113      7.5 1.668e+04 8.082e-09
  9.23095      6.8 1.783e+04 1.147e-08
  9.25077      5.6 1.865e+04 1.343e-08
  9.26135      3.2 1.884e+04 1.282e-08
  9.27126      3.6 1.983e+04 1.804e-08
  9.29041      1.0 1.942e+04 1.585e-08
  9.31023     -1.5 1.827e+04 1.242e-08
  9.33005     -3.2 1.689e+04 9.350e-09
  9.34987     -4.1 1.579e+04 6.825e-09
  9.36903     -4.7 1.502e+04 5.309e-09
  9.37894     -4.2 1.473e+04 4.428e-09
  9.38951     -5.3 1.404e+04 3.059e-09
  9.40933     -6.8 1.346e+04 2.242e-09
  9.42915     -8.0 1.290e+04 1.708e-09
  9.44897     -8.9 1.231e+04 1.418e-09
  9.46879     -9.4 1.184e+04 1.206e-09
  9.48661     -9.8 1.150e+04 1.122e-09
  9.49652    -10.1 1.152e+04 1.072e-09
  9.50843    -10.9 1.175e+04 9.806e-10
  9.52825    -12.0 1.208e+04 1.063e-09
  9.54807    -12.7 1.239e+04 1.175e-09
  9.56408    -13.0 1.262e+04 1.398e-09
  9.57399    -11.7 1.196e+04 8.677e-10
  9.58771    -12.0 1.231e+04 9.892e-10
  9.60420    -12.3 1.250e+04 1.140e-09
  9.61411    -13.2 1.209e+04 8.991e-10
  9.62735    -13.6 1.200e+04 1.073e-09
  9.64717    -14.0 1.221e+04 1.285e-09
  9.66699    -14.4 1.269e+04 1.580e-09
  9.68681    -14.6 1.291e+04 2.040e-09
  9.70663    -14.2 1.328e+04 2.565e-09
  9.72178    -13.6 1.341e+04 2.847e-09
  9.73169    -13.1 1.299e+04 2.268e-09
  9.74627    -12.6 1.290e+04 2.206e-09
  9.76609    -12.3 1.284e+04 1.903e-09
  9.78591    -12.1 1.258e+04 1.706e-09
  9.80573    -12.0 1.250e+04 1.397e-09
  9.82555    -12.0 1.224e+04 1.283e-09
  9.83937    -11.8 1.220e+04 1.169e-09
  9.84928    -11.1 1.186e+04 1.051e-09
  9.86519    -10.7 1.212e+04 9.385e-10
  9.88501    -10.3 1.185e+04 1.037e-09
  9.90483     -9.7 1.233e+04 9.914e-10
  9.92465     -9.5 1.253e+04 1.066e-09
  9.94447     -9.0 1.229e+04 1.181e-09
  9.95695     -8.2 1.225e+04 1.297e-09
  9.96686     -7.7 1.218e+04 1.037e-09
  9.98411     -7.2 1.232e+04 1.173e-09
 10.00393     -6.9 1.259e+04 1.389e-09
 10.02375     -6.7 1.285e+04 1.671e-09
 10.04357     -6.4 1.310e+04 2.028e-09
 10.06339     -5.7 1.328e+04 2.400e-09
 10.07454     -4.8 1.347e+04 2.658e-09
 10.08445     -4.8 1.355e+04 2.791e-09
 10.10303     -3.8 1.366e+04 2.950e-09
 10.12285     -2.9 1.379e+04 2.929e-09
 10.14267     -2.8 1.392e+04 2.713e-09
 10.16249     -3.1 1.410e+04 2.724e-09
 10.18221     -3.7 1.433e+04 2.937e-09
 10.19212     -3.7 1.445e+04 3.347e-09
 10.20213     -4.0 1.468e+04 3.927e-09
 10.22195     -3.9 1.497e+04 4.693e-09
 10.24177     -3.2 1.523e+04 5.367e-09
 10.26159     -2.6 1.532e+04 5.418e-09
 10.28141     -1.6 1.516e+04 4.983e-09
 10.29820     -0.8 1.484e+04 3.971e-09
 10.30668     -1.1 1.549e+04 5.762e-09
 10.30971     -1.2 1.561e+04 6.693e-09
 10.32105     -0.3 1.511e+04 5.024e-09
 10.34087      0.6 1.436e+04 3.318e-09
 10.36069      0.9 1.362e+04 2.131e-09
 10.38051      1.2 1.299e+04 1.444e-09
 10.40033      1.4 1.261e+04 1.131e-09
 10.41738      2.2 1.214e+04 9.192e-10
 10.42729      1.9 1.270e+04 1.146e-09
 10.43997      2.7 1.241e+04 1.009e-09
 10.45979      4.0 1.231e+04 9.843e-10
 10.47961      5.3 1.239e+04 1.007e-09
 10.49943      6.4 1.246e+04 1.030e-09
 10.51925      7.4 1.255e+04 1.070e-09
 10.53497      8.4 1.280e+04 1.197e-09
 10.54488      7.5 1.341e+04 1.680e-09
 10.55889      8.2 1.376e+04 2.073e-09
 10.57871      8.9 1.405e+04 2.543e-09
