# Columns:
#   distance along LOS (in CHIMPs)
#   peculiar velocity  (in km/s)
#   temperature (K)
#   HI number density
# pos=(225.093,217.809,49.1452), angles=(1.65884,1.39719)
  0.01544   -134.4 1.079e+04 5.188e-10
  0.05078   -133.5 1.097e+04 5.822e-10
  0.09059   -132.6 1.122e+04 6.726e-10
  0.12693   -131.8 1.144e+04 7.411e-10
  0.14683   -130.3 1.153e+04 8.130e-10
  0.17022   -129.7 1.181e+04 9.146e-10
  0.21003   -129.2 1.189e+04 9.339e-10
  0.24421   -128.8 1.196e+04 8.857e-10
  0.26412   -128.7 1.194e+04 7.920e-10
  0.28966   -128.0 1.197e+04 7.305e-10
  0.32947   -127.4 1.201e+04 7.209e-10
  0.35988   -127.1 1.235e+04 8.111e-10
  0.37978   -125.6 1.289e+04 1.120e-09
  0.39904   -126.5 1.309e+04 1.211e-09
  0.41885   -126.8 1.338e+04 1.504e-09
  0.43876   -127.2 1.374e+04 1.953e-09
  0.45867   -127.8 1.414e+04 2.449e-09
  0.47452   -128.8 1.454e+04 2.848e-09
  0.48205   -129.4 1.534e+04 2.936e-09
  0.48611   -131.1 1.713e+04 6.988e-09
  0.49848   -133.6 1.813e+04 9.438e-09
  0.51838   -136.1 1.845e+04 1.147e-08
  0.53829   -138.0 1.828e+04 1.236e-08
  0.55317   -138.7 1.792e+04 1.126e-08
  0.56308   -139.3 1.780e+04 1.166e-08
  0.57303   -139.9 1.764e+04 1.182e-08
  0.58298   -140.2 1.755e+04 1.196e-08
  0.58967   -140.6 1.702e+04 1.221e-08
  0.59424   -140.5 1.736e+04 1.419e-08
  0.59751   -140.5 1.698e+04 1.250e-08
  0.60289   -141.0 1.655e+04 1.018e-08
  0.61284   -141.7 1.594e+04 8.085e-09
  0.62280   -142.2 1.538e+04 6.680e-09
  0.63777   -142.5 1.492e+04 5.609e-09
  0.65773   -142.7 1.408e+04 3.669e-09
  0.67764   -143.1 1.296e+04 2.028e-09
  0.69506   -143.7 1.196e+04 1.126e-09
  0.70502   -144.5 1.146e+04 7.168e-10
  0.70910   -144.9 1.090e+04 4.484e-10
  0.71906   -145.2 1.101e+04 4.572e-10
  0.73736   -145.1 1.067e+04 3.413e-10
  0.76731   -145.0 1.042e+04 2.782e-10
  0.80587   -144.4 1.023e+04 2.498e-10
  0.82577   -144.3 1.034e+04 3.160e-10
  0.84704   -143.2 1.008e+04 2.808e-10
  0.88685   -142.1 9.859e+03 2.571e-10
  0.92666   -141.1 9.691e+03 2.352e-10
  0.96647   -140.0 9.558e+03 2.118e-10
  1.00629   -138.9 9.436e+03 1.856e-10
  1.03882   -137.6 9.329e+03 1.606e-10
  1.05872   -137.0 9.288e+03 1.617e-10
  1.08591   -135.7 9.237e+03 1.500e-10
  1.12573   -134.4 9.229e+03 1.474e-10
  1.14630   -133.1 9.251e+03 1.500e-10
  1.16621   -133.0 9.266e+03 1.600e-10
  1.20535   -132.0 9.412e+03 1.881e-10
  1.24516   -131.0 9.549e+03 2.253e-10
  1.27177   -130.2 9.646e+03 2.551e-10
  1.29167   -129.7 9.645e+03 2.519e-10
  1.32479   -129.0 9.659e+03 2.572e-10
  1.36460   -128.1 9.601e+03 2.536e-10
  1.40442   -126.9 9.440e+03 2.179e-10
  1.44423   -125.6 9.300e+03 1.703e-10
  1.48404   -124.2 9.195e+03 1.304e-10
  1.50471   -122.9 9.128e+03 1.008e-10
  1.52462   -122.4 9.130e+03 1.059e-10
  1.56367   -121.0 9.089e+03 8.796e-11
  1.58739   -119.6 9.082e+03 7.815e-11
  1.60730   -119.5 9.069e+03 7.789e-11
  1.64329   -118.0 9.088e+03 7.605e-11
  1.68311   -116.7 9.113e+03 7.590e-11
  1.71776   -115.7 9.374e+03 8.300e-11
  1.73766   -115.2 9.409e+03 1.021e-10
  1.76273   -114.3 9.551e+03 1.330e-10
  1.80254   -113.4 9.686e+03 1.792e-10
  1.84236   -112.4 9.840e+03 2.351e-10
  1.88217   -111.4 9.989e+03 2.893e-10
  1.92198   -110.3 1.009e+04 3.270e-10
  1.95070   -109.1 1.013e+04 3.397e-10
  1.97061   -108.8 1.025e+04 3.840e-10
  2.00161   -107.5 1.025e+04 3.891e-10
  2.02848   -106.0 1.015e+04 3.743e-10
  2.04839   -106.9 1.010e+04 3.572e-10
  2.08123   -105.3 1.004e+04 3.068e-10
  2.12105   -103.5 1.003e+04 2.728e-10
  2.16086   -101.7 1.006e+04 2.612e-10
  2.18365   -100.0 1.014e+04 2.608e-10
  2.20356    -99.3 9.973e+03 2.422e-10
  2.24049    -97.5 1.015e+04 2.502e-10
  2.28030    -95.9 1.039e+04 3.101e-10
  2.32011    -94.4 1.055e+04 4.018e-10
  2.35992    -92.9 1.066e+04 4.857e-10
  2.39670    -91.6 1.068e+04 5.239e-10
  2.41660    -90.7 1.084e+04 5.648e-10
  2.43955    -89.5 1.084e+04 6.174e-10
  2.46957    -88.2 1.081e+04 6.254e-10
  2.48948    -89.5 1.083e+04 5.909e-10
  2.51918    -88.3 1.076e+04 5.856e-10
  2.55899    -86.9 1.060e+04 5.390e-10
  2.59880    -85.5 1.041e+04 4.624e-10
  2.62964    -83.9 1.020e+04 3.823e-10
  2.64955    -83.4 1.065e+04 5.831e-10
  2.67843    -81.8 1.036e+04 4.541e-10
  2.71824    -80.1 1.012e+04 3.656e-10
  2.75805    -78.3 9.916e+03 3.125e-10
  2.79787    -76.4 9.751e+03 2.780e-10
  2.83768    -74.3 9.616e+03 2.500e-10
  2.86259    -72.2 9.483e+03 2.222e-10
  2.88250    -71.5 9.608e+03 2.746e-10
  2.91066    -69.2 9.444e+03 2.339e-10
  2.93057    -69.3 9.354e+03 1.602e-10
  2.95712    -67.1 9.323e+03 1.277e-10
  2.99693    -64.9 9.330e+03 1.014e-10
  3.03674    -63.0 9.326e+03 8.279e-11
  3.07563    -61.1 9.292e+03 7.128e-11
  3.09554    -59.9 9.299e+03 7.263e-11
  3.11637    -57.9 9.238e+03 6.728e-11
  3.15618    -55.9 9.221e+03 6.619e-11
  3.19599    -54.1 9.271e+03 6.644e-11
  3.23581    -52.6 9.526e+03 8.381e-11
  3.27562    -50.9 9.558e+03 1.335e-10
  3.30858    -49.0 9.601e+03 2.051e-10
  3.32849    -47.1 9.531e+03 1.509e-10
  3.35175    -45.1 9.654e+03 2.203e-10
  3.37166    -45.6 9.825e+03 3.004e-10
  3.39506    -43.8 1.006e+04 4.046e-10
  3.43487    -42.2 1.021e+04 5.088e-10
  3.47468    -41.0 1.032e+04 5.557e-10
  3.51450    -40.4 1.046e+04 5.610e-10
  3.54153    -40.1 1.063e+04 5.583e-10
  3.56144    -37.8 1.119e+04 8.606e-10
  3.58216    -38.8 1.129e+04 7.779e-10
  3.59201    -39.0 1.113e+04 7.469e-10
  3.60388    -39.5 1.111e+04 7.437e-10
  3.62379    -41.3 1.062e+04 7.149e-10
  3.64369    -42.0 1.037e+04 7.126e-10
  3.65781    -42.7 1.029e+04 7.058e-10
  3.66776    -42.3 1.078e+04 9.793e-10
  3.68351    -42.7 1.083e+04 9.124e-10
  3.70341    -43.2 1.089e+04 7.851e-10
  3.72332    -43.6 1.080e+04 6.566e-10
  3.74323    -43.8 1.064e+04 5.371e-10
  3.76313    -43.7 1.051e+04 4.268e-10
  3.77438    -43.8 1.042e+04 3.337e-10
  3.78434    -43.7 1.052e+04 3.521e-10
  3.80260    -43.7 1.048e+04 3.031e-10
  3.81256    -44.5 1.013e+04 4.085e-10
  3.82285    -44.4 1.015e+04 3.774e-10
  3.84276    -44.3 1.016e+04 3.674e-10
  3.86266    -44.2 1.017e+04 3.514e-10
  3.88081    -44.2 1.019e+04 3.524e-10
  3.89076    -44.3 1.026e+04 3.600e-10
  3.90248    -44.4 1.039e+04 4.159e-10
  3.92238    -44.4 1.068e+04 5.512e-10
  3.94229    -44.0 1.112e+04 7.390e-10
  3.96220    -43.3 1.173e+04 1.002e-09
  3.98210    -42.5 1.245e+04 1.351e-09
  3.99728    -41.7 1.321e+04 1.785e-09
  4.00723    -42.2 1.343e+04 2.727e-09
  4.02192    -42.2 1.470e+04 3.536e-09
  4.03310    -45.6 1.870e+04 5.636e-09
  4.04305    -49.0 1.879e+04 4.824e-09
  4.06173    -53.7 2.152e+04 1.227e-08
  4.07661    -54.9 2.291e+04 2.673e-08
  4.08651    -55.6 2.428e+04 4.027e-08
  4.09647    -56.9 2.546e+04 5.147e-08
  4.10642    -58.9 2.586e+04 5.387e-08
  4.11366    -60.7 2.699e+04 4.273e-08
  4.11863    -61.2 2.611e+04 2.559e-08
  4.12633    -63.3 2.565e+04 1.391e-08
  4.14131    -68.3 2.119e+04 5.319e-09
  4.16126    -73.7 1.636e+04 1.820e-09
  4.18117    -77.2 1.302e+04 8.911e-10
  4.20107    -77.4 1.243e+04 7.430e-10
  4.22028    -76.9 1.232e+04 6.747e-10
  4.23023    -76.5 1.223e+04 6.403e-10
  4.24089    -75.7 1.218e+04 5.460e-10
  4.25365    -75.1 1.215e+04 4.545e-10
  4.26360    -74.9 1.205e+04 6.842e-10
  4.28070    -74.6 1.202e+04 5.653e-10
  4.30061    -74.4 1.193e+04 4.609e-10
  4.32051    -74.0 1.187e+04 3.989e-10
  4.35047    -73.9 1.189e+04 3.635e-10
  4.39038    -73.9 1.176e+04 2.957e-10
  4.43019    -73.3 1.162e+04 2.444e-10
  4.45342    -72.4 1.161e+04 2.339e-10
  4.47333    -72.0 1.167e+04 2.404e-10
  4.50982    -71.3 1.187e+04 2.455e-10
  4.54963    -70.8 1.238e+04 3.270e-10
  4.58944    -70.4 1.259e+04 4.890e-10
  4.61921    -70.1 1.271e+04 6.612e-10
  4.63901    -69.5 1.273e+04 7.309e-10
  4.66636    -69.3 1.268e+04 7.862e-10
  4.68637    -69.0 1.271e+04 9.060e-10
  4.69493    -68.0 1.274e+04 9.782e-10
  4.71484    -69.5 1.286e+04 1.262e-09
  4.74870    -68.7 1.275e+04 1.179e-09
  4.78851    -67.8 1.267e+04 1.133e-09
  4.81827    -67.0 1.230e+04 1.177e-09
  4.83808    -66.2 1.250e+04 1.387e-09
  4.85799    -65.7 1.283e+04 1.566e-09
  4.87789    -65.3 1.304e+04 1.676e-09
  4.89931    -65.3 1.310e+04 1.666e-09
  4.91932    -65.6 1.343e+04 1.871e-09
  4.94776    -65.4 1.318e+04 1.723e-09
  4.98757    -65.4 1.285e+04 1.427e-09
  5.02739    -65.3 1.243e+04 1.061e-09
  5.06720    -65.1 1.198e+04 7.469e-10
  5.10701    -64.5 1.156e+04 5.374e-10
  5.13236    -63.5 1.128e+04 4.111e-10
  5.14147    -63.5 1.128e+04 4.192e-10
  5.15593    -64.0 1.114e+04 3.604e-10
  5.18664    -62.4 1.100e+04 2.795e-10
  5.22645    -60.7 1.093e+04 2.227e-10
  5.26626    -59.2 1.096e+04 1.912e-10
  5.30608    -57.7 1.099e+04 1.833e-10
  5.34540    -56.5 1.110e+04 1.852e-10
  5.36531    -56.8 1.120e+04 2.466e-10
  5.38570    -56.0 1.141e+04 3.925e-10
  5.42551    -55.0 1.169e+04 6.517e-10
  5.46533    -53.9 1.200e+04 9.321e-10
  5.50514    -53.2 1.215e+04 1.027e-09
  5.54495    -52.7 1.211e+04 1.031e-09
  5.57711    -51.9 1.187e+04 8.755e-10
  5.59061    -51.7 1.161e+04 6.584e-10
  5.59826    -52.1 1.154e+04 5.870e-10
  5.62458    -51.4 1.138e+04 4.660e-10
  5.66439    -50.5 1.127e+04 3.809e-10
  5.70420    -49.2 1.118e+04 3.236e-10
  5.74402    -47.8 1.107e+04 2.716e-10
  5.78383    -46.1 1.093e+04 2.229e-10
  5.81130    -44.4 1.078e+04 1.787e-10
  5.83120    -44.5 1.079e+04 1.774e-10
  5.86345    -42.6 1.067e+04 1.394e-10
  5.90327    -40.7 1.060e+04 1.099e-10
  5.94308    -38.7 1.054e+04 8.846e-11
  5.98289    -36.8 1.043e+04 7.357e-11
  6.01820    -35.0 1.026e+04 6.314e-11
  6.03811    -34.7 1.031e+04 6.643e-11
  6.04425    -32.8 1.016e+04 5.991e-11
  6.06415    -32.7 1.015e+04 5.949e-11
  6.10233    -30.7 1.004e+04 5.408e-11
  6.14214    -28.8 9.948e+03 5.042e-11
  6.18196    -26.8 9.868e+03 4.800e-11
  6.22177    -24.9 9.809e+03 4.619e-11
  6.25729    -23.0 9.768e+03 4.540e-11
  6.27720    -22.9 9.811e+03 4.403e-11
  6.30140    -21.0 9.749e+03 4.538e-11
  6.34121    -19.2 9.645e+03 4.902e-11
  6.38102    -17.2 9.552e+03 5.283e-11
  6.42083    -15.1 9.514e+03 5.415e-11
  6.45930    -12.9 9.432e+03 5.363e-11
  6.47920    -12.5 9.493e+03 5.490e-11
  6.49024    -10.1 9.397e+03 4.985e-11
  6.51014     -9.8 9.403e+03 4.898e-11
  6.54027     -7.4 9.448e+03 3.868e-11
  6.58009     -5.5 9.537e+03 2.960e-11
  6.61990     -3.8 9.589e+03 2.470e-11
  6.65971     -2.2 9.605e+03 2.347e-11
  6.69952     -0.6 9.549e+03 2.670e-11
  6.72319      1.0 9.410e+03 3.473e-11
  6.74309      1.2 9.474e+03 3.174e-11
  6.77915      3.2 9.408e+03 4.088e-11
  6.81896      5.3 9.401e+03 4.840e-11
  6.85878      7.4 9.362e+03 5.228e-11
  6.89859      9.2 9.340e+03 5.180e-11
  6.92029     10.7 9.443e+03 5.101e-11
  6.93803     11.3 9.458e+03 4.979e-11
  6.95613     11.4 9.470e+03 5.460e-11
  6.97821     11.9 9.650e+03 6.897e-11
  7.01803     12.1 9.825e+03 1.268e-10
  7.05784     12.4 1.022e+04 2.658e-10
  7.09765     14.1 1.014e+04 5.329e-10
  7.13747     14.8 1.018e+04 5.423e-10
  7.16918     15.7 1.011e+04 3.597e-10
  7.18908     15.5 1.031e+04 3.928e-10
  7.21709     15.0 1.004e+04 2.502e-10
  7.25690     14.8 9.632e+03 1.806e-10
  7.29672     15.1 9.425e+03 1.391e-10
  7.33653     16.1 9.214e+03 1.238e-10
  7.36138     17.6 9.142e+03 1.048e-10
  7.38129     18.0 9.132e+03 9.987e-11
  7.40213     19.7 9.284e+03 7.163e-11
  7.42203     19.6 9.449e+03 6.877e-11
  7.45597     20.3 9.467e+03 5.395e-11
  7.49578     21.3 9.449e+03 5.674e-11
  7.53559     21.5 9.588e+03 7.753e-11
  7.57541     21.5 9.844e+03 1.539e-10
  7.61517     22.0 1.004e+04 3.930e-10
  7.65498     23.7 1.046e+04 6.924e-10
  7.69485     24.3 1.089e+04 6.859e-10
  7.73466     23.9 1.122e+04 5.364e-10
  7.77447     22.1 1.137e+04 5.123e-10
  7.80247     20.4 1.127e+04 6.445e-10
  7.82238     21.9 1.125e+04 7.677e-10
  7.84812     21.6 1.152e+04 6.678e-10
  7.86802     22.0 1.203e+04 1.020e-09
  7.89391     21.5 1.229e+04 8.087e-10
  7.93372     20.7 1.236e+04 7.345e-10
  7.97354     19.8 1.226e+04 7.963e-10
  8.01335     19.3 1.204e+04 1.023e-09
  8.05316     19.7 1.169e+04 1.106e-09
  8.08106     21.1 1.121e+04 8.654e-10
  8.10097     21.0 1.107e+04 5.761e-10
  8.13279     21.8 1.066e+04 3.358e-10
  8.17260     22.0 1.055e+04 1.979e-10
  8.21241     22.0 1.041e+04 1.614e-10
  8.24356     22.2 1.025e+04 1.838e-10
  8.26347     23.5 1.051e+04 1.974e-10
  8.29204     23.5 1.029e+04 2.828e-10
  8.31401     24.9 1.002e+04 4.081e-10
  8.33392     24.8 9.996e+03 3.733e-10
  8.37166     26.3 1.001e+04 3.773e-10
  8.41148     27.5 1.009e+04 3.045e-10
  8.45129     27.4 1.005e+04 2.645e-10
  8.49110     27.2 1.004e+04 2.943e-10
  8.52706     27.6 9.982e+03 3.470e-10
  8.54696     27.4 9.927e+03 3.237e-10
  8.57073     28.8 9.799e+03 2.808e-10
  8.61054     30.0 9.811e+03 1.844e-10
  8.65035     30.2 9.911e+03 1.145e-10
  8.68465     30.3 9.745e+03 8.626e-11
  8.70456     29.8 9.543e+03 8.245e-11
  8.72998     30.7 9.387e+03 8.242e-11
  8.76000     31.8 9.420e+03 9.170e-11
  8.77991     31.7 9.512e+03 1.012e-10
  8.80961     32.6 9.550e+03 1.250e-10
  8.84942     33.9 9.558e+03 1.547e-10
  8.88923     35.2 9.617e+03 1.750e-10
  8.92904     36.4 9.768e+03 1.784e-10
  8.96886     37.3 9.886e+03 1.784e-10
  8.99295     38.0 1.000e+04 1.837e-10
  9.01286     37.6 1.005e+04 1.781e-10
  9.04848     38.3 1.011e+04 1.849e-10
  9.08830     39.1 1.003e+04 1.889e-10
  9.12575     39.9 9.951e+03 1.842e-10
  9.14565     40.6 1.002e+04 2.043e-10
  9.16792     41.3 9.988e+03 2.013e-10
  9.20599     41.9 9.975e+03 1.979e-10
  9.22590     41.9 9.959e+03 1.863e-10
  9.24755     42.4 1.001e+04 1.978e-10
  9.28736     42.9 1.008e+04 2.266e-10
  9.32717     43.7 1.011e+04 2.597e-10
  9.36699     44.6 1.011e+04 2.660e-10
  9.40680     45.4 1.011e+04 2.528e-10
  9.43894     46.2 1.013e+04 2.256e-10
  9.45885     46.6 1.026e+04 3.025e-10
  9.48642     47.2 1.035e+04 2.573e-10
  9.52624     47.6 1.045e+04 2.321e-10
  9.56605     47.8 1.050e+04 2.387e-10
  9.58674     48.2 1.056e+04 2.706e-10
  9.60665     48.8 1.068e+04 3.087e-10
  9.64568     49.6 1.085e+04 3.431e-10
  9.67189     50.4 1.090e+04 3.431e-10
  9.69180     50.5 1.104e+04 3.755e-10
  9.72530     51.4 1.109e+04 3.405e-10
  9.76511     52.1 1.119e+04 2.771e-10
  9.80493     52.6 1.125e+04 2.692e-10
  9.84474     52.9 1.125e+04 2.986e-10
  9.88455     53.6 1.125e+04 3.707e-10
  9.90484     54.4 1.123e+04 3.975e-10
  9.92475     54.4 1.132e+04 4.707e-10
  9.96418     55.3 1.125e+04 4.394e-10
 10.00399     56.2 1.111e+04 3.520e-10
 10.02783     56.9 1.098e+04 2.671e-10
 10.04774     56.8 1.090e+04 2.163e-10
 10.08362     57.2 1.084e+04 1.905e-10
 10.11788     57.6 1.077e+04 1.798e-10
 10.13779     57.6 1.077e+04 1.817e-10
 10.16324     58.2 1.071e+04 1.827e-10
 10.20306     58.9 1.071e+04 1.830e-10
 10.24287     59.4 1.076e+04 1.831e-10
 10.28268     59.9 1.086e+04 1.881e-10
 10.32249     60.2 1.101e+04 1.969e-10
 10.35083     60.0 1.122e+04 2.205e-10
 10.37074     60.4 1.108e+04 1.923e-10
 10.40212     59.9 1.138e+04 2.383e-10
 10.44193     59.2 1.165e+04 3.603e-10
 10.46892     58.5 1.190e+04 5.774e-10
 10.48883     57.0 1.228e+04 9.066e-10
 10.52156     57.0 1.222e+04 8.967e-10
 10.56137     57.1 1.199e+04 7.463e-10
 10.58378     56.9 1.179e+04 5.613e-10
 10.60369     57.4 1.180e+04 6.383e-10
 10.64100     57.2 1.180e+04 5.039e-10
 10.68081     57.1 1.187e+04 4.343e-10
 10.72062     56.7 1.190e+04 4.405e-10
 10.76044     56.1 1.193e+04 5.445e-10
 10.79682     55.7 1.196e+04 8.838e-10
 10.81673     55.8 1.190e+04 6.334e-10
 10.84006     55.7 1.197e+04 1.009e-09
 10.87987     55.5 1.221e+04 1.311e-09
 10.91001     54.6 1.246e+04 1.399e-09
 10.92992     53.9 1.246e+04 1.137e-09
 10.95950     52.8 1.231e+04 1.077e-09
 10.99931     52.2 1.206e+04 8.989e-10
 11.02977     52.3 1.183e+04 6.520e-10
 11.04968     52.8 1.188e+04 8.654e-10
 11.07894     53.2 1.175e+04 6.133e-10
 11.11875     53.6 1.156e+04 3.875e-10
 11.15856     54.1 1.134e+04 2.410e-10
 11.19838     54.6 1.119e+04 1.659e-10
 11.23819     55.5 1.107e+04 1.334e-10
 11.26272     56.7 1.096e+04 1.205e-10
 11.28263     57.4 1.118e+04 1.035e-10
 11.31782     58.9 1.103e+04 9.398e-11
 11.35111     60.6 1.093e+04 8.718e-11
 11.37101     61.2 1.068e+04 8.632e-11
 11.39744     63.2 1.076e+04 8.179e-11
 11.43725     65.1 1.088e+04 7.460e-11
 11.47576     66.9 1.098e+04 6.668e-11
 11.49567     67.3 1.093e+04 5.702e-11
 11.51688     69.1 1.096e+04 5.364e-11
 11.55669     70.7 1.096e+04 5.442e-11
 11.59651     72.0 1.088e+04 6.289e-11
 11.63632     73.2 1.084e+04 8.988e-11
 11.67613     74.5 1.086e+04 1.404e-10
 11.70871     75.9 1.092e+04 2.062e-10
 11.72862     76.3 1.088e+04 2.110e-10
 11.75576     77.3 1.102e+04 2.465e-10
 11.79220     77.9 1.111e+04 2.415e-10
 11.81210     78.3 1.130e+04 2.895e-10
 11.83538     78.6 1.129e+04 2.822e-10
 11.87520     78.7 1.124e+04 2.671e-10
 11.91501     78.9 1.122e+04 2.629e-10
 11.94166     79.2 1.128e+04 2.642e-10
 11.96157     80.0 1.116e+04 2.068e-10
 11.99463     80.4 1.125e+04 2.167e-10
 12.03445     80.9 1.132e+04 2.260e-10
 12.07426     81.5 1.135e+04 2.376e-10
 12.11407     82.1 1.139e+04 2.535e-10
 12.15389     82.8 1.135e+04 3.087e-10
 12.17461     83.6 1.132e+04 3.848e-10
 12.19451     84.7 1.129e+04 2.933e-10
 12.23329     85.5 1.130e+04 3.471e-10
 12.25319     86.4 1.135e+04 3.694e-10
 12.27332     87.2 1.137e+04 4.391e-10
 12.31314     88.0 1.136e+04 4.726e-10
 12.35295     88.7 1.133e+04 4.922e-10
 12.38765     89.1 1.135e+04 5.327e-10
 12.40756     90.2 1.130e+04 5.263e-10
 12.43258     90.7 1.137e+04 6.024e-10
 12.47239     90.9 1.151e+04 7.349e-10
 12.51220     91.1 1.170e+04 9.690e-10
 12.55201     91.6 1.174e+04 1.155e-09
 12.59183     92.3 1.171e+04 1.140e-09
 12.62060     93.2 1.158e+04 9.559e-10
 12.64050     94.6 1.153e+04 8.997e-10
 12.67145     95.4 1.147e+04 7.379e-10
 12.69428     95.7 1.146e+04 5.665e-10
 12.71419     95.7 1.088e+04 3.833e-10
 12.75108     96.3 1.085e+04 3.557e-10
 12.79089     97.0 1.088e+04 3.841e-10
 12.83070     97.7 1.101e+04 4.989e-10
 12.85355     98.6 1.115e+04 6.822e-10
 12.87345    100.1 1.127e+04 6.153e-10
 12.91033    100.9 1.136e+04 8.353e-10
 12.94009    101.4 1.139e+04 9.450e-10
 12.95987    101.8 1.138e+04 9.576e-10
 12.98983    103.3 1.141e+04 9.502e-10
 13.02977    104.6 1.129e+04 7.543e-10
 13.06659    105.3 1.102e+04 4.449e-10
 13.08650    106.6 1.126e+04 6.379e-10
 13.10939    107.2 1.100e+04 3.512e-10
 13.13537    107.4 1.076e+04 1.986e-10
 13.15528    107.7 1.081e+04 2.205e-10
 13.18902    108.0 1.065e+04 1.724e-10
 13.22883    108.9 1.066e+04 1.747e-10
 13.26865    110.1 1.078e+04 1.881e-10
 13.29954    111.2 1.088e+04 2.279e-10
 13.31944    112.4 1.091e+04 2.172e-10
 13.34827    113.5 1.101e+04 2.633e-10
 13.38808    114.8 1.110e+04 3.242e-10
 13.42790    116.1 1.116e+04 3.845e-10
 13.46771    117.5 1.120e+04 4.139e-10
 13.50752    118.8 1.120e+04 3.947e-10
 13.53249    120.2 1.118e+04 3.345e-10
 13.55239    121.3 1.130e+04 4.463e-10
 13.57646    122.7 1.124e+04 3.593e-10
 13.59637    122.6 1.131e+04 3.881e-10
 13.62696    124.1 1.119e+04 2.660e-10
 13.66677    125.4 1.110e+04 1.685e-10
 13.70659    126.6 1.101e+04 1.128e-10
 13.74553    128.1 1.078e+04 1.004e-10
 13.76543    129.2 1.081e+04 1.278e-10
 13.78621    131.0 1.076e+04 1.262e-10
 13.82603    133.0 1.076e+04 1.272e-10
 13.86584    135.1 1.076e+04 1.345e-10
 13.90565    137.1 1.079e+04 1.540e-10
 13.94546    139.1 1.086e+04 1.876e-10
 13.97848    141.1 1.095e+04 2.362e-10
 13.99838    141.9 1.108e+04 3.088e-10
 14.01756    143.8 1.127e+04 3.925e-10
 14.03746    144.7 1.108e+04 2.927e-10
 14.06490    146.6 1.128e+04 3.633e-10
 14.10472    148.2 1.152e+04 4.424e-10
 14.14453    149.1 1.173e+04 5.012e-10
 14.17429    149.3 1.197e+04 6.338e-10
 14.19410    149.5 1.224e+04 9.043e-10
 14.21123    149.4 1.259e+04 1.444e-09
 14.22118    149.9 1.281e+04 1.971e-09
 14.23391    150.0 1.327e+04 2.922e-09
 14.24786    150.3 1.378e+04 4.054e-09
 14.25781    151.1 1.349e+04 3.294e-09
 14.27372    151.3 1.413e+04 4.842e-09
 14.29363    151.8 1.479e+04 6.312e-09
 14.31354    151.9 1.508e+04 6.271e-09
 14.32770    151.9 1.516e+04 5.652e-09
