# Columns:
#   distance along LOS (in CHIMPs)
#   peculiar velocity  (in km/s)
#   temperature (K)
#   HI number density
# pos=(33.6004,83.8559,229.781), angles=(0.297295,5.92842)
  0.00711    -92.5 1.524e+04 3.618e-09
  0.01493    -92.8 1.477e+04 3.042e-09
  0.02585    -96.0 1.396e+04 2.130e-09
  0.04628    -99.4 1.295e+04 1.509e-09
  0.06671   -103.6 1.262e+04 1.327e-09
  0.08112   -111.1 1.315e+04 1.315e-09
  0.09133   -109.9 1.219e+04 1.047e-09
  0.10756   -119.8 1.778e+04 1.304e-09
  0.12799   -128.9 2.243e+04 4.602e-09
  0.14731   -135.9 2.321e+04 1.354e-08
  0.15752   -131.9 2.252e+04 9.347e-09
  0.16069   -138.3 2.252e+04 1.622e-08
  0.17090   -139.2 2.273e+04 1.966e-08
  0.18927   -145.4 2.227e+04 2.049e-08
  0.20970   -150.4 2.065e+04 1.552e-08
  0.22372   -156.8 1.827e+04 7.004e-09
  0.23393   -155.2 1.841e+04 7.839e-09
  0.25055   -162.0 1.484e+04 2.688e-09
  0.27098   -167.8 1.177e+04 9.315e-10
  0.28991   -170.2 1.059e+04 5.397e-10
  0.30012   -169.1 1.067e+04 5.631e-10
  0.31183   -170.0 1.017e+04 4.354e-10
  0.33226   -170.5 1.006e+04 3.780e-10
  0.34858   -171.1 1.004e+04 3.400e-10
  0.35879   -171.3 1.008e+04 3.513e-10
  0.36641   -172.4 1.001e+04 3.138e-10
  0.38694   -171.4 1.014e+04 3.241e-10
  0.42438   -173.6 1.012e+04 3.069e-10
  0.46523   -175.9 1.007e+04 3.006e-10
  0.49889   -178.0 1.015e+04 3.035e-10
  0.51932   -178.1 1.051e+04 3.444e-10
  0.53657   -179.8 1.108e+04 4.397e-10
  0.55690   -181.9 1.190e+04 8.320e-10
  0.57510   -183.3 1.260e+04 1.296e-09
  0.58532   -183.0 1.240e+04 1.226e-09
  0.59782   -184.1 1.289e+04 1.569e-09
  0.61824   -185.3 1.314e+04 1.783e-09
  0.63867   -186.6 1.319e+04 1.835e-09
  0.65151   -187.8 1.317e+04 1.836e-09
  0.66172   -187.7 1.252e+04 1.391e-09
  0.67953   -188.8 1.225e+04 1.253e-09
  0.69995   -189.9 1.189e+04 1.063e-09
  0.71770   -190.8 1.152e+04 9.010e-10
  0.72792   -190.8 1.106e+04 7.172e-10
  0.73458   -191.5 1.087e+04 6.629e-10
  0.74479   -191.6 1.074e+04 6.296e-10
  0.76124   -192.1 1.070e+04 6.218e-10
  0.78166   -192.8 1.070e+04 6.221e-10
  0.79411   -193.8 1.084e+04 6.754e-10
  0.80432   -193.7 1.084e+04 6.778e-10
  0.82252   -194.7 1.129e+04 8.441e-10
  0.84295   -195.7 1.188e+04 1.104e-09
  0.86030   -196.6 1.251e+04 1.456e-09
  0.87051   -196.4 1.233e+04 1.371e-09
  0.88380   -197.4 1.285e+04 1.710e-09
  0.90423   -198.5 1.323e+04 2.005e-09
  0.92247   -199.7 1.338e+04 2.147e-09
  0.93268   -200.3 1.343e+04 2.180e-09
  0.93671   -201.6 1.343e+04 2.190e-09
  0.94692   -201.2 1.302e+04 1.887e-09
  0.96551   -202.2 1.279e+04 1.812e-09
  0.98594   -203.1 1.237e+04 1.504e-09
  1.00290   -203.9 1.189e+04 1.149e-09
  1.01311   -203.4 1.166e+04 1.037e-09
  1.02679   -204.5 1.125e+04 7.865e-10
  1.04722   -205.8 1.089e+04 6.083e-10
  1.06765   -207.2 1.064e+04 5.043e-10
  1.07930   -208.5 1.055e+04 4.624e-10
  1.08952   -208.0 1.057e+04 4.676e-10
  1.10850   -209.5 1.056e+04 4.601e-10
  1.12058   -211.3 1.060e+04 4.607e-10
  1.13079   -213.3 1.120e+04 5.727e-10
  1.14550   -215.6 1.170e+04 7.384e-10
  1.15571   -215.4 1.195e+04 8.432e-10
  1.16978   -217.7 1.250e+04 1.168e-09
  1.19021   -219.6 1.300e+04 1.596e-09
  1.21064   -221.4 1.342e+04 2.043e-09
  1.22190   -223.0 1.369e+04 2.374e-09
  1.23211   -222.8 1.383e+04 2.549e-09
  1.25149   -224.4 1.386e+04 2.593e-09
  1.27192   -226.0 1.377e+04 2.547e-09
  1.28809   -227.5 1.345e+04 2.156e-09
  1.29831   -227.2 1.329e+04 1.986e-09
  1.30847   -228.9 1.278e+04 1.466e-09
  1.31868   -230.3 1.232e+04 1.116e-09
  1.33320   -232.0 1.180e+04 8.431e-10
  1.35363   -233.5 1.141e+04 6.744e-10
  1.36450   -234.7 1.118e+04 5.764e-10
  1.37471   -234.1 1.099e+04 5.275e-10
  1.39448   -235.0 1.092e+04 4.834e-10
  1.41491   -235.7 1.089e+04 4.541e-10
  1.43069   -236.4 1.085e+04 4.394e-10
  1.44090   -235.6 1.074e+04 4.049e-10
  1.45577   -236.3 1.073e+04 3.993e-10
  1.47619   -236.9 1.073e+04 3.989e-10
  1.49636   -237.4 1.073e+04 4.112e-10
  1.50658   -237.6 1.087e+04 5.024e-10
  1.50710   -238.0 1.093e+04 5.407e-10
  1.51731   -237.4 1.080e+04 4.582e-10
  1.53748   -238.0 1.083e+04 4.714e-10
  1.56821   -239.0 1.088e+04 4.882e-10
  1.60917   -239.8 1.102e+04 5.781e-10
  1.63968   -240.2 1.120e+04 6.762e-10
  1.66010   -238.1 1.081e+04 5.668e-10
  1.68445   -238.1 1.103e+04 6.875e-10
  1.70488   -238.4 1.083e+04 5.950e-10
  1.73173   -238.2 1.104e+04 7.055e-10
  1.77206   -238.5 1.111e+04 7.620e-10
  1.79249   -236.6 1.110e+04 7.589e-10
  1.81344   -236.8 1.112e+04 7.728e-10
  1.85429   -236.7 1.109e+04 7.672e-10
  1.89515   -236.4 1.091e+04 6.881e-10
  1.92487   -236.1 1.068e+04 5.656e-10
  1.93499   -234.9 1.081e+04 6.319e-10
  1.94602   -235.0 1.067e+04 5.831e-10
  1.96645   -235.3 1.051e+04 5.065e-10
  1.98688   -235.4 1.042e+04 4.437e-10
  2.01762   -235.6 1.037e+04 3.982e-10
  2.05726   -236.3 1.030e+04 3.665e-10
  2.07768   -234.9 1.024e+04 3.586e-10
  2.08066   -235.3 1.017e+04 3.323e-10
  2.09078   -236.6 1.055e+04 4.237e-10
  2.10944   -237.3 1.053e+04 4.355e-10
  2.14018   -237.8 1.050e+04 4.396e-10
  2.18113   -237.9 1.030e+04 4.093e-10
  2.21007   -238.0 1.007e+04 3.667e-10
  2.23049   -236.9 1.005e+04 3.571e-10
  2.26284   -237.0 9.823e+03 3.016e-10
  2.30370   -237.0 9.615e+03 2.463e-10
  2.34245   -237.0 9.429e+03 1.971e-10
  2.36288   -236.2 9.382e+03 1.893e-10
  2.38541   -236.3 9.242e+03 1.566e-10
  2.42626   -236.4 9.200e+03 1.406e-10
  2.45645   -236.6 9.203e+03 1.373e-10
  2.47688   -237.1 9.282e+03 1.335e-10
  2.49526   -237.5 9.362e+03 1.353e-10
  2.51569   -236.6 9.295e+03 1.338e-10
  2.54882   -237.2 9.525e+03 1.528e-10
  2.58968   -237.8 9.735e+03 1.831e-10
  2.62765   -238.5 9.858e+03 2.077e-10
  2.64807   -237.6 9.953e+03 2.309e-10
  2.67139   -238.3 1.002e+04 2.436e-10
  2.71224   -239.1 1.003e+04 2.445e-10
  2.75310   -239.7 9.994e+03 2.313e-10
  2.78046   -240.2 9.938e+03 2.081e-10
  2.80089   -239.7 1.016e+04 2.392e-10
  2.83223   -240.3 1.016e+04 2.253e-10
  2.85266   -240.7 1.015e+04 2.074e-10
  2.87566   -241.5 1.020e+04 2.083e-10
  2.91284   -242.6 1.086e+04 2.559e-10
  2.93327   -241.9 1.126e+04 2.975e-10
  2.94706   -242.5 1.174e+04 3.923e-10
  2.96739   -243.2 1.207e+04 4.866e-10
  2.98782   -244.2 1.244e+04 6.478e-10
  2.99927   -245.3 1.255e+04 7.496e-10
  3.00948   -246.4 1.220e+04 7.335e-10
  3.02867   -247.9 1.235e+04 8.956e-10
  3.04036   -249.1 1.247e+04 1.041e-09
  3.05057   -249.2 1.306e+04 1.268e-09
  3.06546   -250.3 1.304e+04 1.321e-09
  3.07567   -250.2 1.268e+04 1.187e-09
  3.08995   -251.3 1.266e+04 1.194e-09
  3.11038   -252.3 1.253e+04 1.199e-09
  3.13081   -253.2 1.228e+04 1.172e-09
  3.14186   -253.9 1.209e+04 1.101e-09
  3.15208   -253.5 1.190e+04 1.022e-09
  3.17166   -253.9 1.176e+04 9.611e-10
  3.19209   -254.2 1.161e+04 8.946e-10
  3.20806   -254.3 1.147e+04 8.294e-10
  3.21827   -254.0 1.139e+04 8.017e-10
  3.22825   -254.1 1.133e+04 7.620e-10
  3.23846   -254.1 1.142e+04 7.591e-10
  3.25337   -254.1 1.140e+04 7.288e-10
  3.27380   -254.1 1.143e+04 7.110e-10
  3.28446   -254.2 1.147e+04 7.008e-10
  3.29468   -254.6 1.149e+04 6.994e-10
  3.31465   -255.3 1.152e+04 6.893e-10
  3.33508   -256.1 1.149e+04 6.765e-10
  3.35065   -256.6 1.143e+04 6.617e-10
  3.37118   -256.8 1.131e+04 6.701e-10
  3.40677   -256.5 1.136e+04 7.151e-10
  3.44763   -256.7 1.155e+04 8.166e-10
  3.48323   -256.9 1.199e+04 1.008e-09
  3.50366   -256.9 1.267e+04 1.360e-09
  3.51903   -256.2 1.264e+04 1.337e-09
  3.53936   -256.4 1.293e+04 1.473e-09
  3.55944   -256.7 1.325e+04 1.651e-09
  3.56966   -258.1 1.377e+04 2.072e-09
  3.58021   -259.4 1.390e+04 2.293e-09
  3.60064   -260.5 1.389e+04 2.394e-09
  3.61425   -261.4 1.371e+04 2.329e-09
  3.62446   -261.3 1.376e+04 2.183e-09
  3.63585   -262.3 1.373e+04 2.204e-09
  3.64606   -263.6 1.355e+04 2.022e-09
  3.66192   -264.4 1.348e+04 1.947e-09
  3.68235   -265.4 1.347e+04 1.893e-09
  3.70204   -266.6 1.349e+04 1.868e-09
  3.71226   -268.1 1.334e+04 1.664e-09
  3.72320   -269.4 1.335e+04 1.720e-09
  3.74363   -270.5 1.332e+04 1.753e-09
  3.76406   -271.4 1.330e+04 1.758e-09
  3.77845   -272.1 1.311e+04 1.755e-09
  3.78866   -272.9 1.287e+04 1.652e-09
  3.80214   -273.2 1.266e+04 1.569e-09
  3.81236   -274.4 1.224e+04 1.350e-09
  3.82534   -274.8 1.203e+04 1.204e-09
  3.84464   -275.1 1.181e+04 1.062e-09
  3.85485   -275.6 1.161e+04 9.495e-10
  3.86619   -276.0 1.138e+04 8.429e-10
  3.88662   -276.2 1.118e+04 7.631e-10
  3.90705   -276.3 1.100e+04 7.081e-10
  3.92105   -276.1 1.088e+04 6.710e-10
  3.93126   -276.6 1.073e+04 5.941e-10
  3.94790   -276.5 1.069e+04 5.513e-10
  3.96833   -276.4 1.065e+04 4.953e-10
  3.98724   -276.5 1.057e+04 4.242e-10
  3.99745   -277.2 1.048e+04 3.724e-10
  4.00035   -276.9 1.044e+04 3.601e-10
  4.02087   -278.2 1.040e+04 3.603e-10
  4.05363   -276.6 1.005e+04 2.852e-10
  4.07405   -276.7 9.483e+03 2.083e-10
  4.10130   -275.4 9.146e+03 1.705e-10
  4.14216   -274.0 9.015e+03 1.545e-10
  4.18301   -272.5 8.999e+03 1.513e-10
  4.20644   -270.9 8.999e+03 1.512e-10
  4.22686   -271.2 8.998e+03 1.514e-10
  4.26472   -269.8 9.064e+03 1.586e-10
  4.30558   -268.5 9.247e+03 1.894e-10
  4.33882   -267.3 9.469e+03 2.369e-10
  4.35925   -268.0 9.521e+03 2.432e-10
  4.37623   -266.9 9.772e+03 3.054e-10
  4.39666   -267.5 9.864e+03 3.443e-10
  4.42814   -266.6 1.008e+04 3.996e-10
  4.46900   -265.7 1.025e+04 4.458e-10
  4.49163   -264.9 1.038e+04 4.773e-10
  4.51206   -265.3 1.051e+04 5.209e-10
  4.55070   -264.2 1.056e+04 5.269e-10
  4.59156   -263.3 1.058e+04 5.222e-10
  4.62210   -263.5 1.054e+04 4.980e-10
  4.63404   -263.6 1.055e+04 4.889e-10
  4.64425   -264.6 1.063e+04 4.836e-10
  4.66286   -264.6 1.062e+04 4.660e-10
  4.68329   -264.7 1.065e+04 4.466e-10
  4.70023   -264.8 1.067e+04 4.242e-10
  4.71044   -266.1 1.059e+04 3.699e-10
  4.72414   -266.1 1.051e+04 3.423e-10
  4.74457   -266.0 1.044e+04 3.251e-10
  4.76203   -265.7 1.039e+04 3.189e-10
  4.77234   -265.1 1.037e+04 3.486e-10
  4.77683   -264.4 1.026e+04 3.270e-10
  4.79726   -265.1 9.596e+03 2.051e-10
  4.83669   -264.4 9.473e+03 1.791e-10
  4.87754   -263.7 9.457e+03 1.659e-10
  4.90921   -263.0 9.468e+03 1.626e-10
  4.92964   -263.3 9.211e+03 1.243e-10
  4.95925   -262.3 9.262e+03 1.248e-10
  5.00011   -261.2 9.360e+03 1.285e-10
  5.04096   -259.9 9.454e+03 1.366e-10
  5.06202   -258.6 9.527e+03 1.489e-10
  5.08245   -258.3 9.332e+03 1.208e-10
  5.12267   -256.8 9.415e+03 1.321e-10
  5.14823   -255.4 9.486e+03 1.445e-10
  5.16865   -256.3 9.533e+03 1.663e-10
  5.19441   -254.9 9.562e+03 1.712e-10
  5.21484   -254.6 9.584e+03 1.726e-10
  5.24523   -253.2 9.587e+03 1.769e-10
  5.28609   -251.7 9.578e+03 1.768e-10
  5.32679   -250.0 9.514e+03 1.678e-10
  5.36765   -248.1 9.345e+03 1.581e-10
  5.40865   -246.2 9.224e+03 1.315e-10
  5.44951   -244.1 9.110e+03 1.101e-10
  5.47960   -242.1 9.045e+03 9.540e-11
  5.50003   -242.2 8.926e+03 8.539e-11
  5.52401   -240.2 8.935e+03 7.732e-11
  5.54444   -241.2 8.930e+03 7.465e-11
  5.57207   -239.4 8.934e+03 7.422e-11
  5.61199   -237.7 8.987e+03 7.469e-11
  5.63242   -238.1 8.887e+03 6.655e-11
  5.65378   -236.5 9.002e+03 7.344e-11
  5.69464   -235.0 9.089e+03 8.166e-11
  5.73549   -233.4 9.137e+03 8.734e-11
  5.76480   -231.8 9.146e+03 8.932e-11
  5.78523   -231.8 9.038e+03 8.984e-11
  5.81720   -230.1 9.038e+03 9.005e-11
  5.85805   -228.3 9.014e+03 8.829e-11
  5.89718   -226.5 9.002e+03 8.424e-11
  5.91761   -226.4 8.996e+03 8.442e-11
  5.92023   -224.5 9.017e+03 8.138e-11
  5.94065   -225.6 9.040e+03 8.185e-11
  5.98062   -223.9 9.056e+03 8.171e-11
  6.02147   -222.3 9.230e+03 8.437e-11
  6.05000   -220.7 9.401e+03 1.016e-10
  6.07042   -220.7 9.340e+03 1.096e-10
  6.10318   -218.9 9.447e+03 1.374e-10
  6.14404   -217.0 9.543e+03 1.713e-10
  6.18238   -215.0 9.650e+03 2.042e-10
  6.20281   -214.8 9.536e+03 2.011e-10
  6.22575   -212.7 9.599e+03 2.186e-10
  6.26660   -210.5 9.653e+03 2.312e-10
  6.29601   -208.2 9.680e+03 2.353e-10
  6.31644   -209.2 9.576e+03 2.060e-10
  6.33519   -206.9 9.537e+03 1.919e-10
  6.35562   -206.7 9.416e+03 1.795e-10
  6.38917   -204.3 9.416e+03 1.720e-10
  6.43002   -202.0 9.436e+03 1.659e-10
  6.46758   -199.6 9.442e+03 1.603e-10
  6.48800   -199.5 9.467e+03 1.666e-10
  6.51173   -197.2 9.480e+03 1.653e-10
  6.55258   -194.8 9.495e+03 1.664e-10
  6.59344   -192.3 9.508e+03 1.691e-10
  6.62039   -189.8 9.521e+03 1.715e-10
  6.64081   -189.8 9.637e+03 2.080e-10
  6.67180   -187.3 9.656e+03 2.112e-10
  6.69222   -187.5 9.463e+03 1.715e-10
  6.71600   -184.9 9.488e+03 1.722e-10
  6.75277   -182.2 9.529e+03 1.745e-10
  6.77320   -182.4 9.704e+03 2.225e-10
  6.79771   -179.9 9.767e+03 2.301e-10
  6.83857   -177.3 9.836e+03 2.393e-10
  6.87942   -174.7 9.920e+03 2.503e-10
  6.90558   -172.1 1.002e+04 2.646e-10
  6.92601   -172.8 1.023e+04 3.267e-10
  6.96113   -170.4 1.037e+04 3.525e-10
  7.00199   -168.0 1.057e+04 4.014e-10
  7.03797   -165.6 1.081e+04 4.797e-10
  7.05839   -166.4 1.097e+04 5.696e-10
  7.06801   -164.2 1.117e+04 6.431e-10
  7.08844   -163.9 1.094e+04 5.267e-10
  7.12455   -161.8 1.115e+04 6.128e-10
  7.16541   -159.9 1.132e+04 6.742e-10
  7.19078   -158.1 1.143e+04 7.060e-10
  7.21121   -158.9 1.143e+04 6.935e-10
  7.24711   -157.2 1.148e+04 6.948e-10
  7.28797   -155.4 1.152e+04 6.893e-10
  7.32316   -153.7 1.158e+04 6.936e-10
  7.34359   -154.2 1.148e+04 5.796e-10
  7.36968   -152.5 1.169e+04 6.235e-10
  7.39947   -150.8 1.190e+04 7.300e-10
  7.40959   -151.6 1.190e+04 6.897e-10
  7.42055   -151.2 1.195e+04 7.069e-10
  7.44098   -150.6 1.201e+04 7.392e-10
  7.45381   -149.9 1.210e+04 7.927e-10
  7.46403   -149.8 1.259e+04 1.130e-09
  7.47578   -149.0 1.276e+04 1.230e-09
  7.48599   -149.6 1.274e+04 1.170e-09
  7.50226   -148.7 1.297e+04 1.317e-09
  7.52269   -148.0 1.320e+04 1.485e-09
  7.54197   -147.3 1.342e+04 1.666e-09
  7.55218   -147.6 1.337e+04 1.615e-09
  7.57385   -146.6 1.362e+04 1.868e-09
  7.60836   -144.8 1.366e+04 1.953e-09
  7.62879   -145.4 1.322e+04 1.467e-09
  7.65566   -143.5 1.305e+04 1.405e-09
  7.69652   -141.6 1.269e+04 1.208e-09
  7.73737   -139.2 1.225e+04 9.798e-10
  7.76117   -136.7 1.192e+04 8.118e-10
  7.78160   -136.8 1.154e+04 5.319e-10
  7.81908   -134.2 1.146e+04 5.143e-10
  7.84001   -131.6 1.142e+04 5.294e-10
  7.86043   -131.5 1.164e+04 6.353e-10
  7.89355   -128.8 1.165e+04 6.616e-10
  7.91398   -129.0 1.148e+04 5.145e-10
  7.94164   -126.5 1.163e+04 6.176e-10
  7.98250   -124.2 1.180e+04 7.523e-10
  8.02335   -122.0 1.200e+04 9.152e-10
  8.04636   -119.9 1.217e+04 1.079e-09
  8.06679   -120.3 1.214e+04 1.050e-09
  8.10506   -118.4 1.228e+04 1.201e-09
  8.14592   -116.6 1.231e+04 1.253e-09
  8.17875   -114.8 1.230e+04 1.259e-09
  8.19918   -115.4 1.218e+04 1.203e-09
  8.21579   -113.3 1.200e+04 1.155e-09
  8.23622   -113.0 1.149e+04 8.116e-10
  8.26848   -110.9 1.137e+04 7.686e-10
  8.30934   -108.7 1.125e+04 7.197e-10
  8.33156   -106.6 1.116e+04 6.745e-10
  8.35199   -106.7 1.108e+04 6.711e-10
  8.39105   -104.5 1.100e+04 6.349e-10
  8.43190   -102.3 1.091e+04 6.028e-10
  8.46394   -100.0 1.083e+04 5.694e-10
  8.48437   -100.2 1.066e+04 5.376e-10
  8.51361    -97.9 1.059e+04 5.081e-10
  8.55446    -95.6 1.052e+04 4.781e-10
  8.59158    -93.2 1.045e+04 4.470e-10
  8.61201    -93.0 1.051e+04 4.851e-10
  8.61676    -90.6 1.041e+04 4.454e-10
  8.63718    -90.8 1.049e+04 4.996e-10
  8.67703    -88.3 1.039e+04 4.619e-10
  8.71788    -85.7 1.032e+04 4.350e-10
  8.74914    -83.0 1.029e+04 4.188e-10
  8.76957    -83.0 1.030e+04 4.277e-10
  8.79959    -80.3 1.025e+04 4.066e-10
  8.84045    -77.6 1.020e+04 3.946e-10
  8.88130    -74.9 1.018e+04 3.881e-10
  8.90195    -72.2 1.018e+04 3.839e-10
  8.92238    -72.0 1.013e+04 3.432e-10
  8.96301    -69.5 1.023e+04 3.472e-10
  8.98779    -67.2 1.038e+04 4.158e-10
  9.00822    -67.1 1.027e+04 3.662e-10
  9.03434    -64.8 1.040e+04 4.475e-10
  9.05476    -64.8 1.081e+04 5.826e-10
  9.08558    -62.8 1.145e+04 8.824e-10
  9.12643    -61.4 1.234e+04 1.392e-09
  9.15697    -61.2 1.352e+04 2.562e-09
  9.17549    -61.0 1.426e+04 3.761e-09
  9.18514    -61.0 1.387e+04 2.972e-09
  9.18695    -60.7 1.429e+04 3.807e-09
  9.19773    -59.9 1.486e+04 5.005e-09
  9.21816    -59.1 1.521e+04 5.682e-09
  9.23859    -58.7 1.528e+04 5.810e-09
  9.25314    -58.1 1.502e+04 5.317e-09
  9.26336    -57.7 1.501e+04 4.971e-09
  9.27944    -57.3 1.440e+04 3.478e-09
  9.29987    -57.3 1.362e+04 2.243e-09
  9.31934    -58.5 1.286e+04 1.508e-09
  9.32955    -58.5 1.282e+04 1.505e-09
  9.34072    -59.1 1.235e+04 1.247e-09
  9.36348    -59.0 1.218e+04 1.160e-09
  9.38391    -60.1 1.174e+04 9.426e-10
  9.39574    -60.2 1.155e+04 8.772e-10
  9.40596    -59.7 1.178e+04 9.934e-10
  9.42243    -59.7 1.160e+04 9.321e-10
  9.44286    -59.7 1.147e+04 8.736e-10
  9.46193    -59.6 1.134e+04 8.078e-10
  9.47215    -59.3 1.168e+04 1.018e-09
  9.48371    -59.4 1.153e+04 9.333e-10
  9.50414    -59.6 1.136e+04 8.448e-10
  9.52457    -59.9 1.116e+04 7.654e-10
  9.53834    -60.1 1.097e+04 7.061e-10
  9.54855    -60.3 1.136e+04 9.164e-10
  9.56149    -60.4 1.121e+04 8.703e-10
  9.57170    -60.2 1.094e+04 7.815e-10
  9.58585    -60.1 1.080e+04 7.371e-10
  9.60453    -59.7 1.067e+04 6.936e-10
  9.61475    -60.0 1.097e+04 8.714e-10
  9.62671    -59.5 1.079e+04 7.931e-10
  9.64713    -58.9 1.062e+04 7.164e-10
  9.66756    -58.2 1.048e+04 6.473e-10
  9.68094    -57.4 1.036e+04 5.892e-10
  9.69115    -57.9 1.045e+04 6.188e-10
  9.70841    -57.3 1.032e+04 5.557e-10
  9.72884    -56.8 1.025e+04 5.152e-10
  9.74713    -56.2 1.025e+04 5.010e-10
  9.75734    -57.2 1.031e+04 5.163e-10
  9.75959    -56.8 1.034e+04 5.167e-10
  9.76981    -56.3 1.036e+04 5.577e-10
  9.79012    -56.0 1.052e+04 5.825e-10
  9.81055    -55.7 1.072e+04 6.684e-10
  9.82354    -55.3 1.096e+04 7.947e-10
  9.83375    -55.8 1.097e+04 8.330e-10
  9.86172    -54.7 1.126e+04 9.651e-10
  9.88992    -53.2 1.166e+04 1.225e-09
  9.91035    -54.5 1.137e+04 1.079e-09
  9.94352    -53.3 1.153e+04 1.144e-09
  9.98438    -52.5 1.157e+04 1.113e-09
 10.02231    -51.6 1.140e+04 9.798e-10
 10.04273    -52.4 1.043e+04 5.937e-10
 10.06609    -51.3 1.021e+04 5.260e-10
 10.10694    -50.1 1.013e+04 5.042e-10
 10.13557    -48.8 1.015e+04 5.197e-10
 10.15600    -49.8 1.069e+04 7.299e-10
 10.17512    -48.9 1.093e+04 8.375e-10
 10.19555    -49.1 1.012e+04 5.725e-10
 10.22951    -47.9 1.030e+04 6.534e-10
 10.27036    -46.8 1.032e+04 6.741e-10
 10.30750    -45.6 1.001e+04 5.859e-10
 10.32793    -46.0 9.114e+03 3.667e-10
 10.35207    -45.0 8.905e+03 2.794e-10
 10.39293    -44.0 8.600e+03 2.085e-10
 10.43378    -42.9 8.236e+03 1.438e-10
 10.46031    -41.8 8.024e+03 1.090e-10
 10.48074    -41.4 8.010e+03 1.140e-10
 10.51136    -40.2 7.968e+03 1.051e-10
 10.53179    -41.1 7.811e+03 9.121e-11
 10.55635    -40.0 7.918e+03 9.844e-11
 10.59270    -38.9 8.044e+03 1.093e-10
 10.61313    -38.1 8.025e+03 1.091e-10
 10.63805    -37.1 8.091e+03 1.074e-10
 10.67891    -36.5 8.145e+03 1.058e-10
 10.71976    -36.2 8.283e+03 1.136e-10
 10.74551    -36.2 8.505e+03 1.410e-10
 10.76594    -35.1 8.506e+03 1.253e-10
 10.80147    -35.1 8.762e+03 1.697e-10
 10.84233    -35.0 8.952e+03 2.137e-10
 10.87789    -34.9 9.047e+03 2.301e-10
 10.89832    -33.2 9.066e+03 2.372e-10
 10.90757    -33.1 9.094e+03 2.364e-10
 10.92800    -34.6 9.109e+03 2.404e-10
 10.96489    -34.6 9.127e+03 2.231e-10
 11.00575    -34.8 9.143e+03 2.199e-10
 11.03071    -35.2 9.347e+03 2.335e-10
 11.05113    -33.2 9.404e+03 2.517e-10
 11.08746    -33.6 9.629e+03 3.157e-10
 11.12831    -34.0 9.874e+03 3.964e-10
 11.16309    -34.5 1.012e+04 4.666e-10
 11.18352    -32.7 1.009e+04 4.633e-10
 11.21002    -33.4 1.011e+04 4.606e-10
 11.25088    -34.3 9.859e+03 3.900e-10
 11.28336    -34.9 9.593e+03 3.265e-10
 11.30378    -36.1 9.598e+03 3.328e-10
 11.31590    -36.2 9.525e+03 3.073e-10
 11.33633    -34.3 9.140e+03 2.154e-10
 11.37344    -34.3 9.139e+03 2.117e-10
 11.41429    -34.2 9.313e+03 2.345e-10
 11.44829    -34.1 9.582e+03 3.190e-10
 11.46871    -32.0 9.274e+03 2.232e-10
 11.49600    -31.7 9.646e+03 3.545e-10
 11.53686    -31.3 1.004e+04 5.186e-10
