# Columns:
#   distance along LOS (in CHIMPs)
#   peculiar velocity  (in km/s)
#   temperature (K)
#   HI number density
# pos=(79.3367,203.232,3.3325), angles=(1.46202,0.401217)
  0.00337    137.1 1.067e+04 4.919e-10
  0.00701    135.2 1.150e+04 7.436e-10
  0.01768    137.0 1.072e+04 4.592e-10
  0.03875    134.7 1.204e+04 8.007e-10
  0.05351    131.6 1.403e+04 1.676e-09
  0.05948    134.0 1.283e+04 9.817e-10
  0.06606    135.7 1.163e+04 6.276e-10
  0.08144    132.2 1.444e+04 1.666e-09
  0.10000    128.8 1.688e+04 4.146e-09
  0.11067    131.5 1.551e+04 2.541e-09
  0.12412    128.7 1.768e+04 5.837e-09
  0.14546    126.4 1.950e+04 9.138e-09
  0.15717    123.8 2.048e+04 9.466e-09
  0.16784    126.7 2.034e+04 1.106e-08
  0.18815    123.9 2.118e+04 1.094e-08
  0.20367    120.4 2.113e+04 1.003e-08
  0.21434    123.9 2.178e+04 1.290e-08
  0.23072    120.2 2.166e+04 1.148e-08
  0.24139    121.7 2.366e+04 1.380e-08
  0.25016    116.7 2.223e+04 1.032e-08
  0.26079    117.4 2.270e+04 1.219e-08
  0.27347    114.5 2.227e+04 1.188e-08
  0.29486    109.4 2.153e+04 1.147e-08
  0.30733    104.9 2.143e+04 1.083e-08
  0.31800    106.9 2.300e+04 1.494e-08
  0.33754    102.0 2.338e+04 1.368e-08
  0.35383     97.0 2.313e+04 9.195e-09
  0.36445     95.5 2.402e+04 1.039e-08
  0.38018     92.9 2.354e+04 8.749e-09
  0.40032     87.2 1.926e+04 3.837e-09
  0.41100     89.2 2.237e+04 7.154e-09
  0.41671     83.8 1.715e+04 2.764e-09
  0.42739     81.5 1.481e+04 2.266e-09
  0.44426     78.6 1.267e+04 1.350e-09
  0.45749     76.2 1.288e+04 9.780e-10
  0.46816     76.9 1.294e+04 9.017e-10
  0.48694     73.7 1.203e+04 6.404e-10
  0.50409     71.2 1.148e+04 5.188e-10
  0.52553     72.5 1.135e+04 4.115e-10
  0.56183     69.7 1.078e+04 3.584e-10
  0.59223     68.2 1.064e+04 3.454e-10
  0.60624     66.8 1.088e+04 4.020e-10
  0.61852     68.6 1.035e+04 2.753e-10
  0.64720     67.5 1.028e+04 2.625e-10
  0.68989     66.3 1.026e+04 2.565e-10
  0.71151     64.8 1.036e+04 2.686e-10
  0.73285     66.3 1.006e+04 2.193e-10
  0.77526     64.1 1.036e+04 2.558e-10
  0.80450     61.2 1.122e+04 3.853e-10
  0.82585     62.4 1.106e+04 3.685e-10
  0.86062     59.5 1.193e+04 5.768e-10
  0.89750     56.8 1.255e+04 7.278e-10
  0.91884     58.3 1.245e+04 7.566e-10
  0.94288     55.3 1.303e+04 7.845e-10
  0.96213     51.2 1.431e+04 1.297e-09
  0.96514     52.0 1.444e+04 1.320e-09
  0.97781     49.9 1.453e+04 1.370e-09
  0.99915     47.5 1.453e+04 1.423e-09
  1.01164     45.3 1.443e+04 1.501e-09
  1.02231     45.9 1.457e+04 1.526e-09
  1.04184     43.7 1.440e+04 1.586e-09
  1.05813     40.8 1.580e+04 1.536e-09
  1.06880     41.5 1.474e+04 1.628e-09
  1.08452     34.6 2.343e+04 1.127e-09
  1.10048    -21.4 1.154e+05 3.433e-10
  1.10987    -40.0 1.357e+05 8.941e-10
  1.11520    -41.4 1.345e+05 1.072e-09
  1.12177    -58.7 3.815e+04 2.375e-07
  1.12975    -63.0 1.919e+04 6.218e-06
  1.13506    -66.6 1.881e+04 8.886e-06
  1.13840    -72.4 1.907e+04 7.712e-06
  1.13988    -73.0 1.897e+04 8.069e-06
  1.14188    -83.9 2.075e+04 2.440e-06
  1.14574    -98.6 2.030e+04 3.024e-07
  1.15003   -108.5 1.997e+04 5.208e-08
  1.15269   -108.8 1.996e+04 5.166e-08
  1.15641   -114.1 2.391e+04 1.393e-08
  1.16167   -121.7 2.930e+04 2.359e-09
  1.16703   -126.0 2.562e+04 1.743e-09
  1.17513   -130.8 2.880e+04 1.133e-09
  1.18495   -125.4 3.250e+04 3.060e-09
  1.19026   -124.1 3.607e+04 2.412e-09
  1.19376   -117.1 3.907e+04 3.778e-09
  1.19909   -112.8 3.982e+04 5.138e-09
  1.20186   -104.2 4.518e+04 6.755e-09
  1.20453   -102.6 4.427e+04 8.590e-09
  1.20976    -98.2 5.095e+04 7.677e-09
  1.21351    -84.1 5.673e+04 1.055e-08
  1.21887    -81.8 6.483e+04 6.447e-09
  1.22692   -114.3 6.261e+04 9.703e-10
  1.23226   -132.6 3.201e+04 6.944e-10
  1.23678   -139.9 1.631e+04 8.318e-10
  1.24211   -140.6 1.543e+04 8.505e-10
  1.25474   -142.7 1.348e+04 8.957e-10
  1.26546   -142.7 1.331e+04 9.315e-10
  1.27660   -143.1 1.279e+04 8.676e-10
  1.29794   -142.5 1.263e+04 8.019e-10
  1.31196   -141.6 1.248e+04 7.353e-10
  1.31802   -141.0 1.249e+04 7.255e-10
  1.32535   -140.5 1.243e+04 7.161e-10
  1.34063   -139.9 1.224e+04 6.472e-10
  1.35845   -139.3 1.206e+04 5.850e-10
  1.36912   -138.5 1.202e+04 5.691e-10
  1.38331   -137.9 1.187e+04 5.140e-10
  1.40466   -137.4 1.174e+04 4.684e-10
  1.41562   -136.9 1.162e+04 4.343e-10
  1.42629   -136.0 1.163e+04 4.333e-10
  1.44734   -135.5 1.154e+04 4.142e-10
  1.46212   -135.1 1.151e+04 4.083e-10
  1.47279   -134.1 1.154e+04 4.140e-10
  1.49001   -133.7 1.154e+04 4.131e-10
  1.50859   -133.7 1.178e+04 4.529e-10
  1.51928   -132.8 1.182e+04 4.647e-10
  1.53271   -132.5 1.193e+04 5.020e-10
  1.55405   -132.1 1.204e+04 5.491e-10
  1.56578   -131.7 1.214e+04 6.005e-10
  1.57645   -130.8 1.222e+04 6.226e-10
  1.59674   -130.5 1.230e+04 6.685e-10
  1.61228   -130.0 1.234e+04 7.022e-10
  1.62295   -129.2 1.241e+04 7.133e-10
  1.63942   -128.8 1.242e+04 7.231e-10
  1.65877   -128.2 1.241e+04 7.246e-10
  1.66944   -127.7 1.243e+04 7.215e-10
  1.67600   -127.2 1.243e+04 7.118e-10
  1.68667   -127.7 1.237e+04 7.175e-10
  1.70345   -127.1 1.236e+04 7.019e-10
  1.71594   -126.7 1.229e+04 6.830e-10
  1.72661   -125.9 1.232e+04 6.679e-10
  1.75690   -125.6 1.221e+04 6.188e-10
  1.79846   -124.5 1.204e+04 5.870e-10
  1.81970   -123.8 1.217e+04 6.432e-10
  1.83150   -123.1 1.212e+04 6.405e-10
  1.85133   -122.6 1.209e+04 6.463e-10
  1.86200   -122.6 1.186e+04 5.652e-10
  1.86610   -121.8 1.185e+04 5.741e-10
  1.87677   -121.5 1.188e+04 5.938e-10
  1.89553   -120.8 1.190e+04 6.140e-10
  1.91260   -120.0 1.192e+04 6.344e-10
  1.92327   -119.7 1.212e+04 6.819e-10
  1.93821   -118.9 1.215e+04 7.027e-10
  1.95909   -118.1 1.219e+04 7.145e-10
  1.96977   -118.0 1.238e+04 7.297e-10
  1.98090   -117.2 1.235e+04 7.205e-10
  2.00224   -116.5 1.229e+04 7.095e-10
  2.01626   -115.7 1.225e+04 6.996e-10
  2.02693   -115.7 1.224e+04 6.694e-10
  2.03732   -114.9 1.221e+04 6.615e-10
  2.04799   -114.7 1.226e+04 6.778e-10
  2.06276   -114.0 1.226e+04 6.746e-10
  2.07343   -114.0 1.217e+04 6.183e-10
  2.08761   -113.3 1.216e+04 6.164e-10
  2.10895   -112.7 1.219e+04 6.284e-10
  2.11993   -112.1 1.226e+04 6.620e-10
  2.13060   -112.3 1.213e+04 6.070e-10
  2.15163   -111.8 1.223e+04 6.730e-10
  2.16642   -111.3 1.238e+04 7.612e-10
  2.17709   -111.4 1.232e+04 7.425e-10
  2.19432   -110.7 1.255e+04 8.588e-10
  2.21265   -110.1 1.281e+04 9.952e-10
  2.22058   -109.8 1.240e+04 8.128e-10
  2.22359   -109.7 1.240e+04 8.031e-10
  2.23700   -109.1 1.262e+04 9.218e-10
  2.25835   -108.5 1.284e+04 1.049e-09
  2.27009   -107.8 1.306e+04 1.185e-09
  2.28076   -107.6 1.308e+04 1.180e-09
  2.30103   -107.0 1.330e+04 1.330e-09
  2.31658   -106.5 1.358e+04 1.503e-09
  2.32725   -106.4 1.356e+04 1.454e-09
  2.34371   -106.0 1.388e+04 1.668e-09
  2.36308   -105.7 1.429e+04 1.950e-09
  2.37375   -105.6 1.412e+04 1.755e-09
  2.38640   -105.4 1.451e+04 2.066e-09
  2.39864   -105.1 1.489e+04 2.424e-09
  2.40931   -104.3 1.467e+04 2.329e-09
  2.42025   -104.0 1.511e+04 2.763e-09
  2.43092   -103.7 1.489e+04 2.474e-09
  2.45043   -103.4 1.515e+04 2.769e-09
  2.46674   -103.1 1.527e+04 2.928e-09
  2.47741   -102.9 1.503e+04 2.606e-09
  2.49311   -102.7 1.505e+04 2.612e-09
  2.51324   -102.6 1.477e+04 2.302e-09
  2.52391   -102.5 1.448e+04 2.024e-09
  2.53579   -102.6 1.393e+04 1.581e-09
  2.55714   -103.2 1.323e+04 1.196e-09
  2.57041   -104.1 1.264e+04 9.692e-10
  2.57657   -104.2 1.281e+04 1.043e-09
  2.58464   -102.6 1.312e+04 1.091e-09
  2.59982   -103.4 1.279e+04 1.013e-09
  2.61690   -103.9 1.276e+04 1.002e-09
  2.62757   -104.3 1.336e+04 1.189e-09
  2.65327   -105.3 1.348e+04 1.256e-09
  2.69606   -105.7 1.369e+04 1.441e-09
  2.72076   -106.1 1.380e+04 1.596e-09
  2.74210   -107.1 1.420e+04 1.807e-09
  2.76716   -104.9 1.413e+04 1.841e-09
  2.77773   -105.5 1.424e+04 1.960e-09
  2.79190   -105.5 1.418e+04 1.934e-09
  2.81324   -105.6 1.412e+04 1.880e-09
  2.82423   -105.6 1.400e+04 1.719e-09
  2.83490   -105.7 1.397e+04 1.731e-09
  2.85593   -105.7 1.380e+04 1.490e-09
  2.87073   -105.8 1.363e+04 1.247e-09
  2.88140   -106.1 1.342e+04 1.171e-09
  2.89861   -106.5 1.317e+04 9.652e-10
  2.91722   -106.8 1.299e+04 8.431e-10
  2.92789   -107.4 1.293e+04 8.054e-10
  2.93529   -107.8 1.279e+04 7.576e-10
  2.94596   -106.0 1.343e+04 1.017e-09
  2.96264   -106.4 1.322e+04 9.366e-10
  2.97439   -106.9 1.300e+04 8.820e-10
  2.98506   -107.7 1.290e+04 8.763e-10
  3.00532   -107.9 1.282e+04 8.612e-10
  3.02089   -108.1 1.275e+04 8.540e-10
  3.03156   -108.7 1.268e+04 8.582e-10
  3.04801   -108.7 1.254e+04 8.217e-10
  3.06738   -108.6 1.236e+04 7.581e-10
  3.07805   -109.0 1.230e+04 7.275e-10
  3.09069   -108.8 1.212e+04 6.358e-10
  3.11061   -108.8 1.200e+04 5.468e-10
  3.12128   -107.1 1.212e+04 6.202e-10
  3.12455   -107.1 1.203e+04 5.458e-10
  3.13522   -107.8 1.202e+04 5.002e-10
  3.16549   -107.5 1.207e+04 4.868e-10
  3.20707   -107.2 1.204e+04 4.542e-10
  3.22841   -108.4 1.175e+04 3.701e-10
  3.25095   -108.2 1.149e+04 2.896e-10
  3.29364   -108.2 1.105e+04 2.117e-10
  3.32140   -108.7 1.060e+04 1.819e-10
  3.34275   -109.9 9.968e+03 1.259e-10
  3.37901   -110.1 9.937e+03 1.254e-10
  3.41440   -110.1 1.001e+04 1.332e-10
  3.43574   -109.5 9.701e+03 1.060e-10
  3.46146   -109.1 1.005e+04 1.328e-10
  3.48280   -105.9 9.996e+03 1.152e-10
  3.50706   -106.0 1.057e+04 1.768e-10
  3.52873   -106.2 1.126e+04 3.216e-10
  3.55007   -105.1 1.134e+04 2.958e-10
  3.59243   -105.3 1.239e+04 5.729e-10
  3.62172   -106.2 1.325e+04 9.987e-10
  3.63230   -105.1 1.296e+04 7.887e-10
  3.64559   -105.2 1.342e+04 1.025e-09
  3.65793   -105.9 1.357e+04 1.211e-09
  3.66860   -105.0 1.427e+04 1.611e-09
  3.67870   -105.6 1.458e+04 1.840e-09
  3.68937   -104.3 1.548e+04 2.214e-09
  3.70962   -105.2 1.561e+04 2.410e-09
  3.72519   -106.2 1.555e+04 2.464e-09
  3.73586   -104.7 1.666e+04 3.158e-09
  3.75230   -105.6 1.626e+04 3.067e-09
  3.77169   -106.8 1.595e+04 2.994e-09
  3.78236   -106.1 1.732e+04 3.992e-09
  3.79499   -108.5 1.779e+04 4.526e-09
  3.81633   -110.9 1.874e+04 5.839e-09
  3.82886   -112.7 1.957e+04 7.494e-09
  3.83414   -111.7 1.987e+04 7.805e-09
  3.83849   -112.1 1.989e+04 7.970e-09
  3.84388   -111.8 1.852e+04 6.174e-09
  3.85206   -112.6 1.874e+04 6.431e-09
  3.85734   -112.5 1.896e+04 6.819e-09
  3.86425   -113.2 1.923e+04 7.253e-09
  3.87492   -113.9 1.951e+04 7.885e-09
  3.88059   -114.4 1.978e+04 8.520e-09
  3.88593   -114.6 2.002e+04 8.614e-09
  3.89626   -115.0 2.025e+04 8.963e-09
  3.90384   -115.4 2.045e+04 9.409e-09
  3.90917   -115.7 2.065e+04 8.644e-09
  3.91761   -115.9 2.090e+04 8.677e-09
  3.92615   -116.2 2.103e+04 8.742e-09
  3.93030   -115.2 1.933e+04 5.443e-09
  3.93242   -115.8 1.891e+04 4.640e-09
  3.93895   -116.2 1.914e+04 4.536e-09
  3.94962   -116.6 1.941e+04 4.585e-09
  3.95567   -117.1 1.949e+04 4.694e-09
  3.96101   -117.5 1.923e+04 4.348e-09
  3.97096   -117.7 1.955e+04 5.101e-09
  3.97897   -117.9 1.959e+04 6.298e-09
  3.98969   -119.0 1.818e+04 4.171e-09
  4.00841   -119.1 1.802e+04 4.694e-09
  4.01925   -119.0 1.810e+04 5.714e-09
  4.02568   -116.7 1.682e+04 2.993e-09
  4.03618   -116.9 1.500e+04 2.219e-09
  4.05109   -116.2 1.592e+04 2.910e-09
  4.07201   -115.6 1.678e+04 3.962e-09
  4.08268   -115.1 1.546e+04 2.869e-09
  4.09378   -114.5 1.622e+04 3.771e-09
  4.11512   -114.2 1.722e+04 5.228e-09
  4.12918   -115.0 1.893e+04 7.638e-09
  4.13985   -115.3 1.890e+04 5.903e-09
  4.15780   -118.4 2.254e+04 1.007e-08
  4.17567   -122.6 2.518e+04 1.630e-08
  4.18630   -123.9 2.641e+04 1.946e-08
  4.19448   -126.5 2.724e+04 2.880e-08
  4.19981   -123.6 2.706e+04 2.730e-08
  4.20416   -126.5 2.806e+04 4.299e-08
  4.20949   -127.9 2.841e+04 5.792e-08
  4.21640   -131.2 2.841e+04 8.455e-08
  4.22707   -135.3 2.841e+04 9.484e-08
  4.23274   -140.3 2.769e+04 9.334e-08
  4.23808   -141.5 2.665e+04 1.570e-07
  4.24841   -146.9 2.547e+04 1.060e-07
  4.25599   -151.5 2.360e+04 6.011e-08
  4.26133   -152.6 2.356e+04 6.856e-08
  4.26975   -155.3 2.147e+04 3.575e-08
  4.27924   -156.5 1.980e+04 2.281e-08
  4.28457   -157.3 1.946e+04 1.910e-08
  4.28748   -158.0 1.856e+04 1.251e-08
  4.29281   -157.9 1.877e+04 1.423e-08
  4.30177   -158.5 1.795e+04 9.764e-09
  4.30782   -159.2 1.711e+04 6.741e-09
  4.31316   -160.3 1.679e+04 5.715e-09
  4.32311   -160.8 1.603e+04 4.406e-09
  4.33107   -160.9 1.550e+04 3.650e-09
  4.33641   -161.7 1.524e+04 3.205e-09
  4.34984   -161.8 1.476e+04 2.554e-09
  4.36990   -161.4 1.356e+04 1.496e-09
  4.38057   -160.7 1.371e+04 1.764e-09
  4.38300   -160.3 1.229e+04 9.780e-10
  4.39367   -160.8 1.178e+04 8.474e-10
  4.41391   -161.1 1.080e+04 5.707e-10
  4.42950   -161.3 1.043e+04 4.572e-10
  4.44017   -161.4 1.047e+04 4.810e-10
  4.45660   -160.9 1.008e+04 4.192e-10
  4.47599   -160.1 9.836e+03 3.904e-10
  4.48666   -160.3 9.868e+03 4.326e-10
  4.49928   -159.5 9.800e+03 4.114e-10
  4.52259   -159.2 9.812e+03 4.037e-10
  4.54393   -158.9 9.824e+03 4.470e-10
  4.55599   -158.6 9.914e+03 4.408e-10
  4.56666   -156.6 9.888e+03 4.292e-10
  4.57966   -156.2 9.938e+03 4.311e-10
  4.59033   -156.2 9.927e+03 4.475e-10
  4.61558   -156.0 9.956e+03 4.286e-10
  4.63702   -156.1 1.001e+04 4.186e-10
  4.65954   -156.5 9.914e+03 3.706e-10
  4.70223   -157.5 9.692e+03 3.126e-10
  4.73001   -158.5 9.490e+03 2.718e-10
  4.75136   -159.9 9.852e+03 3.122e-10
  4.78760   -161.0 9.912e+03 3.119e-10
  4.81951   -161.0 9.901e+03 3.409e-10
  4.83348   -161.3 9.992e+03 3.686e-10
  4.84415   -162.6 1.042e+04 5.167e-10
  4.86210   -162.7 1.049e+04 5.664e-10
  4.87998   -162.6 1.059e+04 6.201e-10
  4.89065   -163.4 1.100e+04 8.394e-10
  4.90478   -163.1 1.113e+04 9.035e-10
  4.91722   -162.8 1.128e+04 9.750e-10
  4.92789   -161.8 1.105e+04 8.274e-10
  4.93715   -161.6 1.122e+04 9.048e-10
  4.94782   -162.1 1.163e+04 1.150e-09
  4.96881   -161.8 1.179e+04 1.251e-09
  4.98364   -161.5 1.197e+04 1.381e-09
  4.99431   -161.9 1.210e+04 1.422e-09
  5.01149   -161.5 1.237e+04 1.610e-09
  5.03014   -161.1 1.264e+04 1.818e-09
  5.04081   -161.1 1.243e+04 1.688e-09
  5.05418   -160.7 1.256e+04 1.805e-09
  5.07552   -161.0 1.306e+04 2.057e-09
  5.08731   -163.4 1.616e+04 2.586e-09
  5.09365   -171.5 2.138e+04 5.215e-09
  5.10321   -169.0 2.033e+04 4.955e-09
  5.11821   -172.1 2.156e+04 9.206e-09
  5.13380   -173.7 2.121e+04 1.523e-08
  5.14447   -174.7 1.947e+04 1.675e-08
  5.16089   -174.4 1.932e+04 1.871e-08
  5.18030   -173.9 1.923e+04 1.915e-08
  5.19097   -173.7 1.784e+04 8.986e-09
  5.20357   -173.4 1.804e+04 6.110e-09
  5.22492   -174.2 1.818e+04 3.639e-09
  5.23747   -177.0 1.772e+04 1.922e-09
  5.24814   -185.3 1.178e+04 4.671e-10
  5.26760   -186.7 1.019e+04 3.860e-10
  5.27854   -186.9 9.916e+03 3.732e-10
  5.28423   -186.5 9.932e+03 4.005e-10
  5.29463   -186.3 9.681e+03 3.246e-10
  5.31029   -185.8 9.767e+03 3.446e-10
  5.33046   -185.3 9.857e+03 3.688e-10
  5.35190   -185.8 9.642e+03 2.924e-10
  5.38518   -184.7 9.654e+03 3.042e-10
  5.42365   -183.6 9.653e+03 3.064e-10
  5.44499   -184.0 8.983e+03 1.730e-10
  5.47055   -182.8 8.996e+03 1.769e-10
  5.51323   -181.5 9.001e+03 1.788e-10
  5.53798   -180.0 9.016e+03 1.801e-10
  5.55932   -180.0 8.748e+03 1.388e-10
  5.59860   -178.6 8.888e+03 1.618e-10
  5.62938   -177.2 9.064e+03 1.969e-10
  5.64041   -177.3 8.978e+03 1.495e-10
  5.65232   -177.7 9.041e+03 1.518e-10
  5.68397   -176.5 9.410e+03 2.225e-10
  5.72397   -175.3 9.820e+03 3.111e-10
  5.74531   -176.3 1.000e+04 3.354e-10
  5.76934   -175.6 1.033e+04 4.257e-10
  5.81202   -175.1 1.052e+04 4.777e-10
  5.83830   -174.8 1.056e+04 4.902e-10
  5.85964   -176.6 1.037e+04 4.222e-10
  5.89739   -176.4 1.034e+04 4.078e-10
  5.93130   -176.3 1.032e+04 3.713e-10
  5.95264   -178.2 1.018e+04 2.659e-10
  5.98003   -178.4 1.020e+04 2.602e-10
  6.00137   -180.0 1.056e+04 4.250e-10
  6.02429   -180.0 1.053e+04 4.278e-10
  6.04563   -181.6 1.045e+04 4.354e-10
  6.06813   -181.3 1.048e+04 4.533e-10
  6.11081   -181.0 1.048e+04 4.557e-10
  6.13862   -180.6 1.047e+04 4.549e-10
  6.15997   -181.9 1.046e+04 4.408e-10
  6.19618   -181.3 1.046e+04 4.393e-10
  6.23162   -180.7 1.048e+04 4.476e-10
  6.25296   -181.9 1.037e+04 4.197e-10
  6.28155   -180.9 1.036e+04 4.323e-10
  6.32424   -179.8 1.038e+04 4.490e-10
  6.34595   -178.6 1.039e+04 4.660e-10
  6.35239   -179.0 1.021e+04 4.263e-10
  6.37337   -180.8 1.009e+04 4.616e-10
  6.40961   -179.0 1.005e+04 4.520e-10
  6.43894   -177.4 1.004e+04 4.330e-10
  6.46029   -177.0 1.001e+04 4.393e-10
  6.48421   -175.5 1.005e+04 4.686e-10
  6.49592   -174.6 1.011e+04 4.715e-10
  6.50659   -174.4 1.023e+04 5.139e-10
  6.52679   -173.5 1.032e+04 5.289e-10
  6.53782   -172.8 1.035e+04 5.301e-10
  6.54277   -173.7 1.018e+04 4.200e-10
  6.55308   -173.5 1.037e+04 4.744e-10
  6.56948   -172.9 1.038e+04 4.733e-10
  6.58891   -172.1 1.037e+04 4.610e-10
  6.59958   -171.9 1.056e+04 5.237e-10
  6.61216   -171.1 1.049e+04 4.905e-10
  6.63350   -170.2 1.042e+04 4.664e-10
  6.64608   -169.3 1.035e+04 4.423e-10
  6.65675   -169.2 1.048e+04 4.927e-10
  6.67619   -168.3 1.039e+04 4.618e-10
  6.69257   -167.3 1.031e+04 4.393e-10
  6.70324   -167.2 1.038e+04 4.656e-10
  6.71315   -166.3 1.031e+04 4.508e-10
  6.72392   -167.9 9.892e+03 3.237e-10
  6.73926   -165.9 9.855e+03 3.173e-10
  6.74984   -165.9 9.959e+03 3.602e-10
  6.76156   -164.9 9.951e+03 3.563e-10
  6.78290   -163.8 9.951e+03 3.550e-10
  6.79624   -162.8 9.953e+03 3.548e-10
  6.80691   -162.7 9.970e+03 3.722e-10
  6.82558   -161.8 9.973e+03 3.716e-10
  6.84273   -160.9 1.002e+04 3.761e-10
  6.85340   -160.7 1.008e+04 3.958e-10
  6.86827   -159.8 1.016e+04 4.002e-10
  6.88847   -158.9 1.024e+04 4.240e-10
  6.89876   -159.7 1.003e+04 2.961e-10
  6.89990   -159.6 1.000e+04 2.959e-10
  6.91095   -158.8 1.013e+04 3.134e-10
  6.93230   -158.2 1.022e+04 3.341e-10
  6.94640   -157.4 1.035e+04 3.651e-10
  6.95707   -157.2 1.037e+04 3.773e-10
  6.97498   -156.4 1.048e+04 4.018e-10
  6.99289   -155.7 1.057e+04 4.250e-10
  7.00356   -155.5 1.049e+04 4.226e-10
  7.01766   -154.8 1.059e+04 4.382e-10
  7.03901   -154.2 1.069e+04 4.559e-10
  7.05006   -153.9 1.079e+04 4.740e-10
  7.06073   -154.1 1.062e+04 4.288e-10
  7.07447   -154.2 1.072e+04 4.311e-10
  7.08514   -154.9 1.054e+04 3.833e-10
  7.09656   -155.4 1.087e+04 3.969e-10
  7.10723   -155.3 1.085e+04 4.092e-10
  7.12438   -156.8 1.149e+04 4.791e-10
  7.14305   -158.4 1.214e+04 5.905e-10
  7.15372   -159.4 1.376e+04 9.573e-10
  7.16706   -160.9 1.420e+04 1.344e-09
  7.18840   -162.0 1.442e+04 1.807e-09
  7.20022   -162.7 1.449e+04 2.223e-09
  7.21089   -163.0 1.514e+04 3.087e-09
  7.23109   -163.3 1.464e+04 3.119e-09
  7.24672   -163.5 1.418e+04 2.775e-09
  7.25475   -163.6 1.441e+04 2.942e-09
  7.26047   -163.5 1.399e+04 3.006e-09
  7.27377   -163.2 1.370e+04 2.512e-09
  7.29321   -163.2 1.337e+04 1.951e-09
  7.30388   -163.8 1.342e+04 1.795e-09
  7.31646   -164.3 1.285e+04 1.268e-09
  7.33780   -165.0 1.216e+04 9.238e-10
  7.35038   -165.5 1.150e+04 7.221e-10
  7.36105   -166.7 1.130e+04 7.008e-10
  7.38048   -166.5 1.097e+04 6.128e-10
  7.39688   -166.0 1.080e+04 5.627e-10
  7.40755   -166.5 1.088e+04 6.279e-10
  7.42317   -165.9 1.087e+04 6.027e-10
  7.43579   -165.3 1.089e+04 5.838e-10
  7.44533   -164.9 1.071e+04 5.711e-10
  7.45404   -165.4 1.097e+04 6.767e-10
  7.46585   -165.0 1.103e+04 6.710e-10
  7.48719   -164.5 1.109e+04 6.683e-10
  7.50054   -164.1 1.116e+04 6.713e-10
  7.51121   -164.6 1.146e+04 8.339e-10
  7.52988   -164.1 1.153e+04 8.534e-10
  7.54704   -163.6 1.157e+04 8.818e-10
  7.55771   -164.2 1.198e+04 1.090e-09
  7.57256   -163.6 1.201e+04 1.119e-09
  7.59353   -163.1 1.202e+04 1.156e-09
  7.60420   -163.6 1.237e+04 1.337e-09
  7.61111   -163.0 1.236e+04 1.366e-09
  7.62179   -162.8 1.232e+04 1.354e-09
  7.63659   -162.3 1.225e+04 1.347e-09
  7.65070   -161.8 1.221e+04 1.352e-09
  7.66137   -162.2 1.232e+04 1.408e-09
  7.67927   -161.6 1.222e+04 1.364e-09
  7.69720   -161.1 1.212e+04 1.310e-09
  7.70787   -161.5 1.195e+04 1.204e-09
  7.72196   -161.0 1.176e+04 1.095e-09
