# Columns:
#   distance along LOS (in CHIMPs)
#   peculiar velocity  (in km/s)
#   temperature (K)
#   HI number density
# pos=(143.833,197.278,156.318), angles=(0.374726,2.92212)
  0.01544     57.3 1.170e+04 1.146e-09
  0.03377     57.5 1.217e+04 1.422e-09
  0.05476     59.7 1.184e+04 1.165e-09
  0.09384     60.4 1.222e+04 1.439e-09
  0.13042     61.2 1.221e+04 1.378e-09
  0.15141     63.6 1.246e+04 1.576e-09
  0.17779     64.9 1.235e+04 1.459e-09
  0.21976     66.2 1.188e+04 1.093e-09
  0.24806     67.6 1.118e+04 6.908e-10
  0.26904     70.2 1.206e+04 1.178e-09
  0.30371     71.5 1.131e+04 7.525e-10
  0.34471     72.9 1.057e+04 4.553e-10
  0.36569     74.6 1.146e+04 8.003e-10
  0.38767     76.0 1.086e+04 5.048e-10
  0.42187     77.5 1.041e+04 3.254e-10
  0.44285     77.7 1.038e+04 3.678e-10
  0.46234     79.5 1.003e+04 2.671e-10
  0.48333     80.3 1.070e+04 4.970e-10
  0.51359     82.2 1.049e+04 4.208e-10
  0.55557     84.3 1.049e+04 4.209e-10
  0.57998     86.3 1.051e+04 4.398e-10
  0.60096     86.9 1.110e+04 7.717e-10
  0.63952     88.8 1.114e+04 8.037e-10
  0.67662     90.6 1.119e+04 8.497e-10
  0.69761     90.9 1.124e+04 9.338e-10
  0.72347     92.5 1.113e+04 8.592e-10
  0.76544     94.5 1.091e+04 7.495e-10
  0.79426     96.4 1.062e+04 6.105e-10
  0.81525     97.0 1.025e+04 4.655e-10
  0.84939     98.9 9.972e+03 3.616e-10
  0.89091    100.8 9.774e+03 3.199e-10
  0.91190    101.5 9.529e+03 2.591e-10
  0.91881    103.9 9.537e+03 2.629e-10
  0.93980    104.5 9.803e+03 2.967e-10
  0.97532    107.0 9.920e+03 3.283e-10
  1.00670    108.3 9.891e+03 3.266e-10
  1.01884    109.4 9.911e+03 3.357e-10
  1.02943    110.2 9.697e+03 2.851e-10
  1.05927    112.2 9.833e+03 3.214e-10
  1.09065    113.4 9.761e+03 3.260e-10
  1.11154    114.5 9.797e+03 3.545e-10
  1.12599    115.6 9.975e+03 4.169e-10
  1.13648    116.3 9.639e+03 3.149e-10
  1.15352    117.0 9.802e+03 3.672e-10
  1.16709    117.6 1.006e+04 4.527e-10
  1.17739    117.9 1.027e+04 4.620e-10
  1.18480    118.2 9.732e+03 3.453e-10
  1.19549    118.9 1.002e+04 4.202e-10
  1.21648    119.5 1.042e+04 5.482e-10
  1.23313    120.0 1.085e+04 7.267e-10
  1.24362    120.7 1.021e+04 4.971e-10
  1.25846    121.2 1.056e+04 6.518e-10
  1.27944    121.8 1.087e+04 8.283e-10
  1.29195    122.4 1.111e+04 9.965e-10
  1.30244    123.1 1.063e+04 7.560e-10
  1.32142    123.9 1.080e+04 8.780e-10
  1.34027    124.7 1.094e+04 9.697e-10
  1.35076    125.6 1.060e+04 7.818e-10
  1.36339    126.4 1.072e+04 8.570e-10
  1.38438    127.3 1.082e+04 9.099e-10
  1.39909    128.2 1.090e+04 9.473e-10
  1.40928    129.2 1.070e+04 8.645e-10
  1.41556    129.3 1.061e+04 7.246e-10
  1.42636    130.1 1.070e+04 7.620e-10
  1.44735    130.9 1.075e+04 7.883e-10
  1.46833    132.7 1.076e+04 7.998e-10
  1.48932    133.6 1.083e+04 8.301e-10
  1.50623    134.2 1.091e+04 8.545e-10
  1.51672    135.2 1.094e+04 8.911e-10
  1.53130    135.6 1.102e+04 9.088e-10
  1.55228    135.9 1.116e+04 9.426e-10
  1.56505    135.6 1.166e+04 1.035e-09
  1.57554    137.1 1.132e+04 1.015e-09
  1.59426    136.5 1.183e+04 1.117e-09
  1.61337    135.4 1.253e+04 1.384e-09
  1.62387    137.1 1.202e+04 1.222e-09
  1.63623    135.9 1.248e+04 1.492e-09
  1.65354    135.0 1.282e+04 1.898e-09
  1.66404    134.4 1.294e+04 1.980e-09
  1.67219    133.7 1.354e+04 2.398e-09
  1.68268    135.3 1.261e+04 1.785e-09
  1.69920    134.5 1.323e+04 2.018e-09
  1.72018    133.4 1.409e+04 2.237e-09
  1.73101    131.9 1.480e+04 2.546e-09
  1.74150    133.7 1.409e+04 1.944e-09
  1.76216    131.9 1.491e+04 2.378e-09
  1.77933    130.1 1.518e+04 3.170e-09
  1.78983    131.6 1.523e+04 2.483e-09
  1.80413    129.9 1.541e+04 3.678e-09
  1.82512    129.2 1.545e+04 5.605e-09
  1.83815    129.2 1.613e+04 8.481e-09
  1.84864    129.4 1.603e+04 7.343e-09
  1.86710    129.6 1.687e+04 1.145e-08
  1.88647    129.9 1.766e+04 1.482e-08
  1.89697    129.9 1.720e+04 1.274e-08
  1.90202    129.8 1.744e+04 1.338e-08
  1.91251    129.9 1.652e+04 8.165e-09
  1.93006    129.9 1.641e+04 6.337e-09
  1.94529    129.3 1.622e+04 4.544e-09
  1.95579    129.8 1.594e+04 4.670e-09
  1.97204    128.8 1.539e+04 3.570e-09
  1.99302    127.8 1.470e+04 3.031e-09
  2.00411    127.4 1.417e+04 3.005e-09
  2.01460    128.3 1.434e+04 3.249e-09
  2.03500    128.2 1.426e+04 3.366e-09
  2.05243    128.3 1.434e+04 3.649e-09
  2.06293    129.0 1.449e+04 3.921e-09
  2.07697    129.1 1.479e+04 4.317e-09
  2.09796    129.2 1.504e+04 4.272e-09
  2.11125    129.0 1.512e+04 4.157e-09
  2.12175    129.8 1.518e+04 4.603e-09
  2.13994    129.4 1.521e+04 4.280e-09
  2.15958    128.4 1.377e+04 2.041e-09
  2.17007    129.4 1.391e+04 2.355e-09
  2.18191    128.9 1.360e+04 2.137e-09
  2.20290    128.8 1.326e+04 2.053e-09
  2.21839    129.0 1.324e+04 2.070e-09
  2.22889    130.0 1.324e+04 2.296e-09
  2.24487    130.3 1.325e+04 2.347e-09
  2.26586    130.6 1.336e+04 2.443e-09
  2.27721    130.9 1.354e+04 2.555e-09
  2.28771    131.9 1.352e+04 2.825e-09
  2.30784    132.0 1.379e+04 3.007e-09
  2.32554    131.7 1.413e+04 3.279e-09
  2.33603    132.9 1.411e+04 3.566e-09
  2.34981    132.3 1.462e+04 4.095e-09
  2.37080    131.5 1.523e+04 4.971e-09
  2.38435    130.1 1.576e+04 5.301e-09
  2.39153    131.2 1.628e+04 6.345e-09
  2.39896    131.0 1.556e+04 4.662e-09
  2.41278    128.6 1.561e+04 4.461e-09
  2.43268    125.2 1.560e+04 3.712e-09
  2.44317    126.0 1.637e+04 4.558e-09
  2.45475    120.4 1.629e+04 3.560e-09
  2.47574    113.7 1.550e+04 3.481e-09
  2.49150    107.9 1.489e+04 3.522e-09
  2.50199    107.5 1.546e+04 4.295e-09
  2.51771    103.4 1.497e+04 4.277e-09
  2.53870    100.8 1.452e+04 4.024e-09
  2.55031     98.9 1.408e+04 3.253e-09
  2.56081     98.1 1.450e+04 3.952e-09
  2.58068     95.9 1.391e+04 2.859e-09
  2.59864     93.4 1.308e+04 1.921e-09
  2.60913     92.6 1.328e+04 2.265e-09
  2.62265     90.5 1.242e+04 1.568e-09
  2.63694     89.0 1.183e+04 1.212e-09
  2.64744     88.9 1.195e+04 1.216e-09
  2.65746     87.2 1.162e+04 1.058e-09
  2.66795     86.1 1.178e+04 1.126e-09
  2.68562     84.6 1.153e+04 1.025e-09
  2.70578     83.6 1.128e+04 9.601e-10
  2.71627     82.5 1.138e+04 1.033e-09
  2.72759     82.1 1.115e+04 9.687e-10
  2.74858     82.0 1.093e+04 8.884e-10
  2.76460     82.1 1.072e+04 7.901e-10
  2.77509     81.4 1.080e+04 8.388e-10
  2.79055     81.6 1.058e+04 7.222e-10
  2.81154     82.0 1.029e+04 5.887e-10
  2.82342     82.2 1.002e+04 4.719e-10
  2.83391     81.7 1.011e+04 5.069e-10
  2.86134     82.4 9.810e+03 3.940e-10
  2.88233     81.9 9.791e+03 3.887e-10
  2.88551     82.5 9.619e+03 3.361e-10
  2.90660     82.7 9.462e+03 2.810e-10
  2.94816     84.0 9.076e+03 2.013e-10
  2.97908     85.4 8.902e+03 1.854e-10
  3.00006     84.9 9.284e+03 2.658e-10
  3.03211     86.4 9.308e+03 2.736e-10
  3.07408     87.8 9.398e+03 3.090e-10
  3.09671     89.1 9.610e+03 3.918e-10
  3.11770     88.7 9.973e+03 4.916e-10
  3.15803     89.6 1.020e+04 5.671e-10
  3.19336     90.4 1.039e+04 6.448e-10
  3.21435     89.5 1.036e+04 5.815e-10
  3.24198     90.0 1.038e+04 5.761e-10
  3.28396     90.4 1.031e+04 5.389e-10
  3.31100     90.9 1.012e+04 4.588e-10
  3.33198     89.6 9.707e+03 3.260e-10
  3.36157     90.2 9.478e+03 2.780e-10
  3.38256     90.5 9.660e+03 3.282e-10
  3.40764     91.2 9.465e+03 2.682e-10
  3.42863     90.3 9.427e+03 2.819e-10
  3.45186     91.4 9.279e+03 2.282e-10
  3.49383     92.5 9.195e+03 1.808e-10
  3.52528     93.5 9.229e+03 1.529e-10
  3.54627     93.4 9.109e+03 1.475e-10
  3.57778     94.5 9.176e+03 1.431e-10
  3.61976     95.5 9.317e+03 1.511e-10
  3.64292     96.5 9.618e+03 1.957e-10
  3.66390     96.8 9.291e+03 1.675e-10
  3.70371     98.0 9.736e+03 2.544e-10
  3.73956     99.3 1.052e+04 4.469e-10
  3.76055     99.5 1.036e+04 4.174e-10
  3.78766     99.4 1.157e+04 7.377e-10
  3.80878     97.8 1.310e+04 1.462e-09
  3.81917     97.8 1.318e+04 1.421e-09
  3.83993     96.5 1.433e+04 2.702e-09
  3.85701     95.9 1.529e+04 4.954e-09
  3.86490     95.8 1.523e+04 4.746e-09
  3.86882     95.8 1.562e+04 6.608e-09
  3.88191     96.0 1.631e+04 8.813e-09
  3.90290     96.0 1.656e+04 9.325e-09
  3.91582     96.0 1.646e+04 8.833e-09
  3.92632     95.8 1.587e+04 6.620e-09
  3.94487     95.5 1.552e+04 5.434e-09
  3.96415     94.8 1.493e+04 4.067e-09
  3.97464     93.8 1.429e+04 3.082e-09
  3.98685     93.1 1.365e+04 2.398e-09
  4.00784     92.6 1.312e+04 1.946e-09
  4.03941     92.2 1.240e+04 1.411e-09
  4.07148     92.3 1.171e+04 9.783e-10
  4.09247     92.7 1.169e+04 9.849e-10
  4.12346     92.9 1.111e+04 6.697e-10
  4.16544     92.9 1.059e+04 4.508e-10
  4.18912     92.6 1.017e+04 3.178e-10
  4.21011     93.0 1.040e+04 4.098e-10
  4.24939     92.5 1.011e+04 3.478e-10
  4.28577     92.0 9.882e+03 3.187e-10
  4.30676     92.5 1.030e+04 4.621e-10
  4.33334     92.1 9.924e+03 3.593e-10
  4.35546     91.8 9.545e+03 2.533e-10
  4.37645     91.8 9.309e+03 1.944e-10
  4.40340     91.6 9.096e+03 1.360e-10
  4.42439     91.7 8.966e+03 1.169e-10
  4.45926     91.4 8.685e+03 8.314e-11
  4.50005     91.4 8.503e+03 6.935e-11
  4.52104     91.9 8.481e+03 6.996e-11
  4.54322     92.8 8.398e+03 6.353e-11
  4.58519     93.7 8.390e+03 6.331e-11
  4.61769     94.8 8.389e+03 6.491e-11
  4.63868     96.0 8.385e+03 6.571e-11
  4.66914     97.2 8.384e+03 6.995e-11
  4.71112     98.5 8.394e+03 7.723e-11
  4.73532     99.9 8.404e+03 8.481e-11
  4.75631    101.1 8.381e+03 8.130e-11
  4.79507    102.6 8.378e+03 8.518e-11
  4.83142    104.0 8.369e+03 8.701e-11
  4.84734    104.2 8.447e+03 1.027e-10
  4.85296    105.4 8.433e+03 1.016e-10
  4.87902    106.8 8.431e+03 1.028e-10
  4.92099    108.2 8.434e+03 1.063e-10
  4.94961    109.6 8.452e+03 1.119e-10
  4.97060    110.8 8.457e+03 1.132e-10
  5.00494    112.2 8.494e+03 1.223e-10
  5.04626    113.6 8.550e+03 1.332e-10
  5.06724    114.7 8.544e+03 1.339e-10
  5.08889    116.0 8.615e+03 1.467e-10
  5.13087    117.2 8.735e+03 1.719e-10
  5.16389    118.4 8.996e+03 2.276e-10
  5.18488    119.6 8.878e+03 2.019e-10
  5.21482    120.7 9.255e+03 2.853e-10
  5.25679    121.5 9.654e+03 3.916e-10
  5.28143    121.8 9.949e+03 4.889e-10
  5.29183    122.8 9.823e+03 4.409e-10
  5.30907    122.8 1.020e+04 5.813e-10
  5.32817    122.8 1.067e+04 7.974e-10
  5.33827    122.8 1.064e+04 8.114e-10
  5.34015    123.4 1.056e+04 7.499e-10
  5.35104    123.5 1.103e+04 9.969e-10
  5.37203    123.4 1.151e+04 1.260e-09
  5.38848    123.0 1.204e+04 1.555e-09
  5.39897    123.7 1.198e+04 1.530e-09
  5.41401    123.0 1.258e+04 1.907e-09
  5.43499    122.1 1.322e+04 2.378e-09
  5.44729    121.0 1.380e+04 2.887e-09
  5.45779    122.0 1.375e+04 2.865e-09
  5.47697    120.8 1.409e+04 3.100e-09
  5.49562    119.5 1.407e+04 3.048e-09
  5.50611    120.4 1.404e+04 3.033e-09
  5.51894    119.3 1.384e+04 2.780e-09
  5.53993    118.3 1.329e+04 2.146e-09
  5.55443    117.2 1.253e+04 1.471e-09
  5.56493    118.2 1.275e+04 1.668e-09
  5.57665    116.9 1.203e+04 1.188e-09
  5.58714    116.8 1.243e+04 1.523e-09
  5.60276    115.8 1.176e+04 1.161e-09
  5.61325    116.7 1.216e+04 1.428e-09
  5.62388    116.0 1.169e+04 1.205e-09
  5.64487    115.7 1.133e+04 1.063e-09
  5.66158    115.7 1.110e+04 9.697e-10
  5.67207    116.6 1.156e+04 1.236e-09
  5.68685    116.7 1.138e+04 1.143e-09
  5.70783    116.9 1.124e+04 1.050e-09
  5.72039    117.0 1.111e+04 9.542e-10
  5.73089    117.7 1.155e+04 1.250e-09
  5.74981    117.8 1.143e+04 1.141e-09
  5.76872    117.9 1.132e+04 1.033e-09
  5.77921    118.6 1.178e+04 1.383e-09
  5.79178    118.6 1.167e+04 1.262e-09
  5.81277    118.6 1.155e+04 1.153e-09
  5.82512    118.5 1.143e+04 1.069e-09
  5.82939    118.6 1.175e+04 1.290e-09
  5.83803    119.2 1.213e+04 1.573e-09
  5.85475    119.0 1.195e+04 1.404e-09
  5.88633    119.3 1.181e+04 1.281e-09
  5.91781    119.6 1.151e+04 1.119e-09
  5.93468    119.6 1.133e+04 1.028e-09
  5.94517    119.9 1.140e+04 1.050e-09
  5.95968    120.0 1.121e+04 9.676e-10
  5.98067    120.2 1.105e+04 9.035e-10
  5.99350    120.5 1.087e+04 8.221e-10
  6.00399    120.8 1.090e+04 8.345e-10
  6.02265    121.0 1.078e+04 7.767e-10
  6.04182    121.3 1.067e+04 7.197e-10
  6.05231    121.6 1.068e+04 7.269e-10
  6.06310    121.9 1.059e+04 6.773e-10
  6.07359    121.8 1.041e+04 6.027e-10
  6.09620    122.7 1.042e+04 5.951e-10
  6.13828    123.4 1.017e+04 5.037e-10
  6.15965    124.2 1.010e+04 4.459e-10
  6.18064    124.8 1.025e+04 5.193e-10
  6.22223    126.0 1.029e+04 5.128e-10
  6.25361    126.6 1.036e+04 5.421e-10
  6.26660    127.0 1.041e+04 5.625e-10
  6.27719    127.6 1.073e+04 6.783e-10
  6.29558    127.8 1.073e+04 6.798e-10
  6.31157    127.9 1.084e+04 7.090e-10
  6.32052    128.0 1.069e+04 6.160e-10
  6.32542    128.3 1.080e+04 6.700e-10
  6.33746    128.5 1.099e+04 7.340e-10
  6.35845    128.6 1.116e+04 8.110e-10
  6.37374    128.8 1.134e+04 8.756e-10
  6.38423    129.1 1.143e+04 9.504e-10
  6.40043    129.3 1.154e+04 9.586e-10
  6.42141    129.4 1.154e+04 9.514e-10
  6.43256    129.6 1.153e+04 9.101e-10
  6.44305    130.0 1.161e+04 9.806e-10
  6.46339    130.2 1.157e+04 8.964e-10
  6.48088    130.3 1.151e+04 7.863e-10
  6.49138    130.7 1.161e+04 8.665e-10
  6.50536    130.7 1.153e+04 7.344e-10
  6.52635    130.4 1.141e+04 6.205e-10
  6.53970    129.6 1.145e+04 6.101e-10
  6.55019    130.0 1.152e+04 6.122e-10
  6.56005    129.0 1.153e+04 6.184e-10
  6.57054    129.6 1.144e+04 5.860e-10
  6.58812    128.0 1.183e+04 6.887e-10
  6.59862    128.1 1.175e+04 6.533e-10
  6.61030    127.5 1.184e+04 6.980e-10
  6.63129    126.4 1.232e+04 8.154e-10
  6.64684    124.1 1.350e+04 1.280e-09
  6.65734    124.2 1.303e+04 1.058e-09
  6.67326    120.6 1.471e+04 1.937e-09
  6.69425    116.8 1.612e+04 4.109e-09
  6.70566    114.2 1.674e+04 7.224e-09
  6.71615    113.9 1.633e+04 5.816e-09
  6.73623    112.1 1.632e+04 7.012e-09
  6.75398    110.9 1.611e+04 6.651e-09
  6.76448    110.7 1.557e+04 5.346e-09
  6.77820    110.1 1.481e+04 4.209e-09
  6.79803    109.9 1.377e+04 2.564e-09
  6.80852    110.4 1.433e+04 3.378e-09
  6.81280    110.0 1.295e+04 1.691e-09
  6.82330    109.9 1.275e+04 1.476e-09
  6.85176    108.7 1.118e+04 5.440e-10
  6.89383    106.9 9.192e+03 1.440e-10
  6.92014    106.5 9.159e+03 7.795e-11
  6.94113    107.2 9.085e+03 8.566e-11
  6.97778    107.8 8.992e+03 7.924e-11
  7.01679    109.1 8.969e+03 8.118e-11
  7.03778    109.8 9.018e+03 8.779e-11
  7.06173    110.9 8.994e+03 9.763e-11
  7.10371    112.1 9.010e+03 1.189e-10
  7.13442    113.4 9.044e+03 1.412e-10
  7.15541    113.9 9.106e+03 1.549e-10
  7.18766    115.1 9.115e+03 1.673e-10
  7.22963    116.2 9.099e+03 1.662e-10
  7.25206    117.3 9.046e+03 1.592e-10
  7.27305    117.8 9.116e+03 1.810e-10
  7.29517    119.0 9.057e+03 1.701e-10
  7.31616    119.4 9.030e+03 1.745e-10
  7.34871    120.5 9.002e+03 1.632e-10
  7.36970    121.1 9.105e+03 1.936e-10
  7.39753    122.3 9.108e+03 1.835e-10
  7.43951    123.4 9.138e+03 1.758e-10
  7.46634    124.5 9.159e+03 1.757e-10
  7.48733    125.1 9.351e+03 2.210e-10
  7.52346    126.0 9.456e+03 2.298e-10
  7.56299    126.9 9.555e+03 2.539e-10
  7.58398    127.2 9.748e+03 3.132e-10
  7.60741    128.0 9.849e+03 3.580e-10
  7.64938    128.4 1.023e+04 4.806e-10
  7.68063    128.3 1.095e+04 7.048e-10
  7.70162    128.4 1.080e+04 7.098e-10
  7.72274    127.9 1.134e+04 8.963e-10
  7.73925    127.2 1.220e+04 1.240e-09
  7.74974    127.4 1.172e+04 1.058e-09
  7.76462    126.5 1.269e+04 1.579e-09
  7.78143    125.9 1.352e+04 2.489e-09
  7.79192    126.6 1.302e+04 1.873e-09
  7.79807    126.4 1.366e+04 2.674e-09
  7.80856    126.5 1.296e+04 1.848e-09
  7.82758    126.4 1.347e+04 2.374e-09
  7.84639    126.4 1.393e+04 2.881e-09
  7.85689    126.4 1.319e+04 1.915e-09
  7.86956    125.6 1.389e+04 2.473e-09
  7.89055    123.6 1.527e+04 4.127e-09
  7.90521    121.7 1.723e+04 8.924e-09
  7.91570    121.1 1.683e+04 6.478e-09
  7.93252    119.7 1.846e+04 1.433e-08
  7.94821    118.5 1.901e+04 2.018e-08
  7.95866    118.1 1.950e+04 2.698e-08
  7.97445    117.4 1.932e+04 2.537e-08
  7.99548    116.2 1.922e+04 2.361e-08
  8.01235    114.4 1.884e+04 1.681e-08
  8.02285    114.7 1.770e+04 1.425e-08
  8.02990    112.8 1.756e+04 9.879e-09
  8.04039    112.1 1.690e+04 7.215e-09
  8.05845    108.5 1.642e+04 5.580e-09
  8.07117    105.7 1.535e+04 4.903e-09
  8.08166    107.4 1.507e+04 4.267e-09
  8.10042    105.4 1.439e+04 4.183e-09
  8.11949    104.6 1.415e+04 4.028e-09
  8.12999    105.6 1.402e+04 3.850e-09
  8.14240    105.1 1.394e+04 3.720e-09
  8.16339    104.8 1.380e+04 3.374e-09
  8.17831    104.3 1.359e+04 2.755e-09
  8.18881    105.2 1.354e+04 2.840e-09
  8.20536    104.3 1.323e+04 2.205e-09
  8.22635    103.2 1.273e+04 1.694e-09
  8.23713    102.1 1.223e+04 1.376e-09
  8.24762    102.8 1.230e+04 1.410e-09
  8.26788    102.0 1.188e+04 1.227e-09
  8.27837    102.4 1.192e+04 1.264e-09
  8.28545    101.9 1.167e+04 1.162e-09
  8.29595    102.2 1.174e+04 1.199e-09
  8.31030    101.8 1.160e+04 1.137e-09
  8.33129    101.6 1.160e+04 1.118e-09
  8.34437    101.3 1.168e+04 1.074e-09
  8.36546    101.6 1.170e+04 1.108e-09
  8.39269    101.1 1.178e+04 1.101e-09
  8.40309    101.2 1.178e+04 1.108e-09
  8.41524    100.8 1.187e+04 1.113e-09
  8.43623     99.1 1.283e+04 1.302e-09
  8.45141     92.4 1.646e+04 3.094e-09
  8.46191     93.1 1.622e+04 2.694e-09
  8.47820     86.9 1.775e+04 8.592e-09
  8.49919     87.5 1.796e+04 1.943e-08
  8.51023     89.5 1.764e+04 1.944e-08
  8.51690     89.0 1.824e+04 2.325e-08
  8.52685     88.7 1.751e+04 1.656e-08
  8.54116     90.8 1.692e+04 1.432e-08
  8.55856     91.9 1.607e+04 8.110e-09
  8.56905     91.7 1.630e+04 9.669e-09
  8.58314     91.0 1.584e+04 4.067e-09
  8.60413     86.8 1.517e+04 1.547e-09
  8.61737     81.8 1.258e+04 7.812e-10
  8.62787     83.3 1.349e+04 9.549e-10
  8.64610     80.7 1.142e+04 6.397e-10
  8.66570     80.5 1.118e+04 6.156e-10
  8.67619     81.0 1.125e+04 6.237e-10
  8.68808     81.4 1.102e+04 5.603e-10
  8.70906     81.2 1.103e+04 5.294e-10
  8.72452     81.3 1.081e+04 4.396e-10
  8.73501     82.0 1.083e+04 4.362e-10
  8.75104     81.6 1.072e+04 3.866e-10
  8.76492     80.5 1.057e+04 3.564e-10
  8.77633     82.2 1.035e+04 2.583e-10
  8.79402     83.5 1.039e+04 2.564e-10
  8.82469     83.0 1.039e+04 2.650e-10
  8.86667     82.3 1.056e+04 3.683e-10
  8.89067     82.4 1.065e+04 4.871e-10
  8.91166     83.5 1.076e+04 5.064e-10
  8.95062     84.3 1.060e+04 5.135e-10
  8.98732     84.9 1.042e+04 3.647e-10
  9.00831     86.0 1.068e+04 5.497e-10
  9.02398     86.4 1.030e+04 4.074e-10
  9.04487     86.0 1.061e+04 3.155e-10
  9.05644     85.2 1.081e+04 2.772e-10
  9.06693     85.7 1.099e+04 3.211e-10
  9.08684     82.9 1.178e+04 3.779e-10
  9.10476     76.4 1.421e+04 7.631e-10
  9.11525     77.3 1.352e+04 7.664e-10
  9.12882     75.0 1.306e+04 1.817e-09
  9.14980     74.3 1.420e+04 3.224e-09
  9.16358     72.8 1.622e+04 3.599e-09
  9.17407     72.9 1.594e+04 2.983e-09
  9.19178     69.4 1.519e+04 2.642e-09
  9.21190     65.8 1.353e+04 1.798e-09
  9.22240     66.2 1.343e+04 1.770e-09
  9.23375     63.4 1.224e+04 1.136e-09
  9.25128     62.8 1.191e+04 8.812e-10
  9.26177     65.0 1.199e+04 9.866e-10
  9.27072     63.8 1.157e+04 7.335e-10
  9.28121     64.3 1.162e+04 7.819e-10
  9.29672     63.6 1.141e+04 6.298e-10
  9.31771     62.7 1.102e+04 4.505e-10
  9.32954     62.2 1.057e+04 3.625e-10
  9.34003     62.8 1.070e+04 3.942e-10
  9.37027     63.5 1.052e+04 3.369e-10
  9.41235     63.8 9.772e+03 2.110e-10
  9.43688     64.2 9.332e+03 1.300e-10
  9.45786     65.3 9.445e+03 1.589e-10
  9.49630     65.6 9.216e+03 1.096e-10
  9.53352     66.1 9.127e+03 9.430e-11
  9.55451     67.2 9.158e+03 1.028e-10
  9.58025     67.9 9.115e+03 9.471e-11
  9.62222     68.7 9.105e+03 9.492e-11
  9.65116     69.4 9.135e+03 1.018e-10
  9.67215     70.4 9.138e+03 1.019e-10
  9.70617     70.8 9.233e+03 1.151e-10
  9.73793     70.9 9.309e+03 1.394e-10
  9.75857     72.5 9.229e+03 1.219e-10
  9.76880     73.6 9.231e+03 1.222e-10
  9.79012     74.0 9.284e+03 1.593e-10
  9.83210     74.7 9.361e+03 1.996e-10
  9.86544     75.5 9.457e+03 2.171e-10
  9.88643     76.9 9.462e+03 2.212e-10
