# Columns:
#   distance along LOS (in CHIMPs)
#   peculiar velocity  (in km/s)
#   temperature (K)
#   HI number density
# pos=(173.804,224.485,166.115), angles=(0.289468,2.07553)
  0.00475     54.3 1.112e+04 6.882e-10
  0.01595     54.3 1.110e+04 6.829e-10
  0.04178     54.2 1.098e+04 5.762e-10
  0.06216     55.5 1.103e+04 6.245e-10
  0.08354     55.0 1.082e+04 4.992e-10
  0.12430     54.2 1.058e+04 3.664e-10
  0.15526     53.0 1.048e+04 3.084e-10
  0.17564     52.7 1.030e+04 2.414e-10
  0.20582     51.6 1.027e+04 2.491e-10
  0.24657     50.9 1.027e+04 3.014e-10
  0.28733     50.7 1.026e+04 3.451e-10
  0.31495     50.7 1.023e+04 3.321e-10
  0.33317     51.1 9.984e+03 2.507e-10
  0.34631     51.3 1.001e+04 2.703e-10
  0.36885     51.4 9.858e+03 1.869e-10
  0.40961     50.9 9.726e+03 1.165e-10
  0.45037     49.8 9.678e+03 1.095e-10
  0.47464     48.8 9.706e+03 1.252e-10
  0.49502     49.9 9.649e+03 1.052e-10
  0.53188     49.0 9.914e+03 1.848e-10
  0.57264     48.1 1.047e+04 3.913e-10
  0.61008     46.9 1.118e+04 7.899e-10
  0.63046     47.2 1.094e+04 6.542e-10
  0.63433     45.8 1.150e+04 9.818e-10
  0.65470     46.8 1.169e+04 1.133e-09
  0.69491     45.1 1.175e+04 1.138e-09
  0.73567     44.0 1.149e+04 9.352e-10
  0.77364     43.3 1.103e+04 6.077e-10
  0.79401     43.9 1.124e+04 7.222e-10
  0.81719     43.2 1.084e+04 4.775e-10
  0.85795     42.9 1.064e+04 4.124e-10
  0.89423     43.2 1.059e+04 4.172e-10
  0.91461     43.0 1.034e+04 3.453e-10
  0.93332     43.8 1.035e+04 3.984e-10
  0.95370     44.2 1.053e+04 4.799e-10
  0.98022     45.3 1.061e+04 5.049e-10
  1.02098     46.5 1.061e+04 4.803e-10
  1.06174     47.7 1.056e+04 4.428e-10
  1.09301     49.1 1.058e+04 4.373e-10
  1.11339     49.4 1.050e+04 3.166e-10
  1.14325     50.2 1.061e+04 3.324e-10
  1.17838     50.5 1.101e+04 4.491e-10
  1.19876     50.4 1.097e+04 4.146e-10
  1.21448     50.4 1.111e+04 5.246e-10
  1.23477     50.5 1.129e+04 6.592e-10
  1.25251     50.5 1.149e+04 8.359e-10
  1.26270     50.6 1.130e+04 6.659e-10
  1.27552     50.6 1.151e+04 8.511e-10
  1.29590     50.7 1.174e+04 1.038e-09
  1.31628     50.8 1.200e+04 1.146e-09
  1.33045     50.8 1.214e+04 1.142e-09
  1.33633     50.7 1.238e+04 1.348e-09
  1.34254     50.7 1.234e+04 1.250e-09
  1.35704     50.4 1.264e+04 1.303e-09
  1.37742     49.8 1.292e+04 1.344e-09
  1.39780     49.2 1.315e+04 1.374e-09
  1.41220     48.6 1.319e+04 1.369e-09
  1.42238     48.4 1.318e+04 1.762e-09
  1.43856     48.2 1.316e+04 1.734e-09
  1.45894     48.1 1.312e+04 1.605e-09
  1.47253     47.9 1.321e+04 1.354e-09
  1.48272     47.5 1.365e+04 2.045e-09
  1.49204     46.5 1.384e+04 1.756e-09
  1.50223     46.5 1.378e+04 1.947e-09
  1.52007     45.2 1.376e+04 1.804e-09
  1.54045     43.8 1.365e+04 1.711e-09
  1.56083     43.3 1.357e+04 1.650e-09
  1.57198     42.5 1.338e+04 1.623e-09
  1.59246     42.8 1.353e+04 1.857e-09
  1.63235     42.9 1.295e+04 1.220e-09
  1.67311     43.1 1.241e+04 5.477e-10
  1.71139     42.3 1.216e+04 2.046e-10
  1.73177     42.4 1.214e+04 1.975e-10
  1.74668     41.1 1.152e+04 1.160e-10
  1.76706     41.0 1.134e+04 1.646e-10
  1.79539     41.6 1.114e+04 1.532e-10
  1.83614     42.6 1.111e+04 1.474e-10
  1.87108     43.6 1.113e+04 1.449e-10
  1.89146     43.8 1.108e+04 9.989e-11
  1.91766     44.5 1.110e+04 1.011e-10
  1.95842     44.9 1.121e+04 1.120e-10
  1.99918     44.7 1.127e+04 1.437e-10
  2.03077     44.7 1.144e+04 2.663e-10
  2.05115     46.2 1.102e+04 1.774e-10
  2.08069     46.5 1.116e+04 3.031e-10
  2.12145     47.3 1.138e+04 4.550e-10
  2.16221     47.8 1.137e+04 4.676e-10
  2.19046     48.4 1.128e+04 4.202e-10
  2.21083     49.0 1.106e+04 2.944e-10
  2.24373     49.2 1.098e+04 2.257e-10
  2.28448     49.1 1.081e+04 1.849e-10
  2.31498     48.9 1.078e+04 1.855e-10
  2.33536     50.2 1.079e+04 2.100e-10
  2.35014     49.9 1.079e+04 2.252e-10
  2.37052     50.3 1.071e+04 1.931e-10
  2.40676     50.0 1.076e+04 2.637e-10
  2.44752     50.0 1.080e+04 3.187e-10
  2.48828     50.2 1.073e+04 3.052e-10
  2.50983     50.7 1.055e+04 2.430e-10
  2.53021     51.5 1.053e+04 2.451e-10
  2.56979     51.6 1.047e+04 1.524e-10
  2.59913     51.1 1.044e+04 1.072e-10
  2.61951     52.3 1.042e+04 1.247e-10
  2.64914     51.7 1.039e+04 1.224e-10
  2.66952     52.3 1.044e+04 1.293e-10
  2.69207     51.7 1.038e+04 1.554e-10
  2.73283     51.4 1.033e+04 2.028e-10
  2.77358     51.2 1.035e+04 2.215e-10
  2.80883     50.6 1.033e+04 2.186e-10
  2.82921     51.1 1.030e+04 3.039e-10
  2.85510     50.4 1.023e+04 2.756e-10
  2.88328     49.6 1.014e+04 2.472e-10
  2.90366     50.7 1.015e+04 2.517e-10
  2.93662     50.0 1.007e+04 2.309e-10
  2.96852     49.6 1.003e+04 2.104e-10
  2.98890     49.6 9.966e+03 2.285e-10
  3.01813     49.5 9.909e+03 2.087e-10
  3.05889     49.6 9.844e+03 1.783e-10
  3.09965     49.7 9.754e+03 1.417e-10
  3.12821     50.2 9.790e+03 1.305e-10
  3.14859     50.1 9.778e+03 1.492e-10
  3.16743     49.7 9.953e+03 1.690e-10
  3.18781     50.3 9.941e+03 1.815e-10
  3.22192     49.9 1.030e+04 3.141e-10
  3.26268     50.1 1.077e+04 5.921e-10
  3.28790     50.3 1.098e+04 7.561e-10
  3.30828     50.4 1.079e+04 5.863e-10
  3.34420     50.6 1.052e+04 4.678e-10
  3.38496     50.6 1.003e+04 2.766e-10
  3.42571     50.3 9.567e+03 1.511e-10
  3.44759     50.1 9.147e+03 9.811e-11
  3.45308     49.6 8.927e+03 7.990e-11
  3.47196     49.9 8.904e+03 7.839e-11
  3.50723     50.6 8.646e+03 7.926e-11
  3.54799     52.0 8.608e+03 8.256e-11
  3.58690     53.4 8.556e+03 8.968e-11
  3.60728     53.7 8.631e+03 1.278e-10
  3.62951     55.3 8.648e+03 1.468e-10
  3.67026     56.8 8.666e+03 1.587e-10
  3.71102     58.3 8.663e+03 1.588e-10
  3.73574     59.8 8.609e+03 1.521e-10
  3.75092     60.1 8.479e+03 1.327e-10
  3.76696     60.3 8.590e+03 1.717e-10
  3.79254     61.8 8.429e+03 1.301e-10
  3.83330     62.9 8.300e+03 9.432e-11
  3.87406     63.7 8.128e+03 7.771e-11
  3.90627     64.8 8.067e+03 7.734e-11
  3.92665     64.8 8.063e+03 9.318e-11
  3.95557     66.2 8.027e+03 9.873e-11
  3.99633     67.6 8.052e+03 1.123e-10
  4.01989     69.0 8.125e+03 1.280e-10
  4.04027     69.3 7.965e+03 1.044e-10
  4.06596     70.6 8.006e+03 1.087e-10
  4.08634     70.6 7.995e+03 1.098e-10
  4.11860     71.6 8.001e+03 1.138e-10
  4.15936     72.5 8.048e+03 1.278e-10
  4.20012     73.3 8.218e+03 1.594e-10
  4.22565     74.2 8.485e+03 2.050e-10
  4.24603     73.7 8.889e+03 2.790e-10
  4.28164     74.5 9.251e+03 3.621e-10
  4.30404     75.2 9.468e+03 4.138e-10
  4.32442     76.1 8.391e+03 2.150e-10
  4.36315     76.7 8.558e+03 2.327e-10
  4.38534     77.2 8.706e+03 2.541e-10
  4.40572     76.2 8.866e+03 2.783e-10
  4.44467     76.7 8.899e+03 3.016e-10
  4.48543     77.3 8.901e+03 3.310e-10
  4.52465     78.2 8.871e+03 3.507e-10
  4.54503     77.7 8.721e+03 3.301e-10
  4.56694     78.7 8.586e+03 3.064e-10
  4.58819     79.6 8.448e+03 2.796e-10
  4.60857     80.9 8.856e+03 3.824e-10
  4.64846     81.7 8.677e+03 3.384e-10
  4.68434     82.3 8.472e+03 3.038e-10
  4.70472     81.4 8.236e+03 2.607e-10
  4.72998     82.3 8.087e+03 2.656e-10
  4.77074     83.5 8.044e+03 2.656e-10
  4.81149     84.8 7.991e+03 2.599e-10
  4.84403     86.1 7.906e+03 2.438e-10
  4.86411     85.8 7.673e+03 1.965e-10
  4.87234     86.3 7.791e+03 2.236e-10
  4.89301     87.5 7.611e+03 1.906e-10
  4.93377     88.7 7.500e+03 1.739e-10
  4.97453     90.0 7.503e+03 1.744e-10
  5.00372     91.2 7.568e+03 1.865e-10
  5.02410     91.1 7.467e+03 1.788e-10
  5.05604     92.1 8.157e+03 2.950e-10
  5.08346     91.9 8.822e+03 3.803e-10
  5.09356     91.4 9.271e+03 3.970e-10
  5.10680     88.0 1.292e+04 9.658e-10
  5.12717     84.1 1.660e+04 3.787e-09
  5.14241     83.5 1.719e+04 5.723e-09
  5.15110     81.2 1.933e+04 9.783e-09
  5.15624     85.1 1.703e+04 4.523e-09
  5.16279     76.8 2.390e+04 1.548e-08
  5.16821     69.2 2.585e+04 7.262e-08
  5.17330     65.1 2.513e+04 1.540e-07
  5.18312     61.0 2.304e+04 2.747e-07
  5.19331     59.0 2.244e+04 2.541e-07
  5.20303     58.7 2.207e+04 1.618e-07
  5.20813     57.5 2.145e+04 1.130e-07
  5.21369     56.6 2.101e+04 4.698e-08
  5.22214     54.2 2.090e+04 1.638e-08
  5.22723     56.3 2.152e+04 2.579e-08
  5.23407     52.7 2.209e+04 9.357e-09
  5.24296     48.3 2.072e+04 3.320e-09
  5.25320     45.2 1.805e+04 1.707e-09
  5.26983     36.1 1.262e+04 4.549e-10
  5.28818     33.2 1.001e+04 3.466e-10
  5.29837     33.1 1.015e+04 2.762e-10
  5.31059     32.6 9.707e+03 2.841e-10
  5.32300     34.4 9.950e+03 3.399e-10
  5.34347     32.4 9.433e+03 2.416e-10
  5.38211     31.8 9.787e+03 3.206e-10
  5.42026     31.6 1.019e+04 4.597e-10
  5.44064     31.6 9.814e+03 3.741e-10
  5.46240     31.4 9.906e+03 3.914e-10
  5.48278     30.0 9.813e+03 3.796e-10
  5.50438     29.4 9.894e+03 3.743e-10
  5.54514     29.0 9.920e+03 3.632e-10
  5.58590     29.0 9.894e+03 3.451e-10
  5.62209     29.5 9.794e+03 3.011e-10
  5.64247     29.2 9.574e+03 2.615e-10
  5.66742     30.2 9.478e+03 2.039e-10
  5.70441     31.0 9.437e+03 1.554e-10
  5.72479     31.9 9.423e+03 1.658e-10
  5.74893     32.6 9.350e+03 1.424e-10
  5.78178     33.4 9.169e+03 1.362e-10
  5.80216     33.3 9.028e+03 1.257e-10
  5.83045     34.2 8.973e+03 1.264e-10
  5.87121     35.2 8.925e+03 1.283e-10
  5.91197     36.1 8.912e+03 1.329e-10
  5.94147     36.3 8.916e+03 1.418e-10
  5.96185     36.9 8.773e+03 1.244e-10
  5.98856     36.4 9.018e+03 1.464e-10
  6.00894     37.1 8.819e+03 1.298e-10
  6.03424     35.9 9.171e+03 1.826e-10
  6.07500     34.4 9.868e+03 3.373e-10
  6.10116     33.0 1.031e+04 5.206e-10
  6.12154     32.8 1.021e+04 5.333e-10
  6.14073     30.9 1.097e+04 7.218e-10
  6.15082     31.0 1.085e+04 6.918e-10
  6.16651     27.4 1.222e+04 1.063e-09
  6.18081     23.9 1.303e+04 1.705e-09
  6.19100     23.2 1.305e+04 1.909e-09
  6.20727     20.0 1.408e+04 2.323e-09
  6.22765     10.8 1.884e+04 4.237e-09
  6.24803      2.9 1.898e+04 8.686e-09
  6.26065     -1.5 1.756e+04 1.220e-08
  6.27084     -4.2 1.718e+04 9.889e-09
  6.28270     -6.8 1.666e+04 9.676e-09
  6.29289     -8.8 1.639e+04 9.127e-09
  6.30916    -10.3 1.621e+04 9.357e-09
  6.32954    -11.4 1.677e+04 7.056e-09
  6.34050    -14.6 1.652e+04 3.246e-09
  6.35069    -14.9 1.680e+04 3.872e-09
  6.37030    -21.5 1.322e+04 1.492e-09
  6.39068    -23.5 1.179e+04 1.083e-09
  6.41015    -23.7 1.158e+04 9.686e-10
  6.42034    -24.2 1.163e+04 9.715e-10
  6.44172    -24.7 1.110e+04 7.337e-10
  6.48258    -23.6 1.068e+04 6.102e-10
  6.52334    -22.5 1.061e+04 5.566e-10
  6.55381    -21.6 1.042e+04 4.936e-10
  6.56685    -21.6 1.039e+04 4.985e-10
  6.57289    -21.2 1.027e+04 4.809e-10
  6.58023    -20.7 1.005e+04 3.964e-10
  6.60486    -19.7 1.013e+04 4.540e-10
  6.64561    -18.3 1.033e+04 5.393e-10
  6.68637    -17.0 1.051e+04 6.095e-10
  6.71954    -15.7 1.064e+04 6.514e-10
  6.73991    -15.1 1.069e+04 6.466e-10
  6.76789    -13.8 1.080e+04 6.831e-10
  6.80865    -12.7 1.096e+04 7.333e-10
  6.84101    -11.8 1.128e+04 8.463e-10
  6.86139    -11.1 1.064e+04 5.715e-10
  6.87922    -10.6 1.108e+04 6.739e-10
  6.89960    -10.2 1.127e+04 7.342e-10
  6.93092     -9.5 1.196e+04 1.039e-09
  6.97168     -8.6 1.234e+04 1.334e-09
  7.01244     -7.8 1.242e+04 1.445e-09
  7.03891     -7.4 1.237e+04 1.396e-09
  7.04901     -7.2 1.243e+04 1.418e-09
  7.06319     -7.7 1.282e+04 1.586e-09
  7.08357     -8.5 1.344e+04 1.882e-09
  7.10395     -9.5 1.372e+04 2.442e-09
  7.11856     -9.4 1.367e+04 3.084e-09
  7.12875     -9.4 1.374e+04 3.332e-09
  7.13516     -8.1 1.356e+04 3.562e-09
  7.14535     -7.6 1.436e+04 5.233e-09
  7.16509     -5.7 1.400e+04 4.732e-09
  7.18546     -4.1 1.363e+04 3.378e-09
  7.19841     -4.3 1.307e+04 1.949e-09
  7.20860     -4.2 1.306e+04 1.800e-09
  7.22622     -6.9 1.172e+04 1.088e-09
  7.25689     -8.4 1.077e+04 8.177e-10
  7.29774     -8.5 1.056e+04 7.476e-10
  7.32822     -9.1 1.085e+04 9.139e-10
  7.34791    -12.8 1.278e+04 1.548e-09
  7.35810    -12.1 1.225e+04 1.274e-09
  7.36888    -15.8 1.454e+04 2.843e-09
  7.38926    -18.1 1.553e+04 5.771e-09
  7.40912    -18.2 1.630e+04 9.053e-09
  7.41931    -18.0 1.632e+04 8.943e-09
  7.42775    -17.6 1.681e+04 1.040e-08
  7.43794    -16.8 1.645e+04 9.605e-09
  7.45039    -16.2 1.654e+04 9.190e-09
  7.47077    -15.8 1.565e+04 5.054e-09
  7.49115    -19.6 1.360e+04 2.333e-09
  7.50759    -21.8 1.203e+04 1.502e-09
  7.51778    -20.9 1.175e+04 1.257e-09
  7.53191    -21.2 1.134e+04 1.120e-09
  7.55119    -21.7 1.198e+04 1.148e-09
  7.56138    -22.7 1.198e+04 1.230e-09
  7.57267    -30.4 1.775e+04 2.436e-09
  7.58744    -37.6 2.335e+04 6.245e-09
  7.59763    -36.2 2.292e+04 5.696e-09
  7.60828    -41.3 2.525e+04 1.380e-08
  7.61842    -42.7 2.598e+04 1.772e-08
  7.62723    -44.0 2.702e+04 2.245e-08
  7.63232    -42.7 2.705e+04 9.184e-09
  7.63880    -46.7 2.764e+04 1.023e-08
  7.64899    -50.8 2.735e+04 1.098e-08
  7.65918    -55.6 2.620e+04 9.504e-09
  7.66723    -64.7 2.211e+04 6.704e-09
  7.67747    -63.9 2.392e+04 7.198e-09
  7.69327    -72.7 1.739e+04 3.388e-09
  7.70346    -71.7 1.454e+04 1.396e-09
  7.71532    -73.7 1.248e+04 1.080e-09
  7.73570    -74.0 1.203e+04 1.007e-09
  7.74713    -73.8 1.165e+04 9.343e-10
  7.75732    -74.2 1.129e+04 7.838e-10
  7.77646    -73.6 1.091e+04 7.483e-10
  7.79684    -72.7 1.063e+04 7.032e-10
  7.81678    -71.6 1.039e+04 6.324e-10
  7.82697    -71.4 1.028e+04 6.064e-10
  7.83534    -70.0 1.007e+04 5.332e-10
  7.84553    -69.5 9.751e+03 4.558e-10
  7.86826    -68.3 9.889e+03 4.569e-10
  7.90912    -65.9 9.666e+03 4.022e-10
  7.94988    -63.1 9.417e+03 3.513e-10
  7.97667    -60.2 9.209e+03 3.081e-10
  7.98402    -59.5 9.523e+03 3.807e-10
  7.99799    -58.9 8.750e+03 2.221e-10
  8.03139    -56.3 8.764e+03 2.174e-10
  8.07215    -53.9 8.806e+03 2.191e-10
  8.11291    -51.6 8.835e+03 2.217e-10
  8.13636    -49.4 8.844e+03 2.188e-10
  8.15673    -48.8 9.035e+03 2.532e-10
  8.19443    -46.6 8.996e+03 2.518e-10
  8.23518    -44.4 8.893e+03 2.306e-10
  8.26176    -42.2 8.765e+03 2.065e-10
  8.28187    -42.1 8.346e+03 1.558e-10
  8.29604    -41.5 8.442e+03 1.811e-10
  8.31670    -39.5 8.507e+03 1.917e-10
  8.35746    -37.5 8.595e+03 1.980e-10
  8.39822    -35.5 8.671e+03 2.010e-10
  8.43535    -33.6 8.743e+03 2.010e-10
  8.45573    -33.0 8.529e+03 1.719e-10
  8.47973    -31.1 8.520e+03 1.557e-10
  8.52049    -29.3 8.524e+03 1.434e-10
  8.54591    -27.7 8.593e+03 1.374e-10
  8.56629    -27.1 8.487e+03 1.330e-10
  8.59504    -25.4 8.567e+03 1.272e-10
  8.61542    -24.5 8.269e+03 1.045e-10
  8.64277    -22.6 8.320e+03 9.960e-11
  8.68352    -20.8 8.425e+03 9.943e-11
  8.72428    -19.1 8.658e+03 1.199e-10
  8.75473    -17.3 8.896e+03 1.623e-10
  8.77511    -16.1 8.594e+03 9.862e-11
  8.80580    -14.5 8.894e+03 1.407e-10
  8.83006    -12.9 9.171e+03 2.216e-10
  8.85044    -12.6 9.096e+03 1.998e-10
  8.88732    -11.2 9.463e+03 3.195e-10
  8.91442     -9.8 9.912e+03 4.737e-10
  8.93480     -9.5 9.874e+03 4.535e-10
  8.96883     -8.3 1.049e+04 7.134e-10
  9.00959     -7.5 1.087e+04 8.330e-10
  9.05035     -7.3 1.102e+04 7.045e-10
  9.07411     -8.4 1.097e+04 4.592e-10
  9.09449     -8.2 1.134e+04 6.797e-10
  9.11421    -10.8 1.136e+04 5.471e-10
  9.13459    -10.0 1.106e+04 5.013e-10
  9.17262    -14.0 1.232e+04 7.353e-10
  9.20309    -16.9 1.308e+04 1.677e-09
  9.22338    -18.0 1.349e+04 2.273e-09
  9.24375    -18.3 1.370e+04 2.934e-09
  9.25609    -19.1 1.348e+04 2.908e-09
  9.26628    -18.9 1.349e+04 2.892e-09
  9.28451    -19.2 1.282e+04 1.984e-09
  9.30326    -20.8 1.195e+04 9.763e-10
  9.31345    -20.9 1.174e+04 9.008e-10
  9.32527    -23.6 1.078e+04 4.188e-10
  9.34565    -26.2 1.011e+04 2.488e-10
  9.37301    -28.1 9.617e+03 1.886e-10
  9.39349    -27.0 9.574e+03 1.883e-10
  9.39837    -28.1 9.108e+03 1.514e-10
  9.41874    -27.4 9.133e+03 1.555e-10
  9.45793    -27.6 8.964e+03 1.490e-10
  9.49869    -27.5 8.918e+03 1.496e-10
  9.53280    -27.1 8.833e+03 1.504e-10
  9.55318    -26.4 8.776e+03 1.462e-10
  9.58020    -25.7 8.653e+03 1.331e-10
  9.62096    -25.0 8.548e+03 1.205e-10
  9.66172    -24.2 8.473e+03 1.169e-10
  9.68252    -23.2 8.433e+03 1.182e-10
  9.69290    -23.1 8.550e+03 1.424e-10
  9.71286    -22.1 8.559e+03 1.382e-10
  9.74324    -21.2 8.523e+03 1.409e-10
  9.78400    -20.2 8.480e+03 1.406e-10
  9.82475    -19.2 8.408e+03 1.344e-10
  9.85217    -18.4 8.335e+03 1.250e-10
  9.87255    -17.4 8.455e+03 1.506e-10
  9.90627    -16.5 8.396e+03 1.477e-10
  9.94629    -15.5 8.306e+03 1.393e-10
  9.96667    -15.9 8.219e+03 1.244e-10
  9.98779    -14.9 8.137e+03 1.159e-10
 10.01186    -13.9 8.130e+03 1.131e-10
 10.03224    -13.2 8.401e+03 1.363e-10
 10.06930    -12.7 8.496e+03 1.527e-10
 10.11006    -12.4 8.646e+03 1.946e-10
 10.15082    -11.8 8.875e+03 2.752e-10
 10.17155    -11.0 9.182e+03 3.921e-10
 10.19193    -10.1 9.325e+03 4.582e-10
 10.23044     -8.9 9.489e+03 5.029e-10
 10.25082     -9.1 9.327e+03 4.240e-10
 10.27309     -8.1 9.432e+03 4.218e-10
 10.31086     -7.3 9.553e+03 4.251e-10
 10.33124     -7.7 8.841e+03 2.109e-10
 10.35461     -7.1 8.903e+03 2.305e-10
 10.39537     -6.5 9.070e+03 2.838e-10
 10.43613     -5.7 9.282e+03 3.745e-10
 10.47055     -4.7 9.446e+03 4.952e-10
 10.49093     -3.7 8.891e+03 2.907e-10
 10.51459     -2.7 8.978e+03 3.129e-10
 10.53497     -2.7 8.767e+03 2.314e-10
 10.55840     -1.7 8.801e+03 2.617e-10
 10.59916     -0.5 8.732e+03 3.026e-10
 10.63024      1.0 8.581e+03 3.199e-10
 10.65062      1.0 8.392e+03 2.144e-10
 10.68068      2.8 8.352e+03 2.378e-10
 10.72143      4.6 8.210e+03 2.338e-10
 10.76219      6.2 8.017e+03 2.030e-10
 10.78993      7.7 7.886e+03 1.763e-10
 10.80609      8.4 7.888e+03 1.684e-10
 10.81912      8.5 8.140e+03 2.112e-10
 10.84371      9.6 8.067e+03 2.003e-10
 10.88447     10.7 8.021e+03 2.060e-10
 10.92523     12.0 8.068e+03 2.301e-10
 10.94962     13.6 8.137e+03 2.415e-10
 10.97000     14.1 8.345e+03 3.117e-10
 11.00674     15.5 8.440e+03 3.004e-10
 11.04750     16.1 8.486e+03 2.747e-10
 11.08289     16.3 8.623e+03 2.898e-10
 11.10327     16.2 8.567e+03 2.841e-10
 11.10931     17.0 8.759e+03 3.479e-10
 11.12969     17.7 8.660e+03 2.638e-10
 11.16977     18.6 8.770e+03 2.417e-10
 11.21053     19.1 8.795e+03 2.185e-10
 11.24862     19.3 8.681e+03 2.137e-10
 11.26899     19.3 8.515e+03 1.426e-10
 11.29205     20.4 8.327e+03 1.631e-10
 11.33281     22.6 8.217e+03 1.681e-10
 11.36704     24.7 8.275e+03 1.499e-10
 11.38742     25.1 8.427e+03 1.861e-10
 11.40830     26.7 8.554e+03 1.914e-10
 11.42868     27.3 8.483e+03 1.664e-10
 11.45508     28.7 8.678e+03 1.877e-10
 11.49584     30.3 8.990e+03 2.649e-10
 11.53660     32.1 9.408e+03 4.052e-10
 11.56707     33.1 9.762e+03 5.133e-10
 11.57799     33.8 1.012e+04 6.028e-10
 11.58818     33.8 1.006e+04 5.330e-10
 11.60773     33.6 1.053e+04 6.547e-10
 11.62811     33.3 1.091e+04 8.213e-10
 11.64764     33.3 1.118e+04 1.022e-09
 11.65783     32.6 1.136e+04 1.119e-09
 11.66118     33.2 1.158e+04 1.317e-09
 11.67137     33.2 1.154e+04 1.275e-09
 11.68925     33.8 1.180e+04 1.341e-09
 11.70963     34.0 1.193e+04 1.314e-09
 11.72749     33.2 1.247e+04 1.439e-09
 11.73768     33.1 1.174e+04 1.368e-09
 11.75038     31.3 1.268e+04 1.637e-09
 11.77076     30.1 1.317e+04 2.146e-09
 11.79114     30.2 1.341e+04 3.158e-09
 11.80326     27.6 1.680e+04 6.275e-09
 11.80926     27.8 1.676e+04 6.244e-09
 11.81752     28.6 1.659e+04 3.787e-09
 11.82676     19.4 2.435e+04 1.069e-08
 11.83690     15.1 2.529e+04 2.312e-08
 11.84709     13.9 2.273e+04 4.350e-08
 11.85225     12.9 2.110e+04 5.709e-08
 11.85735     12.3 2.095e+04 5.419e-08
 11.86747     11.8 2.004e+04 5.883e-08
 11.87420     12.5 1.918e+04 5.649e-08
 11.87929     13.0 1.920e+04 5.721e-08
 11.88708     13.7 1.869e+04 4.895e-08
 11.89217     13.3 1.941e+04 4.944e-08
 11.89803     14.0 1.970e+04 3.878e-08
 11.90822     14.3 2.035e+04 2.492e-08
 11.91841     12.8 2.126e+04 1.621e-08
 11.93375      5.7 1.924e+04 6.451e-09
 11.94533     -2.1 1.479e+04 2.261e-09
 11.95552     -2.5 1.540e+04 2.945e-09
 11.96702     -6.3 1.415e+04 2.354e-09
 11.97721     -4.8 1.687e+04 4.776e-09
 11.99493     -8.4 1.562e+04 4.278e-09
