# Columns:
#   distance along LOS (in CHIMPs)
#   peculiar velocity  (in km/s)
#   temperature (K)
#   HI number density
# pos=(72.2118,170.275,108.955), angles=(1.59101,5.01523)
  0.00211     20.1 1.167e+04 1.068e-09
  0.01232     21.1 1.141e+04 9.073e-10
  0.02255     20.0 1.107e+04 7.663e-10
  0.03492     20.6 1.079e+04 6.102e-10
  0.05539     21.0 1.058e+04 4.879e-10
  0.07567     21.2 1.038e+04 3.998e-10
  0.08591     20.4 1.025e+04 3.391e-10
  0.10665     21.5 1.008e+04 3.191e-10
  0.13932     22.5 9.915e+03 3.011e-10
  0.15979     22.0 9.662e+03 2.511e-10
  0.18861     23.3 9.765e+03 2.774e-10
  0.22955     23.9 9.990e+03 3.330e-10
  0.26015     23.9 1.015e+04 3.978e-10
  0.27626     24.0 1.039e+04 5.121e-10
  0.28649     24.2 1.026e+04 4.722e-10
  0.30099     24.2 1.064e+04 6.542e-10
  0.32145     24.6 1.094e+04 8.339e-10
  0.35225     24.8 1.139e+04 1.098e-09
  0.39313     25.0 1.171e+04 1.332e-09
  0.43406     26.0 1.142e+04 1.132e-09
  0.47515     25.9 1.136e+04 1.049e-09
  0.51608     25.7 1.113e+04 8.707e-10
  0.54050     25.4 1.086e+04 7.095e-10
  0.56096     26.7 1.100e+04 8.271e-10
  0.59795     26.7 1.084e+04 7.409e-10
  0.63888     26.9 1.072e+04 6.920e-10
  0.66740     27.3 1.061e+04 6.641e-10
  0.68787     28.3 1.063e+04 6.780e-10
  0.72075     28.9 1.046e+04 5.874e-10
  0.76168     29.6 1.029e+04 4.888e-10
  0.79430     30.3 1.015e+04 4.137e-10
  0.81477     30.4 1.015e+04 4.120e-10
  0.84355     31.2 1.007e+04 3.849e-10
  0.88448     32.2 1.006e+04 3.872e-10
  0.92121     33.4 1.012e+04 4.142e-10
  0.94168     33.4 9.999e+03 3.833e-10
  0.96635     34.7 1.007e+04 3.926e-10
  1.00728     35.8 1.016e+04 4.105e-10
  1.04811     36.8 1.016e+04 4.256e-10
  1.08905     38.3 9.902e+03 3.435e-10
  1.13008     39.7 9.869e+03 3.387e-10
  1.17101     41.1 9.758e+03 3.129e-10
  1.19548     42.6 9.523e+03 2.551e-10
  1.21595     42.8 9.116e+03 1.697e-10
  1.25288     44.1 8.976e+03 1.395e-10
  1.29381     45.2 8.861e+03 1.126e-10
  1.32239     46.2 8.789e+03 9.355e-11
  1.34285     46.5 8.682e+03 9.574e-11
  1.37568     47.6 8.680e+03 9.627e-11
  1.41661     48.5 8.689e+03 1.002e-10
  1.44929     49.4 8.730e+03 1.101e-10
  1.46976     49.7 8.737e+03 1.233e-10
  1.49848     50.4 8.797e+03 1.337e-10
  1.53941     51.0 8.842e+03 1.400e-10
  1.57219     51.4 8.887e+03 1.434e-10
  1.58851     52.0 8.734e+03 1.194e-10
  1.59666     52.3 8.701e+03 1.133e-10
  1.62128     52.6 8.716e+03 1.127e-10
  1.66221     52.4 8.817e+03 1.197e-10
  1.70310     51.8 9.189e+03 1.558e-10
  1.74403     51.1 9.663e+03 2.763e-10
  1.77468     50.4 1.006e+04 3.872e-10
  1.78682     50.1 1.030e+04 4.988e-10
  1.79705     50.5 1.024e+04 5.106e-10
  1.82584     50.3 1.066e+04 6.503e-10
  1.85047     49.0 1.154e+04 1.038e-09
  1.87093     49.8 1.113e+04 8.953e-10
  1.90781     48.2 1.185e+04 1.268e-09
  1.94874     46.4 1.242e+04 1.725e-09
  1.97737     45.2 1.239e+04 1.720e-09
  1.99784     45.8 1.191e+04 1.389e-09
  2.03061     45.4 1.151e+04 1.168e-09
  2.07154     45.5 1.079e+04 7.247e-10
  2.10427     45.6 1.004e+04 3.859e-10
  2.12474     46.5 1.017e+04 4.690e-10
  2.15341     46.7 9.709e+03 2.818e-10
  2.19434     47.1 9.358e+03 2.189e-10
  2.23118     48.2 9.297e+03 2.178e-10
  2.25164     48.7 9.270e+03 2.165e-10
  2.27621     50.0 9.261e+03 2.224e-10
  2.31714     51.4 9.297e+03 2.477e-10
  2.35807     52.8 9.389e+03 2.836e-10
  2.39901     54.5 9.356e+03 3.035e-10
  2.43994     55.9 9.381e+03 3.148e-10
  2.48087     57.3 9.348e+03 3.089e-10
  2.50545     58.8 9.249e+03 2.807e-10
  2.52592     59.2 9.265e+03 2.876e-10
  2.56274     60.9 9.093e+03 2.450e-10
  2.60367     62.6 8.934e+03 2.044e-10
  2.63236     64.4 8.822e+03 1.733e-10
  2.65282     65.1 8.714e+03 1.508e-10
  2.68554     66.9 8.656e+03 1.244e-10
  2.72647     68.8 8.631e+03 1.081e-10
  2.75926     70.8 8.610e+03 9.760e-11
  2.77973     71.2 8.548e+03 6.897e-11
  2.80834     73.2 8.527e+03 6.229e-11
  2.84927     75.1 8.498e+03 5.835e-11
  2.88616     77.1 8.480e+03 5.766e-11
  2.90663     77.3 8.397e+03 5.267e-11
  2.93114     79.2 8.399e+03 5.625e-11
  2.97207     81.1 8.429e+03 6.447e-11
  3.01300     82.9 8.495e+03 8.063e-11
  3.05394     85.1 8.611e+03 1.062e-10
  3.09487     86.8 8.847e+03 1.494e-10
  3.13580     88.3 9.174e+03 2.116e-10
  3.16044     89.5 9.529e+03 2.706e-10
  3.18090     89.9 9.441e+03 2.599e-10
  3.21767     90.9 9.672e+03 2.741e-10
  3.25860     91.6 9.676e+03 2.683e-10
  3.28734     92.3 9.624e+03 2.383e-10
  3.30781     93.1 9.601e+03 2.427e-10
  3.34047     94.2 9.452e+03 1.989e-10
  3.38140     95.3 9.291e+03 1.547e-10
  3.41424     96.6 9.182e+03 1.227e-10
  3.43471     97.7 9.246e+03 1.404e-10
  3.46327     99.0 9.203e+03 1.164e-10
  3.50050    100.3 9.173e+03 9.793e-11
  3.52096    100.2 9.364e+03 1.421e-10
  3.54115    101.6 9.301e+03 1.256e-10
  3.56161    102.8 9.366e+03 1.522e-10
  3.58607    104.2 9.277e+03 1.252e-10
  3.62700    105.7 9.182e+03 1.062e-10
  3.66794    107.3 9.101e+03 9.634e-11
  3.70887    110.0 9.008e+03 1.014e-10
  3.74980    111.7 8.984e+03 1.005e-10
  3.79074    113.4 8.972e+03 1.024e-10
  3.81542    115.3 8.972e+03 1.075e-10
  3.83589    116.4 8.958e+03 1.152e-10
  3.87260    118.4 8.989e+03 1.216e-10
  3.91353    120.4 9.047e+03 1.319e-10
  3.94233    122.4 9.136e+03 1.456e-10
  3.96279    123.5 9.175e+03 1.422e-10
  3.99540    125.4 9.297e+03 1.558e-10
  4.03633    127.3 9.413e+03 1.685e-10
  4.06923    129.1 9.504e+03 1.779e-10
  4.08970    130.2 9.531e+03 1.832e-10
  4.11820    132.0 9.603e+03 1.908e-10
  4.15913    133.7 9.661e+03 1.994e-10
  4.19613    135.5 9.745e+03 2.168e-10
  4.21660    136.6 9.908e+03 2.357e-10
  4.24100    138.4 1.013e+04 2.573e-10
  4.28193    140.0 1.040e+04 3.011e-10
  4.32287    140.7 1.054e+04 3.460e-10
  4.35347    142.6 1.075e+04 5.117e-10
  4.37384    143.4 1.100e+04 6.242e-10
  4.39430    144.1 1.131e+04 7.725e-10
  4.40676    144.6 1.168e+04 9.798e-10
  4.41699    144.8 1.173e+04 1.037e-09
  4.43524    145.2 1.210e+04 1.344e-09
  4.45570    145.4 1.261e+04 1.799e-09
  4.47021    145.6 1.315e+04 2.581e-09
  4.47896    146.5 1.329e+04 2.346e-09
  4.48492    146.7 1.285e+04 2.236e-09
  4.49664    147.0 1.340e+04 2.832e-09
  4.51710    147.2 1.400e+04 3.522e-09
  4.53366    147.2 1.458e+04 4.194e-09
  4.54390    147.5 1.413e+04 2.844e-09
  4.55804    146.9 1.449e+04 3.107e-09
  4.57850    146.0 1.457e+04 3.153e-09
  4.59712    145.1 1.454e+04 3.115e-09
  4.60735    144.9 1.390e+04 2.234e-09
  4.61944    144.1 1.381e+04 2.215e-09
  4.63990    143.4 1.362e+04 2.124e-09
  4.66037    142.8 1.340e+04 1.948e-09
  4.67080    142.2 1.317e+04 1.723e-09
  4.68103    142.5 1.303e+04 1.692e-09
  4.70130    141.8 1.278e+04 1.553e-09
  4.72177    141.1 1.273e+04 1.523e-09
  4.73425    140.3 1.278e+04 1.549e-09
  4.74449    140.9 1.286e+04 1.669e-09
  4.76270    139.6 1.323e+04 1.893e-09
  4.78317    138.1 1.385e+04 2.442e-09
  4.79770    136.7 1.457e+04 3.463e-09
  4.80794    137.3 1.488e+04 3.833e-09
  4.82410    136.5 1.537e+04 5.170e-09
  4.84457    135.9 1.555e+04 5.971e-09
  4.86116    135.1 1.551e+04 5.972e-09
  4.87139    135.5 1.536e+04 5.398e-09
  4.88550    134.7 1.505e+04 4.942e-09
  4.90597    134.0 1.456e+04 4.280e-09
  4.92461    133.3 1.399e+04 3.591e-09
  4.93484    133.6 1.366e+04 3.095e-09
  4.94690    133.0 1.314e+04 2.579e-09
  4.96737    132.6 1.280e+04 2.246e-09
  4.98784    132.4 1.269e+04 2.068e-09
  4.99829    132.4 1.283e+04 1.968e-09
  5.00853    132.6 1.285e+04 1.639e-09
  5.02877    132.6 1.295e+04 1.565e-09
  5.04924    132.5 1.303e+04 1.519e-09
  5.06174    132.4 1.311e+04 1.495e-09
  5.07198    132.6 1.286e+04 1.188e-09
  5.09017    132.3 1.283e+04 1.158e-09
  5.11064    132.0 1.275e+04 1.127e-09
  5.12520    131.5 1.261e+04 1.074e-09
  5.13543    131.9 1.211e+04 8.653e-10
  5.15157    131.5 1.181e+04 7.947e-10
  5.17204    131.0 1.144e+04 7.103e-10
  5.18865    130.5 1.102e+04 6.240e-10
  5.19888    130.7 1.087e+04 6.145e-10
  5.21297    130.3 1.054e+04 5.493e-10
  5.23343    129.9 1.027e+04 5.018e-10
  5.25210    129.6 1.009e+04 4.754e-10
  5.26233    129.6 1.048e+04 5.594e-10
  5.27437    129.3 1.036e+04 5.354e-10
  5.29483    129.1 1.027e+04 5.182e-10
  5.31530    128.9 1.018e+04 5.019e-10
  5.32579    128.7 1.007e+04 4.822e-10
  5.33602    128.0 1.034e+04 5.509e-10
  5.35623    127.8 1.019e+04 5.056e-10
  5.37670    127.5 1.006e+04 4.631e-10
  5.38924    127.1 1.003e+04 4.479e-10
  5.39947    125.6 1.022e+04 5.760e-10
  5.41763    125.1 1.019e+04 5.776e-10
  5.43810    124.6 1.018e+04 5.862e-10
  5.44908    124.0 1.020e+04 6.203e-10
  5.45343    124.2 1.052e+04 7.288e-10
  5.46292    124.0 1.063e+04 7.716e-10
  5.47903    123.4 1.074e+04 8.404e-10
  5.49950    122.9 1.087e+04 9.330e-10
  5.51614    122.6 1.098e+04 1.033e-09
  5.52637    121.0 1.100e+04 1.047e-09
  5.54043    120.8 1.096e+04 1.037e-09
  5.56090    120.7 1.084e+04 9.904e-10
  5.59170    120.8 1.028e+04 7.314e-10
  5.63273    120.8 9.757e+03 5.143e-10
  5.65347    120.7 9.221e+03 3.526e-10
  5.67394    119.6 8.923e+03 2.668e-10
  5.71460    120.2 8.883e+03 2.675e-10
  5.75553    120.6 8.944e+03 2.890e-10
  5.78028    120.6 9.049e+03 3.166e-10
  5.79041    120.9 9.161e+03 3.473e-10
  5.80650    120.9 9.359e+03 4.109e-10
  5.82697    120.6 9.778e+03 5.401e-10
  5.84363    119.9 1.036e+04 7.624e-10
  5.85387    120.2 1.068e+04 8.589e-10
  5.86790    119.3 1.149e+04 1.281e-09
  5.88837    118.2 1.228e+04 1.857e-09
  5.90709    117.1 1.279e+04 2.254e-09
  5.91732    117.2 1.324e+04 2.560e-09
  5.92930    115.6 1.350e+04 2.600e-09
  5.94977    111.4 1.485e+04 2.719e-09
  5.97023    102.3 1.887e+04 3.328e-09
  5.98077     91.8 1.947e+04 4.613e-09
  5.99100     87.0 2.037e+04 6.737e-09
  6.01117     82.6 1.731e+04 6.603e-09
  6.03163     82.0 1.530e+04 6.294e-09
  6.04422     82.1 1.456e+04 5.467e-09
  6.05446     81.7 1.545e+04 6.055e-09
  6.07257     81.3 1.606e+04 4.442e-09
  6.09303     80.0 1.669e+04 3.383e-09
  6.10767     77.8 1.659e+04 2.714e-09
  6.11791     73.5 1.731e+04 4.612e-09
  6.13397     72.5 1.766e+04 5.890e-09
  6.15443     72.6 1.857e+04 7.465e-09
  6.17113     73.2 1.880e+04 7.719e-09
  6.18136     72.9 1.946e+04 1.465e-08
  6.19536     73.6 1.925e+04 1.298e-08
  6.21583     74.0 1.845e+04 9.884e-09
  6.23458     74.0 1.727e+04 6.890e-09
  6.24481     73.9 1.720e+04 7.195e-09
  6.25676     73.3 1.573e+04 4.475e-09
  6.27723     72.4 1.417e+04 2.797e-09
  6.29770     71.4 1.279e+04 1.883e-09
  6.30826     70.8 1.193e+04 1.436e-09
  6.31850     69.8 1.141e+04 9.462e-10
  6.33863     70.1 1.132e+04 9.166e-10
  6.35910     70.7 1.131e+04 9.194e-10
  6.37171     71.4 1.137e+04 9.484e-10
  6.38195     71.1 1.072e+04 7.021e-10
  6.40003     71.8 1.086e+04 7.511e-10
  6.41323     72.3 1.109e+04 8.250e-10
  6.42347     73.0 1.128e+04 9.549e-10
  6.43517     73.4 1.149e+04 1.040e-09
  6.44540     73.6 1.101e+04 8.378e-10
  6.46143     74.1 1.116e+04 8.969e-10
  6.48190     74.5 1.139e+04 9.732e-10
  6.49862     74.8 1.157e+04 1.055e-09
  6.50885     75.4 1.126e+04 9.406e-10
  6.52283     75.7 1.152e+04 9.924e-10
  6.54330     76.1 1.180e+04 1.065e-09
  6.56207     76.5 1.187e+04 1.121e-09
  6.57230     77.4 1.170e+04 1.034e-09
  6.58423     77.9 1.162e+04 1.025e-09
  6.60470     78.6 1.139e+04 9.831e-10
  6.62516     79.3 1.118e+04 9.057e-10
  6.63576     80.0 1.095e+04 8.269e-10
  6.64599     80.5 1.139e+04 7.052e-10
  6.66610     80.2 1.288e+04 6.780e-10
  6.68656     78.9 1.574e+04 7.796e-10
  6.69921     77.2 1.789e+04 1.297e-09
  6.70944     71.7 2.355e+04 2.309e-09
  6.72750     71.9 2.167e+04 4.497e-09
  6.74280     70.7 2.135e+04 7.524e-09
  6.75298     70.2 2.105e+04 1.081e-08
  6.76256     70.4 2.076e+04 1.442e-08
  6.76768     68.8 2.064e+04 1.894e-08
  6.77345     69.6 2.067e+04 2.252e-08
  6.78368     70.7 2.104e+04 2.564e-08
  6.79392     71.8 2.198e+04 2.790e-08
  6.79940     72.7 2.316e+04 2.965e-08
  6.80452     70.4 2.620e+04 3.600e-08
  6.81438     70.8 2.791e+04 3.493e-08
  6.82461     71.1 2.858e+04 3.483e-08
  6.83113     71.1 3.109e+04 2.894e-08
  6.83625     67.0 3.317e+04 2.679e-08
  6.84508     66.2 3.268e+04 2.059e-08
  6.85531     65.3 3.029e+04 1.694e-08
  6.86286     64.5 2.724e+04 1.467e-08
  6.86797     59.1 2.319e+04 1.318e-08
  6.87578     58.6 2.189e+04 1.256e-08
  6.88601     58.5 2.157e+04 1.304e-08
  6.89458     57.6 2.164e+04 1.413e-08
  6.89866     53.1 2.105e+04 1.374e-08
  6.90033     55.3 2.188e+04 1.531e-08
  6.90648     53.3 2.201e+04 1.700e-08
  6.91671     50.3 2.229e+04 1.886e-08
  6.92631     45.8 2.280e+04 2.077e-08
  6.93142     42.9 2.241e+04 1.981e-08
  6.93718     37.4 2.279e+04 1.984e-08
  6.94741     30.9 2.398e+04 1.878e-08
  6.95507     16.5 3.889e+04 1.381e-08
  6.96016     14.7 4.119e+04 1.280e-08
  6.96310     -9.5 6.949e+04 1.277e-08
  6.96566      4.5 4.998e+04 1.135e-08
  6.97039     -2.9 6.328e+04 9.671e-09
  6.97551    -24.6 6.816e+04 2.327e-08
  6.97896    -33.7 5.697e+04 6.303e-08
  6.98152    -21.8 7.009e+04 1.982e-08
  6.98574    -34.6 5.297e+04 8.806e-08
  6.99086    -43.0 3.842e+04 3.416e-07
  6.99483    -51.6 2.827e+04 7.873e-07
  6.99739    -40.5 3.807e+04 2.827e-07
  7.00109    -46.6 3.016e+04 6.562e-07
  7.00621    -51.3 2.596e+04 9.100e-07
  7.01069    -52.2 2.550e+04 9.141e-07
  7.01325    -47.3 2.638e+04 1.004e-06
  7.01644    -49.7 2.542e+04 9.500e-07
  7.02156    -49.7 2.824e+04 6.342e-07
  7.02655    -49.6 3.381e+04 3.006e-07
  7.02911    -47.4 2.484e+04 1.060e-06
  7.03179    -48.0 2.821e+04 5.949e-07
  7.03691    -48.8 3.147e+04 3.277e-07
  7.04202    -49.1 3.404e+04 2.067e-07
  7.04972    -49.3 3.737e+04 1.127e-07
  7.05833    -53.3 3.471e+04 4.390e-08
  7.06344    -48.9 3.130e+04 2.121e-07
  7.07021    -50.9 3.172e+04 7.623e-08
  7.08045    -50.7 3.035e+04 3.729e-08
  7.09005    -49.7 2.690e+04 1.887e-08
  7.09517    -47.2 3.121e+04 5.010e-08
  7.10091    -46.9 3.000e+04 1.973e-08
  7.11115    -47.5 2.474e+04 9.084e-09
  7.12138    -47.8 1.897e+04 5.903e-09
  7.12690    -46.9 1.664e+04 4.661e-09
  7.13201    -45.0 2.288e+04 5.967e-09
  7.14185    -45.9 1.892e+04 3.612e-09
  7.15355    -46.7 1.915e+04 2.087e-09
  7.16384    -44.0 3.044e+04 3.549e-09
  7.17776    -45.9 2.486e+04 8.775e-10
  7.19823    -48.7 1.485e+04 5.420e-10
  7.21706    -48.8 1.027e+04 5.240e-10
  7.22729    -48.6 1.205e+04 5.606e-10
  7.23916    -47.5 1.013e+04 5.581e-10
  7.25963    -46.0 9.894e+03 5.335e-10
  7.28009    -44.6 9.812e+03 5.072e-10
  7.29074    -43.5 9.746e+03 4.856e-10
  7.30097    -43.8 9.810e+03 5.534e-10
  7.32103    -42.8 9.782e+03 5.152e-10
  7.34406    -41.7 9.641e+03 4.877e-10
  7.36462    -42.2 1.015e+04 6.178e-10
  7.37758    -39.8 9.528e+03 4.796e-10
  7.39805    -40.0 9.411e+03 4.167e-10
  7.43379    -37.6 9.192e+03 3.574e-10
  7.47106    -35.4 9.030e+03 3.134e-10
  7.49152    -35.5 8.811e+03 2.568e-10
  7.51566    -33.8 8.645e+03 2.237e-10
  7.55659    -32.2 8.578e+03 2.155e-10
  7.59752    -30.8 8.603e+03 2.308e-10
  7.61843    -29.4 8.799e+03 2.816e-10
  7.63889    -28.9 8.872e+03 3.153e-10
  7.67939    -27.2 9.114e+03 3.774e-10
  7.72032    -25.7 9.340e+03 4.265e-10
  7.74533    -24.4 9.433e+03 4.456e-10
  7.76580    -24.1 9.399e+03 4.197e-10
  7.80219    -23.2 9.441e+03 4.271e-10
  7.84312    -22.3 9.404e+03 4.153e-10
  7.87224    -21.5 9.308e+03 3.878e-10
  7.89270    -22.1 9.646e+03 4.887e-10
  7.92499    -21.7 9.784e+03 5.306e-10
  7.96592    -21.3 1.008e+04 6.165e-10
  7.99914    -20.5 1.034e+04 7.281e-10
  8.01961    -21.1 1.100e+04 1.096e-09
  8.04779    -19.5 1.055e+04 9.273e-10
  8.08872    -18.2 1.004e+04 7.022e-10
  8.12604    -16.9 9.497e+03 5.225e-10
  8.14651    -17.1 8.758e+03 3.099e-10
  8.17059    -16.5 8.481e+03 2.389e-10
  8.21152    -16.0 8.422e+03 2.297e-10
  8.25245    -15.7 8.729e+03 3.060e-10
  8.27341    -15.3 9.378e+03 4.875e-10
  8.29388    -15.4 8.448e+03 2.112e-10
  8.33432    -15.6 8.972e+03 3.043e-10
  8.37525    -16.7 9.376e+03 3.932e-10
  8.40032    -18.1 9.567e+03 4.263e-10
  8.42078    -19.1 9.269e+03 3.718e-10
  8.45712    -21.6 9.384e+03 3.848e-10
  8.49805    -24.5 9.382e+03 3.629e-10
  8.52722    -27.3 9.426e+03 3.482e-10
  8.54769    -27.9 9.612e+03 3.833e-10
  8.57992    -30.4 9.531e+03 3.465e-10
  8.62085    -32.1 9.228e+03 2.843e-10
  8.65412    -32.8 8.885e+03 2.041e-10
  8.67459    -33.4 8.798e+03 1.839e-10
  8.70272    -33.8 8.472e+03 1.136e-10
  8.74365    -33.7 8.311e+03 7.181e-11
  8.78103    -33.6 8.278e+03 5.450e-11
  8.80149    -34.3 8.347e+03 6.092e-11
  8.82552    -34.0 8.339e+03 5.877e-11
  8.86645    -33.7 8.357e+03 6.565e-11
  8.90738    -33.0 8.436e+03 8.416e-11
  8.92840    -32.2 8.637e+03 1.032e-10
  8.94886    -33.3 8.974e+03 1.533e-10
  8.98925    -33.6 9.328e+03 1.946e-10
  9.03018    -34.3 9.727e+03 2.843e-10
  9.05530    -34.7 1.018e+04 4.556e-10
  9.07577    -35.9 1.076e+04 6.711e-10
  9.11205    -35.9 1.118e+04 8.569e-10
  9.15298    -36.2 1.132e+04 9.044e-10
  9.18221    -37.2 1.134e+04 8.254e-10
  9.20267    -38.9 1.130e+04 1.076e-09
  9.23485    -39.6 1.105e+04 9.323e-10
  9.27578    -40.0 1.080e+04 7.188e-10
  9.30589    -40.2 1.052e+04 4.773e-10
  9.31875    -40.2 1.056e+04 4.220e-10
  9.32958    -42.0 1.062e+04 5.067e-10
  9.35765    -42.9 1.027e+04 3.471e-10
  9.39858    -43.5 1.015e+04 3.132e-10
  9.43601    -43.8 1.020e+04 3.208e-10
  9.45648    -44.8 1.038e+04 3.589e-10
  9.48045    -46.9 1.152e+04 4.951e-10
  9.52138    -49.4 1.256e+04 1.015e-09
  9.56231    -51.1 1.319e+04 1.800e-09
  9.58329    -52.1 1.325e+04 1.884e-09
  9.59342    -53.3 1.265e+04 1.411e-09
  9.61329    -53.7 1.267e+04 1.410e-09
  9.63375    -54.4 1.250e+04 1.224e-09
  9.64664    -55.7 1.212e+04 9.028e-10
  9.65687    -57.5 1.199e+04 8.479e-10
  9.67469    -59.5 1.186e+04 7.476e-10
  9.69515    -61.1 1.179e+04 7.320e-10
  9.71009    -62.3 1.173e+04 7.328e-10
  9.72032    -63.4 1.166e+04 8.974e-10
  9.73609    -64.0 1.159e+04 8.972e-10
  9.75655    -64.4 1.149e+04 8.457e-10
  9.77354    -64.9 1.142e+04 7.857e-10
  9.78378    -65.4 1.135e+04 7.436e-10
  9.79749    -66.1 1.119e+04 6.425e-10
  9.81795    -66.8 1.101e+04 5.686e-10
  9.83699    -67.5 1.082e+04 5.183e-10
  9.84723    -68.6 1.048e+04 4.109e-10
  9.85889    -68.9 1.039e+04 3.935e-10
  9.87935    -69.0 1.033e+04 3.820e-10
  9.89982    -68.9 1.034e+04 3.764e-10
  9.91068    -68.9 1.032e+04 3.632e-10
  9.92091    -69.5 1.030e+04 3.368e-10
  9.94075    -69.4 1.033e+04 3.235e-10
  9.96400    -69.3 1.041e+04 3.083e-10
  9.98456    -71.0 1.042e+04 2.796e-10
 10.01258    -71.1 1.059e+04 2.734e-10
 10.05351    -70.8 1.074e+04 2.993e-10
 10.09100    -69.9 1.060e+04 3.459e-10
 10.11146    -70.8 1.054e+04 4.227e-10
 10.13538    -69.2 1.034e+04 4.186e-10
 10.17631    -67.4 1.013e+04 3.829e-10
 10.21725    -65.6 9.888e+03 3.390e-10
 10.23837    -63.9 9.758e+03 3.020e-10
 10.25883    -64.2 9.643e+03 2.393e-10
 10.29911    -62.7 9.613e+03 2.207e-10
 10.34005    -61.1 9.606e+03 2.160e-10
 10.36527    -59.5 9.648e+03 2.194e-10
 10.38574    -59.8 9.570e+03 1.829e-10
 10.42191    -58.1 9.653e+03 1.948e-10
 10.46284    -56.2 9.760e+03 2.075e-10
 10.49218    -54.7 1.012e+04 2.304e-10
 10.50231    -57.9 1.218e+04 2.692e-10
 10.51382    -59.0 1.312e+04 3.873e-10
 10.53428    -61.6 1.460e+04 6.558e-10
 10.55475    -64.3 1.575e+04 1.490e-09
 10.56566    -65.5 1.594e+04 3.165e-09
 10.57590    -66.7 1.595e+04 6.073e-09
 10.59568    -65.6 1.611e+04 8.314e-09
 10.61615    -64.4 1.629e+04 9.704e-09
 10.62912    -63.2 1.631e+04 1.029e-08
 10.63935    -63.2 1.616e+04 7.646e-09
 10.65708    -62.6 1.607e+04 4.932e-09
 10.67755    -63.2 1.569e+04 2.581e-09
 10.69257    -65.2 1.462e+04 1.166e-09
 10.70280    -69.7 1.118e+04 4.539e-10
 10.71848    -70.5 1.014e+04 2.844e-10
 10.73895    -70.6 9.739e+03 2.105e-10
 10.75602    -70.2 9.545e+03 1.713e-10
 10.76625    -70.0 9.511e+03 1.677e-10
 10.79021    -69.2 9.459e+03 1.381e-10
 10.83124    -68.1 9.326e+03 1.072e-10
 10.87218    -67.3 9.315e+03 9.924e-11
 10.89335    -66.9 9.731e+03 1.077e-10
 10.91382    -65.6 9.479e+03 9.733e-11
 10.95404    -64.7 9.714e+03 1.328e-10
