# Columns:
#   distance along LOS (in CHIMPs)
#   peculiar velocity  (in km/s)
#   temperature (K)
#   HI number density
# pos=(142.741,113.409,233.988), angles=(1.68684,3.13201)
  0.01916     40.5 1.061e+04 4.586e-10
  0.05798     42.3 1.132e+04 6.530e-10
  0.08738     42.9 1.195e+04 1.044e-09
  0.10695     43.6 1.237e+04 1.412e-09
  0.12661     44.5 1.285e+04 1.863e-09
  0.14467     45.7 1.306e+04 2.076e-09
  0.15450     45.6 1.389e+04 2.997e-09
  0.16594     46.9 1.390e+04 2.985e-09
  0.18561     48.4 1.364e+04 2.607e-09
  0.20527     50.0 1.318e+04 1.968e-09
  0.22493     51.1 1.272e+04 1.339e-09
  0.24460     51.0 1.217e+04 8.437e-10
  0.26426     50.5 1.153e+04 5.495e-10
  0.28393     50.3 1.087e+04 4.502e-10
  0.30359     50.4 1.069e+04 4.535e-10
  0.31750     50.8 1.078e+04 4.852e-10
  0.32734     50.8 1.119e+04 6.219e-10
  0.34292     51.3 1.123e+04 6.669e-10
  0.36259     52.2 1.144e+04 8.050e-10
  0.38225     52.5 1.155e+04 8.551e-10
  0.40191     53.5 1.177e+04 1.025e-09
  0.42158     54.0 1.185e+04 1.082e-09
  0.44124     55.2 1.175e+04 1.067e-09
  0.46091     55.7 1.173e+04 1.061e-09
  0.48050     57.2 1.145e+04 9.364e-10
  0.50017     57.4 1.152e+04 9.860e-10
  0.52983     59.5 1.098e+04 6.747e-10
  0.56926     61.7 1.051e+04 4.609e-10
  0.60859     63.8 1.012e+04 3.176e-10
  0.64370     65.8 9.868e+03 2.358e-10
  0.66336     65.8 1.018e+04 3.493e-10
  0.68724     67.9 9.998e+03 2.930e-10
  0.72657     70.2 9.896e+03 2.752e-10
  0.76590     72.6 9.892e+03 2.823e-10
  0.80523     75.1 9.922e+03 3.024e-10
  0.84456     77.7 9.997e+03 3.374e-10
  0.88389     80.2 1.009e+04 3.744e-10
  0.92322     82.8 1.018e+04 4.024e-10
  0.96254     85.2 1.021e+04 4.119e-10
  0.98936     87.6 1.020e+04 4.068e-10
  1.00902     87.0 1.010e+04 3.755e-10
  1.04120     89.4 9.936e+03 3.197e-10
  1.08053     91.7 9.741e+03 2.500e-10
  1.11986     94.0 9.548e+03 1.865e-10
  1.15919     96.0 9.380e+03 1.429e-10
  1.19852     97.9 9.274e+03 1.281e-10
  1.23785    100.0 9.268e+03 1.298e-10
  1.27718    102.1 9.295e+03 1.412e-10
  1.31536    104.2 9.407e+03 1.712e-10
  1.33502    103.8 9.260e+03 1.424e-10
  1.35583    106.2 9.425e+03 1.817e-10
  1.39516    108.6 9.626e+03 2.226e-10
  1.43449    110.9 9.769e+03 2.412e-10
  1.47382    113.0 9.773e+03 2.391e-10
  1.49621    115.2 9.745e+03 2.252e-10
  1.51588    115.2 9.754e+03 2.277e-10
  1.55248    117.5 9.715e+03 2.077e-10
  1.59181    119.9 9.729e+03 2.029e-10
  1.63113    122.3 9.791e+03 2.090e-10
  1.66102    124.7 9.942e+03 2.303e-10
  1.68068    124.6 1.001e+04 2.550e-10
  1.70979    127.2 1.025e+04 3.043e-10
  1.74912    129.7 1.044e+04 3.522e-10
  1.78845    132.2 1.062e+04 3.933e-10
  1.81785    133.9 1.058e+04 3.569e-10
  1.83366    134.7 1.056e+04 3.379e-10
  1.84349    134.9 1.064e+04 3.617e-10
  1.85708    136.2 1.066e+04 3.493e-10
  1.87674    137.3 1.067e+04 3.419e-10
  1.89641    138.3 1.063e+04 3.339e-10
  1.91607    139.2 1.059e+04 3.311e-10
  1.93574    140.3 1.058e+04 3.369e-10
  1.95540    141.3 1.069e+04 3.573e-10
  1.97507    141.6 1.084e+04 4.017e-10
  1.99473    141.3 1.115e+04 5.137e-10
  2.00649    140.1 1.207e+04 8.370e-10
  2.01632    138.2 1.346e+04 1.469e-09
  2.03406    136.1 1.520e+04 3.136e-09
  2.05372    134.2 1.673e+04 6.386e-09
  2.07339    132.7 1.802e+04 1.048e-08
  2.09305    130.7 1.905e+04 1.169e-08
  2.11272    128.0 1.916e+04 1.124e-08
  2.13238    125.0 1.924e+04 9.050e-09
  2.15205    121.9 1.860e+04 6.174e-09
  2.16949    119.0 1.714e+04 3.998e-09
  2.17932    115.2 1.596e+04 3.336e-09
  2.19137    113.8 1.469e+04 2.745e-09
  2.21104    113.3 1.401e+04 2.358e-09
  2.23070    113.1 1.359e+04 2.111e-09
  2.25037    113.1 1.327e+04 1.953e-09
  2.27003    113.2 1.299e+04 1.872e-09
  2.28970    113.3 1.289e+04 1.843e-09
  2.30936    113.6 1.287e+04 1.801e-09
  2.32903    113.8 1.284e+04 1.714e-09
  2.34232    114.0 1.277e+04 1.604e-09
  2.35215    113.1 1.248e+04 1.205e-09
  2.36835    113.0 1.242e+04 1.106e-09
  2.38802    112.8 1.245e+04 1.099e-09
  2.40768    112.7 1.254e+04 1.138e-09
  2.42735    112.6 1.278e+04 1.260e-09
  2.44701    112.3 1.313e+04 1.510e-09
  2.46668    112.1 1.358e+04 1.920e-09
  2.48634    111.7 1.417e+04 2.560e-09
  2.50532    111.2 1.490e+04 3.530e-09
  2.51515    110.4 1.457e+04 3.214e-09
  2.52567    109.8 1.529e+04 4.368e-09
  2.54533    109.2 1.603e+04 5.876e-09
  2.56500    108.7 1.647e+04 7.310e-09
  2.58466    108.3 1.673e+04 7.835e-09
  2.60433    107.9 1.668e+04 7.412e-09
  2.62399    107.4 1.644e+04 6.405e-09
  2.64366    107.0 1.601e+04 5.159e-09
  2.66332    106.4 1.547e+04 4.074e-09
  2.67815    105.7 1.495e+04 3.347e-09
  2.68798    106.0 1.410e+04 2.116e-09
  2.70265    105.6 1.375e+04 1.899e-09
  2.72231    105.5 1.359e+04 1.882e-09
  2.74198    105.7 1.365e+04 1.980e-09
  2.76164    106.0 1.379e+04 2.211e-09
  2.78131    106.4 1.404e+04 2.510e-09
  2.80097    106.9 1.428e+04 2.972e-09
  2.82064    107.4 1.455e+04 3.440e-09
  2.84030    108.0 1.505e+04 3.895e-09
  2.85098    108.7 1.532e+04 4.533e-09
  2.86081    109.6 1.437e+04 3.057e-09
  2.87963    110.4 1.465e+04 3.662e-09
  2.89929    111.3 1.496e+04 4.289e-09
  2.91896    112.3 1.534e+04 4.932e-09
  2.93862    113.4 1.567e+04 5.525e-09
  2.95829    114.4 1.580e+04 5.785e-09
  2.97795    115.3 1.573e+04 5.628e-09
  2.99762    116.5 1.545e+04 5.132e-09
  3.01398    117.8 1.506e+04 4.437e-09
  3.02381    118.3 1.495e+04 4.122e-09
  3.03694    119.6 1.455e+04 3.507e-09
  3.05661    120.8 1.407e+04 2.865e-09
  3.07627    122.0 1.358e+04 2.292e-09
  3.09594    123.2 1.312e+04 1.822e-09
  3.11560    124.4 1.273e+04 1.464e-09
  3.13527    125.5 1.238e+04 1.179e-09
  3.15493    126.6 1.204e+04 9.498e-10
  3.17460    127.8 1.172e+04 7.774e-10
  3.18681    129.1 1.145e+04 6.602e-10
  3.19664    129.1 1.162e+04 7.585e-10
  3.21392    130.4 1.146e+04 6.863e-10
  3.23359    131.6 1.136e+04 6.426e-10
  3.25325    132.8 1.126e+04 6.207e-10
  3.27292    134.1 1.121e+04 6.183e-10
  3.29258    135.4 1.121e+04 6.230e-10
  3.31225    136.7 1.124e+04 6.478e-10
  3.33191    137.9 1.133e+04 6.978e-10
  3.34981    139.0 1.143e+04 7.615e-10
  3.35964    138.8 1.172e+04 1.021e-09
  3.37124    139.8 1.181e+04 1.132e-09
  3.39090    141.0 1.191e+04 1.258e-09
  3.41057    142.1 1.200e+04 1.400e-09
  3.43023    143.1 1.210e+04 1.536e-09
  3.44990    144.0 1.220e+04 1.659e-09
  3.46956    145.0 1.234e+04 1.753e-09
  3.48923    145.8 1.247e+04 1.829e-09
  3.50889    146.4 1.261e+04 1.917e-09
  3.52264    147.1 1.278e+04 2.057e-09
  3.53247    146.3 1.272e+04 1.905e-09
  3.54431    146.8 1.293e+04 1.992e-09
  3.55414    146.7 1.247e+04 1.592e-09
  3.56788    146.8 1.274e+04 1.674e-09
  3.58755    146.7 1.304e+04 1.788e-09
  3.60721    146.4 1.340e+04 1.970e-09
  3.62688    145.9 1.379e+04 2.262e-09
  3.64654    145.4 1.417e+04 2.671e-09
  3.66621    144.9 1.438e+04 3.068e-09
  3.68564    144.3 1.436e+04 3.149e-09
  3.69547    143.0 1.297e+04 1.934e-09
  3.70553    142.6 1.288e+04 1.895e-09
  3.72520    142.3 1.261e+04 1.747e-09
  3.74486    142.1 1.221e+04 1.500e-09
  3.76453    141.9 1.170e+04 1.229e-09
  3.78419    141.7 1.107e+04 9.193e-10
  3.80386    141.6 1.066e+04 7.849e-10
  3.82352    141.8 1.017e+04 6.184e-10
  3.84319    141.9 9.959e+03 5.492e-10
  3.85847    142.6 9.743e+03 4.784e-10
  3.86830    142.5 9.709e+03 4.607e-10
  3.88251    143.0 9.646e+03 4.392e-10
  3.90218    143.7 9.612e+03 4.308e-10
  3.92184    144.3 9.608e+03 4.314e-10
  3.94151    144.9 9.613e+03 4.379e-10
  3.96117    145.4 9.686e+03 4.724e-10
  3.98084    145.8 9.899e+03 5.544e-10
  4.00050    146.0 1.020e+04 6.749e-10
  4.02016    146.1 1.054e+04 8.335e-10
  4.03130    146.3 1.082e+04 1.037e-09
  4.04113    146.6 1.052e+04 8.819e-10
  4.05949    146.8 1.082e+04 1.070e-09
  4.07916    147.1 1.110e+04 1.254e-09
  4.09882    147.3 1.135e+04 1.368e-09
  4.11849    147.3 1.142e+04 1.371e-09
  4.13815    147.2 1.141e+04 1.347e-09
  4.15782    147.0 1.131e+04 1.243e-09
  4.17748    146.8 1.106e+04 1.066e-09
  4.19430    146.4 1.070e+04 8.719e-10
  4.20413    147.2 1.080e+04 9.266e-10
  4.21681    146.7 1.044e+04 7.607e-10
  4.23647    146.3 1.004e+04 6.223e-10
  4.25614    146.1 9.677e+03 5.164e-10
  4.27580    146.0 9.413e+03 4.413e-10
  4.29547    146.0 9.192e+03 3.766e-10
  4.31513    146.1 9.106e+03 3.511e-10
  4.34473    146.6 9.013e+03 3.336e-10
  4.36733    148.2 8.935e+03 3.180e-10
  4.37706    148.0 9.055e+03 3.524e-10
  4.39379    148.4 9.041e+03 3.496e-10
  4.42338    149.9 9.092e+03 3.629e-10
  4.46281    151.8 9.073e+03 3.575e-10
  4.50214    154.0 9.073e+03 3.572e-10
  4.54147    155.8 9.078e+03 3.501e-10
  4.58080    157.5 9.148e+03 3.556e-10
  4.61019    158.0 9.249e+03 3.804e-10
  4.62976    158.6 9.377e+03 4.142e-10
  4.64943    159.2 9.557e+03 4.668e-10
  4.66909    159.8 9.789e+03 5.411e-10
  4.68875    160.2 1.006e+04 6.372e-10
  4.70296    160.6 1.034e+04 7.503e-10
  4.71279    160.4 1.064e+04 8.858e-10
  4.72808    160.7 1.089e+04 1.007e-09
  4.74775    160.9 1.110e+04 1.117e-09
  4.76741    160.9 1.131e+04 1.222e-09
  4.78708    160.8 1.161e+04 1.355e-09
  4.80674    160.3 1.197e+04 1.531e-09
  4.82641    159.1 1.269e+04 1.829e-09
  4.84607    157.5 1.376e+04 2.415e-09
  4.86573    155.8 1.481e+04 3.362e-09
  4.87579    154.2 1.559e+04 4.496e-09
  4.88562    154.9 1.512e+04 3.901e-09
  4.90506    153.6 1.553e+04 4.582e-09
  4.92473    152.2 1.567e+04 4.686e-09
  4.94439    150.7 1.566e+04 4.401e-09
  4.96406    148.8 1.555e+04 3.898e-09
  4.98372    146.7 1.541e+04 3.495e-09
  5.00339    144.3 1.514e+04 3.242e-09
  5.02305    142.3 1.470e+04 3.099e-09
  5.03879    140.7 1.421e+04 2.955e-09
  5.04862    141.9 1.399e+04 2.621e-09
  5.06238    140.5 1.368e+04 2.566e-09
  5.08204    139.6 1.344e+04 2.460e-09
  5.10171    138.8 1.327e+04 2.331e-09
  5.12137    137.9 1.314e+04 2.149e-09
  5.14104    137.0 1.297e+04 1.939e-09
  5.16070    136.0 1.273e+04 1.731e-09
  5.18037    135.2 1.243e+04 1.540e-09
  5.20003    134.4 1.214e+04 1.371e-09
  5.21162    133.8 1.186e+04 1.217e-09
  5.22145    134.7 1.217e+04 1.397e-09
  5.23936    134.0 1.187e+04 1.209e-09
  5.25902    133.5 1.158e+04 1.048e-09
  5.27869    133.0 1.129e+04 9.147e-10
  5.29835    132.8 1.102e+04 8.105e-10
  5.31802    132.8 1.080e+04 7.270e-10
  5.33768    132.9 1.059e+04 6.480e-10
  5.35734    133.2 1.036e+04 5.455e-10
  5.37462    133.3 1.028e+04 4.981e-10
  5.38445    133.4 1.030e+04 5.066e-10
  5.40660    133.9 1.009e+04 4.331e-10
  5.44603    135.3 9.687e+03 3.227e-10
  5.48536    136.9 9.296e+03 2.355e-10
  5.52469    138.5 8.973e+03 1.776e-10
  5.56402    140.3 8.897e+03 1.621e-10
  5.59280    142.3 8.907e+03 1.632e-10
  5.61247    141.7 8.701e+03 1.252e-10
  5.64267    143.7 8.752e+03 1.318e-10
  5.68200    145.5 8.967e+03 1.601e-10
  5.71065    147.0 9.314e+03 2.205e-10
  5.73031    147.0 9.212e+03 2.018e-10
  5.76066    148.5 9.606e+03 2.815e-10
  5.79999    150.0 1.002e+04 3.906e-10
  5.83932    151.4 1.039e+04 5.115e-10
  5.87865    152.4 1.056e+04 5.780e-10
  5.91798    153.0 1.055e+04 5.710e-10
  5.95730    153.4 1.037e+04 5.052e-10
  5.99663    153.9 9.976e+03 3.819e-10
  6.03596    154.3 9.533e+03 2.969e-10
  6.05631    154.9 9.476e+03 2.917e-10
  6.07597    154.8 9.480e+03 2.956e-10
  6.11462    155.3 9.553e+03 3.115e-10
  6.15395    155.2 9.758e+03 3.605e-10
  6.18335    154.9 9.837e+03 3.839e-10
  6.20291    154.7 9.965e+03 4.264e-10
  6.21911    154.4 1.018e+04 5.048e-10
  6.22895    154.2 1.020e+04 5.159e-10
  6.24224    153.9 1.045e+04 6.145e-10
  6.26191    153.6 1.070e+04 7.137e-10
  6.28157    153.2 1.089e+04 7.926e-10
  6.30124    152.8 1.097e+04 8.278e-10
  6.32090    152.5 1.095e+04 8.221e-10
  6.34057    152.4 1.086e+04 7.921e-10
  6.36023    152.4 1.070e+04 7.254e-10
  6.37989    152.5 1.049e+04 6.516e-10
  6.39194    152.8 1.029e+04 5.736e-10
  6.40178    152.7 1.033e+04 5.947e-10
  6.41922    153.0 1.016e+04 5.226e-10
  6.43889    153.3 1.004e+04 4.708e-10
  6.45855    153.7 1.002e+04 4.609e-10
  6.47822    154.3 1.004e+04 4.649e-10
  6.49788    154.4 1.016e+04 4.876e-10
  6.51754    154.2 1.047e+04 5.708e-10
  6.53721    153.7 1.110e+04 7.897e-10
  6.55494    152.6 1.216e+04 1.255e-09
  6.56478    152.1 1.231e+04 1.261e-09
  6.57654    150.8 1.363e+04 2.298e-09
  6.59620    150.2 1.484e+04 4.089e-09
  6.61587    150.1 1.580e+04 6.318e-09
  6.63553    149.9 1.637e+04 7.892e-09
  6.65520    149.2 1.639e+04 7.840e-09
  6.67486    148.5 1.614e+04 6.878e-09
  6.69452    147.9 1.540e+04 4.910e-09
  6.71419    147.0 1.428e+04 3.014e-09
  6.72777    145.7 1.302e+04 1.854e-09
  6.73761    145.0 1.276e+04 1.683e-09
  6.75352    143.6 1.158e+04 1.102e-09
  6.77318    142.2 1.081e+04 7.895e-10
  6.79285    141.8 1.067e+04 7.222e-10
  6.81251    141.8 1.045e+04 6.477e-10
  6.83218    142.0 1.022e+04 5.707e-10
  6.86177    142.8 9.915e+03 4.541e-10
  6.90120    143.4 9.634e+03 3.759e-10
  6.94052    144.2 9.477e+03 3.404e-10
  6.97985    145.2 9.450e+03 3.410e-10
  7.01918    146.3 9.477e+03 3.600e-10
  7.05397    147.4 9.688e+03 4.336e-10
  7.07363    146.6 9.998e+03 5.409e-10
  7.09784    147.3 1.067e+04 7.998e-10
  7.13717    147.7 1.135e+04 1.160e-09
  7.17650    147.7 1.180e+04 1.414e-09
  7.21583    147.5 1.184e+04 1.408e-09
  7.25516    147.5 1.161e+04 1.225e-09
  7.28455    146.6 1.129e+04 1.036e-09
  7.30412    146.5 1.087e+04 8.403e-10
  7.32379    146.5 1.042e+04 6.787e-10
  7.34345    146.6 1.003e+04 5.678e-10
  7.36311    146.8 9.923e+03 5.513e-10
  7.38278    147.3 9.925e+03 5.554e-10
  7.39944    147.9 9.955e+03 5.696e-10
  7.40927    147.0 9.693e+03 4.748e-10
  7.42211    147.6 9.775e+03 5.024e-10
  7.44177    148.2 9.929e+03 5.472e-10
  7.46144    148.6 1.012e+04 6.067e-10
  7.48110    149.0 1.032e+04 6.799e-10
  7.50077    149.4 1.056e+04 7.696e-10
  7.52043    149.6 1.083e+04 8.790e-10
  7.54009    149.7 1.111e+04 1.005e-09
  7.55976    149.5 1.139e+04 1.147e-09
  7.57227    149.4 1.170e+04 1.313e-09
  7.58210    148.6 1.146e+04 1.157e-09
  7.59909    148.4 1.176e+04 1.347e-09
  7.61875    148.2 1.204e+04 1.560e-09
  7.63842    148.0 1.226e+04 1.732e-09
  7.65073    147.8 1.232e+04 1.759e-09
  7.66056    148.6 1.219e+04 1.681e-09
  7.67774    148.5 1.218e+04 1.682e-09
  7.69741    148.4 1.214e+04 1.659e-09
  7.71707    148.4 1.205e+04 1.609e-09
  7.73527    148.5 1.195e+04 1.567e-09
  7.74510    148.2 1.197e+04 1.554e-09
  7.75640    148.4 1.207e+04 1.649e-09
  7.77607    148.7 1.225e+04 1.831e-09
  7.79573    149.1 1.263e+04 2.156e-09
  7.81540    149.3 1.335e+04 2.722e-09
  7.83506    149.3 1.435e+04 3.630e-09
  7.85472    148.9 1.524e+04 4.642e-09
  7.86942    147.9 1.634e+04 6.233e-09
  7.87921    147.4 1.707e+04 7.781e-09
  7.88904    147.0 1.764e+04 9.448e-09
  7.89887    146.9 1.812e+04 1.126e-08
  7.90800    146.9 1.858e+04 1.352e-08
  7.91292    146.3 1.919e+04 1.821e-08
  7.91854    146.3 1.951e+04 2.225e-08
  7.92837    146.4 1.977e+04 2.617e-08
  7.93820    146.7 1.977e+04 2.864e-08
  7.94803    147.1 1.967e+04 2.911e-08
  7.95787    148.0 1.950e+04 2.783e-08
  7.96770    148.9 1.936e+04 2.472e-08
  7.97753    149.9 1.927e+04 1.990e-08
  7.98736    150.4 1.928e+04 1.474e-08
  7.99441    150.6 1.928e+04 9.754e-09
  7.99933    150.4 1.906e+04 8.706e-09
  8.01199    150.3 1.952e+04 6.731e-09
  8.03170    147.9 1.918e+04 1.935e-09
  8.05137    144.0 1.727e+04 7.053e-10
  8.07103    140.4 1.370e+04 4.479e-10
  8.09070    138.1 1.052e+04 4.094e-10
  8.11036    138.7 1.036e+04 4.091e-10
  8.13003    139.6 1.030e+04 4.132e-10
  8.14969    140.7 1.022e+04 4.232e-10
  8.16936    141.6 1.021e+04 4.382e-10
  8.18902    142.7 1.025e+04 4.538e-10
  8.20868    143.6 1.029e+04 4.693e-10
  8.22835    144.6 1.034e+04 4.846e-10
  8.24393    145.5 1.040e+04 4.920e-10
  8.25376    145.7 1.040e+04 4.934e-10
  8.27761    147.1 1.042e+04 5.009e-10
  8.31703    148.7 1.038e+04 4.851e-10
  8.35636    150.3 1.025e+04 4.283e-10
  8.39569    151.7 1.002e+04 3.444e-10
  8.41695    153.0 9.747e+03 2.700e-10
  8.43662    152.6 9.509e+03 2.266e-10
  8.47435    153.7 9.354e+03 1.918e-10
  8.51368    154.9 9.381e+03 1.935e-10
  8.55301    155.9 9.545e+03 2.116e-10
  8.57986    156.2 9.590e+03 2.225e-10
  8.58959    156.1 9.597e+03 2.216e-10
  8.60197    156.6 9.642e+03 2.316e-10
  8.62164    157.1 9.709e+03 2.476e-10
  8.64130    157.0 9.951e+03 2.813e-10
  8.66097    155.6 1.186e+04 4.480e-10
  8.68063    151.2 1.606e+04 1.193e-09
  8.69533    149.3 1.729e+04 1.702e-09
  8.70511    146.6 1.964e+04 2.949e-09
  8.71494    143.6 2.121e+04 5.777e-09
  8.72478    141.5 2.131e+04 1.340e-08
  8.73461    141.6 2.093e+04 2.859e-08
  8.74444    142.3 2.087e+04 4.961e-08
  8.75249    142.4 2.133e+04 6.353e-08
  8.75741    142.2 2.142e+04 5.572e-08
  8.76411    141.9 2.133e+04 5.783e-08
  8.77394    141.9 2.117e+04 5.264e-08
  8.78377    141.9 2.096e+04 3.931e-08
  8.79857    141.2 2.064e+04 1.993e-08
  8.81828    139.4 2.011e+04 6.847e-09
  8.83795    136.0 1.772e+04 1.982e-09
  8.85761    132.5 1.373e+04 8.799e-10
  8.87727    131.1 1.189e+04 6.772e-10
  8.90687    132.7 1.083e+04 5.489e-10
  8.94629    133.2 9.912e+03 3.752e-10
  8.98562    134.6 9.913e+03 3.558e-10
  9.02495    136.9 9.912e+03 3.551e-10
  9.06428    139.1 9.895e+03 3.540e-10
  9.08861    141.1 9.887e+03 3.500e-10
  9.10828    143.5 9.875e+03 3.432e-10
  9.14294    145.6 9.876e+03 3.433e-10
  9.18227    147.5 9.907e+03 3.421e-10
  9.22160    149.2 9.991e+03 3.389e-10
  9.26093    150.9 1.011e+04 3.388e-10
  9.30025    152.2 1.042e+04 3.411e-10
  9.33958    152.6 1.078e+04 3.470e-10
  9.36898    153.2 1.075e+04 3.526e-10
  9.38855    154.3 1.076e+04 3.620e-10
  9.40821    155.0 1.086e+04 4.007e-10
  9.42425    155.3 1.114e+04 4.632e-10
  9.43408    157.7 1.127e+04 4.851e-10
  9.44754    157.7 1.155e+04 5.406e-10
  9.46721    157.4 1.177e+04 5.943e-10
  9.48687    156.9 1.193e+04 6.465e-10
  9.50653    156.2 1.214e+04 7.029e-10
  9.52620    155.2 1.227e+04 8.134e-10
  9.54586    153.7 1.262e+04 1.060e-09
  9.56553    151.0 1.377e+04 1.674e-09
  9.58519    146.8 1.599e+04 2.940e-09
  9.59708    142.9 1.778e+04 4.465e-09
  9.60691    147.4 1.726e+04 4.053e-09
  9.61956    144.6 1.843e+04 5.393e-09
  9.62934    142.2 1.950e+04 7.148e-09
  9.63917    139.8 2.030e+04 8.267e-09
  9.64900    137.4 2.025e+04 8.150e-09
  9.65884    135.1 1.979e+04 7.210e-09
  9.66867    133.2 1.873e+04 5.833e-09
  9.67848    131.3 1.761e+04 4.249e-09
  9.68831    131.0 1.731e+04 4.118e-09
  9.69898    128.9 1.640e+04 2.653e-09
  9.70886    126.7 1.576e+04 2.357e-09
  9.72284    121.3 1.434e+04 9.790e-10
  9.74251    114.4 1.214e+04 4.538e-10
  9.76008    109.7 1.076e+04 4.188e-10
  9.76991    111.8 1.169e+04 5.154e-10
  9.78184    108.1 1.115e+04 5.227e-10
  9.80150    106.3 1.113e+04 5.655e-10
  9.82117    105.2 1.130e+04 6.814e-10
  9.84083    104.3 1.156e+04 8.262e-10
  9.86049    103.3 1.178e+04 9.527e-10
  9.88016    102.2 1.195e+04 1.018e-09
  9.89982    100.9 1.208e+04 1.024e-09
  9.91949     99.3 1.219e+04 9.983e-10
  9.93291     97.2 1.228e+04 9.434e-10
  9.94274     96.4 1.246e+04 9.918e-10
  9.95882     93.3 1.240e+04 9.288e-10
  9.97848     90.0 1.242e+04 9.357e-10
  9.99815     86.7 1.257e+04 9.896e-10
 10.01781     84.1 1.277e+04 1.128e-09
 10.03747     82.4 1.272e+04 1.274e-09
 10.05714     81.6 1.263e+04 1.281e-09
 10.07680     81.1 1.239e+04 1.234e-09
 10.09591     80.8 1.209e+04 1.094e-09
 10.10574     79.9 1.197e+04 1.061e-09
 10.11613     79.6 1.161e+04 8.559e-10
 10.13580     79.1 1.127e+04 6.789e-10
 10.15546     78.5 1.098e+04 5.603e-10
 10.17512     77.7 1.079e+04 5.055e-10
 10.19479     77.3 1.075e+04 5.065e-10
 10.21445     76.9 1.080e+04 5.233e-10
 10.23412     76.6 1.090e+04 5.728e-10
 10.25378     76.2 1.104e+04 6.397e-10
 10.26874     75.7 1.122e+04 7.230e-10
 10.27857     75.6 1.105e+04 6.510e-10
 10.29311     74.9 1.123e+04 7.311e-10
 10.31278     74.0 1.152e+04 8.506e-10
 10.33244     72.9 1.197e+04 1.018e-09
 10.35210     71.6 1.244e+04 1.164e-09
 10.37177     70.3 1.250e+04 1.165e-09
 10.39143     69.1 1.232e+04 1.078e-09
