# Columns:
#   distance along LOS (in CHIMPs)
#   peculiar velocity  (in km/s)
#   temperature (K)
#   HI number density
# pos=(179.336,165.933,84.1551), angles=(1.12131,1.46459)
  0.00603   -105.9 1.035e+04 5.500e-10
  0.02330   -105.3 1.033e+04 5.495e-10
  0.04511   -106.6 1.073e+04 7.379e-10
  0.07749   -106.8 1.072e+04 7.283e-10
  0.11186   -107.6 1.084e+04 7.418e-10
  0.13367   -109.0 1.107e+04 9.069e-10
  0.15372   -110.6 1.110e+04 9.991e-10
  0.16686   -113.7 1.213e+04 1.298e-09
  0.17776   -113.8 1.207e+04 1.380e-09
  0.19724   -117.2 1.296e+04 1.848e-09
  0.21114   -121.0 1.417e+04 2.513e-09
  0.22204   -119.6 1.356e+04 2.330e-09
  0.24086   -123.2 1.442e+04 2.900e-09
  0.25542   -126.6 1.504e+04 3.505e-09
  0.26370   -124.6 1.491e+04 2.998e-09
  0.27094   -127.9 1.601e+04 4.250e-09
  0.28447   -130.4 1.603e+04 4.821e-09
  0.29971   -132.0 1.590e+04 5.188e-09
  0.31061   -130.3 1.594e+04 5.362e-09
  0.32809   -131.6 1.617e+04 6.016e-09
  0.34399   -132.7 1.647e+04 6.338e-09
  0.35489   -132.0 1.714e+04 7.875e-09
  0.37171   -133.0 1.759e+04 8.512e-09
  0.38827   -134.3 1.785e+04 8.991e-09
  0.39918   -133.2 1.876e+04 1.206e-08
  0.41532   -134.5 1.884e+04 1.206e-08
  0.43256   -135.7 1.842e+04 1.082e-08
  0.44346   -134.5 1.922e+04 1.423e-08
  0.45894   -135.3 1.862e+04 1.140e-08
  0.47136   -136.0 1.784e+04 9.040e-09
  0.47836   -136.5 1.578e+04 3.990e-09
  0.48774   -135.9 1.668e+04 4.660e-09
  0.50256   -136.6 1.572e+04 3.376e-09
  0.52112   -137.1 1.478e+04 2.481e-09
  0.53203   -137.1 1.528e+04 3.103e-09
  0.54617   -137.2 1.433e+04 2.274e-09
  0.56541   -137.1 1.343e+04 1.630e-09
  0.57631   -136.7 1.394e+04 2.310e-09
  0.58979   -136.4 1.314e+04 1.653e-09
  0.60969   -135.8 1.236e+04 1.169e-09
  0.62059   -135.1 1.305e+04 1.793e-09
  0.63340   -134.4 1.241e+04 1.303e-09
  0.65397   -133.8 1.179e+04 9.627e-10
  0.66488   -133.0 1.272e+04 1.545e-09
  0.67178   -132.3 1.219e+04 1.186e-09
  0.68269   -132.9 1.155e+04 8.261e-10
  0.69826   -132.2 1.103e+04 6.857e-10
  0.70916   -131.4 1.218e+04 1.152e-09
  0.72064   -130.6 1.177e+04 9.642e-10
  0.74244   -129.9 1.140e+04 8.397e-10
  0.76425   -128.6 1.227e+04 1.227e-09
  0.78606   -128.0 1.203e+04 1.113e-09
  0.79773   -127.6 1.182e+04 1.033e-09
  0.80863   -127.1 1.292e+04 1.655e-09
  0.82968   -126.9 1.267e+04 1.493e-09
  0.84201   -126.6 1.240e+04 1.345e-09
  0.85291   -125.8 1.343e+04 2.096e-09
  0.87220   -125.8 1.304e+04 1.777e-09
  0.88311   -126.8 1.244e+04 1.469e-09
  0.88629   -126.7 1.199e+04 1.227e-09
  0.89720   -126.0 1.263e+04 1.618e-09
  0.91691   -126.1 1.199e+04 1.258e-09
  0.93058   -126.1 1.138e+04 9.859e-10
  0.94148   -125.5 1.165e+04 1.140e-09
  0.96053   -125.6 1.102e+04 8.875e-10
  0.97486   -125.5 1.057e+04 7.281e-10
  0.98576   -125.0 1.065e+04 7.865e-10
  1.00414   -124.8 1.032e+04 6.688e-10
  1.01914   -124.6 1.011e+04 5.926e-10
  1.03005   -123.9 1.011e+04 6.062e-10
  1.04776   -123.6 9.996e+03 5.499e-10
  1.06343   -123.4 9.931e+03 5.026e-10
  1.07433   -122.6 9.934e+03 5.077e-10
  1.08353   -122.5 9.906e+03 4.630e-10
  1.09443   -123.3 9.827e+03 4.005e-10
  1.10771   -123.6 9.817e+03 3.760e-10
  1.11861   -122.8 9.791e+03 3.796e-10
  1.13499   -122.9 9.719e+03 3.594e-10
  1.16780   -123.2 9.685e+03 3.623e-10
  1.19647   -123.1 9.643e+03 3.565e-10
  1.20728   -121.5 9.631e+03 3.616e-10
  1.22222   -121.3 9.588e+03 3.561e-10
  1.24056   -121.1 9.497e+03 3.429e-10
  1.25146   -120.7 9.569e+03 3.613e-10
  1.26584   -120.5 9.510e+03 3.469e-10
  1.28395   -120.4 9.407e+03 3.261e-10
  1.29205   -122.0 9.547e+03 3.796e-10
  1.29575   -121.9 9.730e+03 4.473e-10
  1.30946   -122.1 9.746e+03 4.435e-10
  1.32913   -122.9 1.012e+04 4.524e-10
  1.34003   -123.4 1.054e+04 5.756e-10
  1.35307   -124.9 1.104e+04 6.899e-10
  1.37341   -126.3 1.138e+04 8.712e-10
  1.38431   -126.6 1.188e+04 1.179e-09
  1.39669   -127.6 1.210e+04 1.443e-09
  1.41769   -128.2 1.225e+04 1.672e-09
  1.42860   -128.7 1.302e+04 2.198e-09
  1.44031   -129.2 1.301e+04 2.273e-09
  1.46198   -129.6 1.293e+04 2.278e-09
  1.47288   -130.0 1.321e+04 2.587e-09
  1.48392   -130.3 1.273e+04 2.220e-09
  1.49527   -130.5 1.228e+04 1.885e-09
  1.50618   -133.4 1.239e+04 1.800e-09
  1.51716   -133.9 1.214e+04 1.606e-09
  1.52807   -134.4 1.236e+04 1.665e-09
  1.54935   -134.7 1.218e+04 1.536e-09
  1.56145   -134.8 1.200e+04 1.461e-09
  1.57235   -135.4 1.200e+04 1.467e-09
  1.59296   -135.3 1.172e+04 1.402e-09
  1.60573   -134.9 1.148e+04 1.353e-09
  1.61664   -135.0 1.130e+04 1.312e-09
  1.63658   -134.4 1.120e+04 1.292e-09
  1.65001   -133.8 1.119e+04 1.290e-09
  1.66092   -133.7 1.108e+04 1.231e-09
  1.68020   -133.4 1.128e+04 1.273e-09
  1.69430   -133.4 1.171e+04 1.396e-09
  1.69889   -133.7 1.176e+04 1.312e-09
  1.70660   -136.2 1.241e+04 1.682e-09
  1.72381   -136.5 1.254e+04 1.849e-09
  1.73858   -136.8 1.254e+04 1.996e-09
  1.74949   -137.4 1.223e+04 1.784e-09
  1.76743   -137.4 1.212e+04 1.836e-09
  1.78286   -137.2 1.206e+04 1.847e-09
  1.79377   -137.7 1.185e+04 1.696e-09
  1.81104   -137.4 1.177e+04 1.674e-09
  1.82715   -137.1 1.168e+04 1.608e-09
  1.83805   -137.6 1.156e+04 1.505e-09
  1.85466   -137.5 1.147e+04 1.423e-09
  1.87143   -137.5 1.134e+04 1.319e-09
  1.88234   -138.2 1.134e+04 1.291e-09
  1.89611   -138.1 1.119e+04 1.199e-09
  1.90702   -139.5 1.109e+04 1.144e-09
  1.91571   -139.3 1.090e+04 1.058e-09
  1.92672   -140.5 1.081e+04 1.036e-09
  1.95299   -139.6 1.052e+04 9.124e-10
  1.99357   -138.4 1.033e+04 8.461e-10
  2.01528   -137.4 1.008e+04 7.556e-10
  2.02913   -136.7 1.007e+04 7.518e-10
  2.04856   -136.2 1.007e+04 7.519e-10
  2.05947   -136.1 9.772e+03 6.233e-10
  2.07274   -135.6 9.877e+03 6.531e-10
  2.09285   -135.2 1.006e+04 7.152e-10
  2.10375   -135.3 9.872e+03 6.059e-10
  2.10744   -134.9 1.009e+04 6.869e-10
  2.11834   -135.5 1.038e+04 8.086e-10
  2.13713   -135.0 1.058e+04 8.937e-10
  2.14804   -135.3 1.057e+04 8.683e-10
  2.15998   -134.8 1.076e+04 9.713e-10
  2.18141   -134.4 1.095e+04 1.070e-09
  2.19242   -134.6 1.057e+04 8.444e-10
  2.21469   -133.6 1.091e+04 1.020e-09
  2.25831   -133.1 1.101e+04 1.068e-09
  2.28108   -132.7 1.096e+04 1.039e-09
  2.29811   -131.6 1.064e+04 9.033e-10
  2.31896   -131.5 1.100e+04 1.123e-09
  2.34554   -130.9 1.062e+04 8.854e-10
  2.36965   -130.8 1.008e+04 6.419e-10
  2.39146   -129.2 1.002e+04 6.355e-10
  2.43277   -129.6 9.624e+03 4.933e-10
  2.45812   -129.5 9.318e+03 4.129e-10
  2.46892   -128.6 9.478e+03 4.491e-10
  2.48710   -128.7 9.379e+03 4.214e-10
  2.50230   -128.9 9.311e+03 4.042e-10
  2.51258   -127.8 9.592e+03 4.634e-10
  2.51918   -127.4 9.697e+03 5.040e-10
  2.53071   -127.5 9.681e+03 4.957e-10
  2.54659   -127.7 9.681e+03 4.945e-10
  2.55749   -126.5 9.925e+03 5.584e-10
  2.57433   -127.0 9.957e+03 5.638e-10
  2.59087   -127.8 1.014e+04 6.231e-10
  2.60177   -127.6 1.112e+04 8.039e-10
  2.61795   -129.0 1.145e+04 9.811e-10
  2.63515   -130.1 1.162e+04 1.178e-09
  2.64606   -131.3 1.398e+04 2.364e-09
  2.66156   -131.9 1.390e+04 2.424e-09
  2.67944   -132.1 1.334e+04 2.439e-09
  2.69034   -131.9 1.588e+04 5.294e-09
  2.70518   -131.3 1.468e+04 3.923e-09
  2.71960   -131.0 1.343e+04 2.729e-09
  2.72724   -130.4 1.390e+04 3.193e-09
  2.73462   -129.6 1.526e+04 4.696e-09
  2.74880   -129.3 1.396e+04 3.080e-09
  2.76800   -129.4 1.292e+04 2.124e-09
  2.77891   -128.8 1.408e+04 2.830e-09
  2.79241   -129.4 1.301e+04 1.967e-09
  2.81229   -130.3 1.234e+04 1.591e-09
  2.82319   -129.6 1.288e+04 1.877e-09
  2.83603   -130.6 1.259e+04 1.731e-09
  2.85657   -131.8 1.258e+04 1.727e-09
  2.86747   -131.2 1.304e+04 2.054e-09
  2.87964   -133.4 1.370e+04 2.479e-09
  2.90085   -135.4 1.476e+04 3.698e-09
  2.91176   -135.8 1.562e+04 4.710e-09
  2.92002   -137.7 1.619e+04 6.463e-09
  2.93092   -138.3 1.629e+04 6.073e-09
  2.94507   -140.2 1.631e+04 6.837e-09
  2.96688   -142.0 1.688e+04 1.006e-08
  2.98869   -142.3 1.591e+04 8.411e-09
  3.00032   -141.8 1.473e+04 5.750e-09
  3.01123   -141.3 1.473e+04 5.704e-09
  3.03230   -140.6 1.345e+04 3.573e-09
  3.04461   -140.4 1.243e+04 2.333e-09
  3.05551   -140.7 1.267e+04 2.298e-09
  3.07592   -140.6 1.168e+04 1.481e-09
  3.08889   -140.4 1.098e+04 1.058e-09
  3.09979   -141.4 1.113e+04 1.100e-09
  3.11953   -140.7 1.067e+04 8.553e-10
  3.13134   -139.8 1.031e+04 6.795e-10
  3.13408   -139.9 1.048e+04 7.985e-10
  3.14408   -140.8 1.081e+04 9.393e-10
  3.16315   -139.6 1.048e+04 7.929e-10
  3.17746   -138.3 1.018e+04 6.595e-10
  3.18836   -138.7 1.082e+04 9.525e-10
  3.20677   -137.2 1.052e+04 7.978e-10
  3.22174   -135.8 1.024e+04 6.628e-10
  3.23264   -135.9 1.100e+04 1.040e-09
  3.25038   -134.4 1.087e+04 9.167e-10
  3.26602   -133.2 1.095e+04 8.531e-10
  3.27693   -135.3 1.329e+04 2.130e-09
  3.29400   -135.3 1.437e+04 2.720e-09
  3.31031   -135.4 1.587e+04 3.765e-09
  3.32116   -135.5 1.699e+04 6.759e-09
  3.33167   -135.2 1.761e+04 8.154e-09
  3.34262   -134.3 1.683e+04 7.174e-09
  3.35459   -133.9 1.828e+04 1.081e-08
  3.36549   -133.6 1.850e+04 1.235e-08
  3.37573   -133.5 1.952e+04 2.156e-08
  3.38209   -133.4 1.964e+04 2.682e-08
  3.38754   -133.0 1.964e+04 2.691e-08
  3.39749   -132.6 1.958e+04 3.454e-08
  3.40423   -132.0 1.949e+04 4.320e-08
  3.40968   -131.5 1.952e+04 3.832e-08
  3.41930   -130.9 1.959e+04 4.708e-08
  3.42637   -130.6 1.969e+04 5.345e-08
  3.43182   -130.4 1.965e+04 3.776e-08
  3.43733   -130.2 1.953e+04 4.056e-08
  3.44278   -130.0 1.966e+04 3.438e-08
  3.44851   -129.6 1.948e+04 3.698e-08
  3.45401   -130.2 1.989e+04 1.539e-08
  3.46296   -129.9 1.971e+04 2.384e-08
  3.47065   -129.6 1.962e+04 2.647e-08
  3.47610   -129.8 1.997e+04 1.476e-08
  3.48472   -129.3 1.996e+04 1.649e-08
  3.49279   -128.8 1.991e+04 2.001e-08
  3.49830   -130.5 2.074e+04 5.358e-09
  3.51208   -129.7 2.084e+04 7.465e-09
  3.53172   -129.3 2.098e+04 9.780e-09
  3.54092   -132.8 1.823e+04 1.417e-09
  3.54309   -131.1 2.083e+04 1.782e-09
  3.55570   -130.5 2.219e+04 2.305e-09
  3.57601   -130.5 2.217e+04 2.938e-09
  3.58691   -134.9 1.173e+04 8.480e-10
  3.59931   -134.9 1.236e+04 8.953e-10
  3.62029   -134.9 1.293e+04 9.753e-10
  3.63119   -134.5 1.016e+04 6.359e-10
  3.64293   -134.4 1.021e+04 6.390e-10
  3.66457   -134.2 1.049e+04 6.526e-10
  3.67548   -133.1 9.957e+03 5.499e-10
  3.68655   -132.8 9.986e+03 5.502e-10
  3.70835   -132.6 1.024e+04 5.696e-10
  3.71976   -132.5 1.112e+04 6.984e-10
  3.73066   -131.0 9.810e+03 4.943e-10
  3.74351   -130.9 1.038e+04 5.767e-10
  3.75441   -130.9 1.071e+04 7.340e-10
  3.76404   -130.8 1.154e+04 1.002e-09
  3.77495   -129.3 1.059e+04 7.364e-10
  3.79559   -129.1 1.116e+04 9.285e-10
  3.80833   -128.7 1.161e+04 1.171e-09
  3.83023   -126.2 1.058e+04 7.509e-10
  3.85271   -125.8 1.128e+04 1.112e-09
  3.86351   -124.7 1.084e+04 8.943e-10
  3.88282   -124.5 1.104e+04 9.906e-10
  3.89689   -124.1 1.116e+04 1.066e-09
  3.91880   -122.0 1.061e+04 8.475e-10
  3.94412   -121.1 1.081e+04 9.740e-10
  3.96593   -121.6 1.124e+04 1.276e-09
  3.98566   -121.1 1.144e+04 1.419e-09
  4.00746   -118.6 1.118e+04 1.212e-09
  4.04658   -118.5 1.153e+04 1.444e-09
  4.07422   -118.6 1.184e+04 1.544e-09
  4.09603   -116.6 1.209e+04 1.671e-09
  4.11841   -117.3 1.215e+04 1.720e-09
  4.12921   -116.7 1.249e+04 1.906e-09
  4.14435   -117.3 1.260e+04 1.961e-09
  4.15525   -118.2 1.273e+04 1.912e-09
  4.16259   -118.9 1.291e+04 1.911e-09
  4.17350   -119.4 1.350e+04 2.336e-09
  4.18813   -120.5 1.350e+04 2.350e-09
  4.20688   -121.1 1.321e+04 2.323e-09
  4.21778   -121.1 1.342e+04 2.746e-09
  4.23175   -121.2 1.275e+04 2.352e-09
  4.25116   -120.9 1.202e+04 1.872e-09
  4.26206   -120.2 1.194e+04 1.751e-09
  4.27537   -119.4 1.118e+04 1.225e-09
  4.29544   -118.6 1.062e+04 8.320e-10
  4.30635   -118.4 1.045e+04 6.074e-10
  4.31898   -118.5 9.956e+03 3.859e-10
  4.33973   -118.6 9.511e+03 2.797e-10
  4.35471   -118.8 8.999e+03 1.899e-10
  4.36677   -121.3 8.511e+03 1.488e-10
  4.39551   -119.7 8.141e+03 1.115e-10
  4.42849   -117.8 7.985e+03 9.409e-11
  4.45030   -117.7 7.960e+03 9.527e-11
  4.48274   -116.0 7.958e+03 9.341e-11
  4.51706   -114.7 8.023e+03 9.448e-11
  4.53886   -114.8 8.204e+03 1.213e-10
  4.56997   -113.7 8.524e+03 1.648e-10
  4.60562   -112.7 8.841e+03 2.314e-10
  4.62743   -112.4 9.204e+03 3.062e-10
  4.65721   -111.5 9.512e+03 3.786e-10
  4.69419   -110.8 9.847e+03 4.654e-10
  4.71590   -111.3 1.010e+04 5.522e-10
  4.73334   -111.1 1.030e+04 6.280e-10
  4.74918   -111.0 1.047e+04 6.907e-10
  4.76009   -111.3 1.050e+04 7.125e-10
  4.76742   -111.1 1.063e+04 7.548e-10
  4.77832   -111.2 1.086e+04 8.629e-10
  4.79346   -111.0 1.100e+04 8.994e-10
  4.80437   -111.1 1.087e+04 8.477e-10
  4.82057   -111.0 1.090e+04 8.466e-10
  4.83775   -110.9 1.093e+04 8.160e-10
  4.84865   -110.8 1.073e+04 7.215e-10
  4.86419   -110.6 1.072e+04 6.738e-10
  4.88203   -110.5 1.071e+04 6.268e-10
  4.89294   -110.6 1.052e+04 5.482e-10
  4.90780   -110.5 1.049e+04 5.058e-10
  4.92631   -110.4 1.047e+04 4.699e-10
  4.93722   -110.6 1.027e+04 4.084e-10
  4.95142   -110.6 1.030e+04 3.944e-10
  4.96784   -110.4 1.033e+04 3.933e-10
  4.97611   -110.3 1.039e+04 4.180e-10
  4.98160   -110.6 1.012e+04 3.569e-10
  5.00614   -110.1 1.019e+04 3.431e-10
  5.04846   -109.5 1.026e+04 3.458e-10
  5.07026   -109.8 9.823e+03 2.509e-10
  5.09337   -109.4 9.842e+03 2.485e-10
  5.13698   -108.9 9.980e+03 2.552e-10
  5.16845   -109.1 9.938e+03 2.564e-10
  5.19026   -109.6 1.017e+04 2.994e-10
  5.22422   -109.1 1.029e+04 3.553e-10
  5.24740   -108.4 1.042e+04 4.303e-10
  5.26921   -109.0 1.027e+04 4.148e-10
  5.31145   -108.2 1.043e+04 4.981e-10
  5.33596   -107.5 1.058e+04 5.737e-10
  5.35777   -108.1 1.037e+04 4.938e-10
  5.39868   -107.7 1.039e+04 5.117e-10
  5.42453   -107.4 1.033e+04 5.107e-10
  5.44634   -108.1 1.020e+04 4.716e-10
  5.48592   -107.7 1.005e+04 4.684e-10
  5.51310   -107.1 9.975e+03 4.503e-10
  5.53491   -107.8 1.003e+04 4.861e-10
  5.56929   -107.3 1.003e+04 4.858e-10
  5.59110   -107.4 1.053e+04 6.217e-10
  5.60166   -106.8 1.060e+04 6.769e-10
  5.62347   -108.2 1.056e+04 6.423e-10
  5.66038   -107.6 1.064e+04 6.752e-10
  5.69023   -107.0 1.074e+04 7.066e-10
  5.71204   -109.1 1.052e+04 6.227e-10
  5.74761   -108.4 1.038e+04 5.868e-10
  5.77880   -107.5 1.032e+04 5.381e-10
  5.80061   -109.0 1.006e+04 3.943e-10
  5.82298   -108.2 1.026e+04 4.250e-10
  5.83379   -109.8 1.032e+04 3.323e-10
  5.84555   -109.9 1.038e+04 3.220e-10
  5.86717   -110.1 1.045e+04 3.199e-10
  5.88908   -112.6 1.004e+04 3.188e-10
  5.92208   -113.3 1.074e+04 4.512e-10
  5.95469   -116.5 1.234e+04 9.666e-10
  5.96664   -116.8 1.292e+04 1.275e-09
  5.97754   -119.6 1.405e+04 2.168e-09
  5.99175   -120.0 1.452e+04 3.094e-09
  6.00265   -122.0 1.556e+04 5.944e-09
  6.01092   -122.1 1.567e+04 7.045e-09
  6.02183   -122.2 1.538e+04 6.536e-09
  6.04183   -122.1 1.553e+04 6.485e-09
  6.05521   -122.6 1.584e+04 6.053e-09
  6.06611   -124.8 1.595e+04 4.361e-09
  6.08544   -129.5 1.759e+04 3.913e-09
  6.09949   -137.5 1.857e+04 3.642e-09
  6.11039   -143.4 1.678e+04 3.096e-09
  6.12906   -150.0 1.609e+04 3.763e-09
  6.14377   -154.6 1.566e+04 4.822e-09
  6.15468   -154.8 1.548e+04 4.461e-09
  6.17268   -158.0 1.551e+04 4.553e-09
  6.18806   -161.2 1.543e+04 4.168e-09
  6.19664   -162.3 1.458e+04 2.846e-09
  6.20307   -162.5 1.415e+04 2.687e-09
  6.21629   -165.7 1.368e+04 2.168e-09
  6.23234   -168.8 1.305e+04 1.672e-09
  6.24324   -169.1 1.224e+04 1.209e-09
  6.25991   -171.4 1.180e+04 9.809e-10
  6.27662   -173.1 1.143e+04 8.484e-10
  6.28753   -172.7 1.113e+04 6.754e-10
  6.30353   -173.8 1.083e+04 6.226e-10
  6.32091   -174.6 1.060e+04 5.939e-10
  6.33181   -173.7 1.032e+04 4.790e-10
  6.34714   -174.0 1.019e+04 4.696e-10
  6.36519   -174.1 1.012e+04 4.683e-10
  6.37609   -173.0 9.902e+03 3.832e-10
  6.39076   -173.0 9.878e+03 3.837e-10
  6.40349   -172.9 9.863e+03 3.861e-10
  6.41130   -172.7 9.872e+03 3.873e-10
  6.42048   -171.4 9.773e+03 3.212e-10
  6.44547   -171.1 9.768e+03 3.207e-10
  6.48733   -170.6 9.719e+03 3.289e-10
  6.50914   -168.6 9.285e+03 2.520e-10
  6.53271   -167.5 9.279e+03 2.650e-10
  6.57590   -166.2 9.389e+03 3.177e-10
  6.59771   -164.2 9.035e+03 2.453e-10
  6.61994   -162.8 9.174e+03 2.885e-10
  6.66356   -161.3 9.273e+03 3.390e-10
  6.68627   -159.7 9.307e+03 3.765e-10
  6.70808   -157.8 8.936e+03 2.695e-10
  6.75079   -156.2 8.921e+03 2.901e-10
  6.77484   -154.5 8.906e+03 2.947e-10
  6.79587   -153.0 8.665e+03 2.190e-10
  6.81543   -153.1 8.504e+03 1.978e-10
  6.83802   -151.3 8.479e+03 2.001e-10
  6.86341   -149.4 8.339e+03 1.999e-10
  6.88521   -147.9 8.270e+03 1.624e-10
  6.92525   -145.9 8.118e+03 1.567e-10
  6.95197   -143.9 7.987e+03 1.449e-10
  6.97378   -142.4 7.939e+03 1.290e-10
  7.01249   -140.4 7.870e+03 1.207e-10
  7.04054   -138.5 7.818e+03 1.151e-10
  7.06235   -137.1 7.833e+03 1.146e-10
  7.09972   -135.2 7.811e+03 1.128e-10
  7.12911   -133.3 7.805e+03 1.123e-10
  7.15091   -132.3 7.920e+03 1.205e-10
  7.18695   -130.6 7.946e+03 1.270e-10
  7.21627   -128.8 7.976e+03 1.366e-10
  7.22518   -128.8 7.883e+03 1.224e-10
  7.23948   -127.9 8.032e+03 1.535e-10
  7.27418   -126.0 8.026e+03 1.589e-10
  7.30624   -124.0 8.021e+03 1.637e-10
  7.32805   -122.9 8.120e+03 1.854e-10
  7.36142   -120.9 8.088e+03 1.790e-10
  7.39481   -118.8 8.060e+03 1.738e-10
  7.41661   -117.8 8.059e+03 1.681e-10
  7.44865   -115.7 8.063e+03 1.646e-10
  7.48337   -113.8 8.078e+03 1.628e-10
  7.50518   -113.3 8.212e+03 1.646e-10
  7.53588   -111.7 8.316e+03 1.813e-10
  7.57194   -110.3 8.437e+03 2.032e-10
  7.59375   -110.1 8.821e+03 2.931e-10
  7.61711   -108.6 8.962e+03 3.460e-10
  7.63892   -108.6 8.863e+03 3.225e-10
  7.66051   -106.9 8.912e+03 3.470e-10
  7.68231   -106.3 9.107e+03 4.093e-10
  7.71035   -104.6 9.047e+03 3.915e-10
  7.74907   -102.9 9.039e+03 3.742e-10
  7.77088   -102.3 8.942e+03 3.438e-10
  7.79758   -100.8 8.940e+03 3.298e-10
  7.83764    -99.5 8.951e+03 3.267e-10
  7.85945    -98.8 8.885e+03 2.989e-10
  7.88481    -97.5 9.009e+03 3.182e-10
  7.92621    -96.3 9.137e+03 3.440e-10
  7.94801    -95.2 9.139e+03 3.455e-10
  7.97205    -93.9 9.297e+03 3.822e-10
  8.01477    -92.8 9.486e+03 4.227e-10
  8.03658    -91.5 9.534e+03 4.422e-10
  8.03976    -90.3 9.718e+03 4.746e-10
  8.06157    -89.5 9.450e+03 4.237e-10
  8.10289    -88.3 9.609e+03 4.668e-10
  8.12515    -87.2 9.727e+03 4.826e-10
  8.14696    -85.8 9.688e+03 4.737e-10
  8.19013    -84.7 9.703e+03 4.686e-10
  8.21371    -83.4 9.568e+03 4.030e-10
  8.23552    -81.9 9.560e+03 4.039e-10
  8.27736    -80.5 9.379e+03 3.342e-10
  8.30228    -79.1 9.231e+03 2.806e-10
  8.32409    -77.8 9.269e+03 2.873e-10
  8.36459    -76.3 9.171e+03 2.499e-10
  8.39085    -74.7 9.128e+03 2.286e-10
  8.41266    -73.6 9.148e+03 2.325e-10
  8.44060    -71.9 9.130e+03 2.193e-10
  8.46241    -71.8 8.985e+03 1.915e-10
  8.47941    -70.2 8.986e+03 1.835e-10
  8.50122    -69.2 9.031e+03 1.924e-10
  8.53906    -67.5 9.028e+03 1.894e-10
  8.56798    -65.8 9.116e+03 1.959e-10
  8.58979    -64.9 9.222e+03 2.312e-10
  8.62629    -63.3 9.423e+03 2.721e-10
  8.65655    -61.7 9.652e+03 3.367e-10
  8.67836    -60.7 9.948e+03 4.362e-10
  8.71352    -59.1 1.019e+04 5.167e-10
  8.74511    -57.7 1.039e+04 5.734e-10
  8.76692    -56.9 1.053e+04 6.179e-10
  8.80076    -55.8 1.070e+04 6.532e-10
  8.83368    -55.0 1.086e+04 6.749e-10
  8.85256    -54.1 1.091e+04 6.836e-10
  8.86325    -54.2 1.134e+04 9.779e-10
  8.88799    -53.7 1.163e+04 1.115e-09
  8.92225    -53.4 1.181e+04 1.195e-09
  8.94406    -52.3 1.185e+04 1.213e-09
  8.97522    -52.1 1.190e+04 1.236e-09
  9.01081    -51.8 1.174e+04 1.101e-09
  9.03262    -50.5 1.173e+04 1.083e-09
  9.06245    -49.9 1.136e+04 7.900e-10
  9.09938    -49.0 1.088e+04 5.114e-10
  9.12119    -47.7 1.095e+04 5.192e-10
  9.14969    -46.8 1.050e+04 3.258e-10
  9.18795    -45.8 1.015e+04 2.134e-10
  9.20976    -44.6 1.023e+04 2.268e-10
  9.23692    -43.4 9.982e+03 1.690e-10
  9.26409    -42.1 9.900e+03 1.555e-10
  9.28188    -42.0 9.818e+03 1.325e-10
  9.29832    -40.7 9.855e+03 1.287e-10
