# Columns:
#   distance along LOS (in CHIMPs)
#   peculiar velocity  (in km/s)
#   temperature (K)
#   HI number density
# pos=(147.501,54.0754,168.564), angles=(2.96844,2.01375)
  0.00074    -23.3 9.724e+03 1.579e-10
  0.00602    -22.9 9.932e+03 2.079e-10
  0.03039    -21.5 1.001e+04 2.445e-10
  0.07004    -20.1 1.013e+04 2.942e-10
  0.10970    -18.7 1.026e+04 3.566e-10
  0.14936    -17.5 1.039e+04 4.230e-10
  0.17241    -16.4 1.045e+04 4.686e-10
  0.19223    -16.9 1.042e+04 4.466e-10
  0.22867    -15.8 1.034e+04 4.370e-10
  0.26832    -14.8 1.022e+04 4.056e-10
  0.30798    -13.8 1.016e+04 3.712e-10
  0.34763    -12.7 1.020e+04 3.539e-10
  0.37728    -11.8 1.018e+04 3.497e-10
  0.39701    -12.0 1.040e+04 3.604e-10
  0.41665    -13.7 1.150e+04 5.241e-10
  0.42657    -14.1 1.192e+04 5.437e-10
  0.43666    -18.1 1.376e+04 1.216e-09
  0.45649    -19.9 1.479e+04 2.772e-09
  0.47632    -20.2 1.551e+04 4.895e-09
  0.49615    -19.6 1.609e+04 6.362e-09
  0.51597    -19.6 1.639e+04 6.664e-09
  0.52808    -22.2 1.748e+04 6.678e-09
  0.53800    -24.1 1.920e+04 9.654e-09
  0.54879    -33.3 2.261e+04 1.069e-08
  0.55870    -37.3 2.400e+04 1.540e-08
  0.57045    -44.0 2.402e+04 2.329e-08
  0.58032    -47.2 2.321e+04 4.138e-08
  0.59023    -49.0 2.274e+04 6.416e-08
  0.60014    -49.9 2.250e+04 7.837e-08
  0.60980    -50.4 2.234e+04 8.071e-08
  0.61476    -50.8 2.204e+04 6.444e-08
  0.61997    -50.6 2.170e+04 4.255e-08
  0.62988    -51.1 2.147e+04 2.220e-08
  0.63980    -53.7 2.080e+04 1.179e-08
  0.65472    -56.4 1.991e+04 7.329e-09
  0.67101    -62.6 1.672e+04 2.527e-09
  0.68092    -68.4 1.325e+04 1.121e-09
  0.69442    -71.9 1.130e+04 8.317e-10
  0.71425    -72.4 1.111e+04 8.429e-10
  0.73408    -72.3 1.147e+04 1.003e-09
  0.75391    -71.9 1.184e+04 1.169e-09
  0.78375    -71.7 1.222e+04 1.341e-09
  0.81349    -71.8 1.266e+04 1.655e-09
  0.83322    -71.9 1.293e+04 1.886e-09
  0.85304    -72.1 1.335e+04 2.299e-09
  0.87287    -72.3 1.379e+04 2.731e-09
  0.89270    -72.6 1.415e+04 3.138e-09
  0.91253    -72.9 1.438e+04 3.380e-09
  0.92536    -73.5 1.444e+04 3.434e-09
  0.93528    -73.8 1.445e+04 3.444e-09
  0.95218    -74.6 1.451e+04 3.450e-09
  0.97201    -75.8 1.454e+04 3.313e-09
  0.99184    -77.7 1.482e+04 3.265e-09
  1.01167    -79.9 1.524e+04 3.445e-09
  1.03149    -81.9 1.557e+04 3.744e-09
  1.04758    -83.5 1.580e+04 4.092e-09
  1.05646    -85.2 1.702e+04 6.182e-09
  1.06015    -86.1 1.795e+04 8.593e-09
  1.07110    -87.0 1.814e+04 9.903e-09
  1.09098    -87.5 1.757e+04 8.979e-09
  1.11081    -88.0 1.721e+04 7.917e-09
  1.13063    -88.8 1.689e+04 6.861e-09
  1.15046    -89.7 1.662e+04 5.892e-09
  1.16980    -90.7 1.642e+04 5.327e-09
  1.17972    -91.8 1.629e+04 3.899e-09
  1.19012    -93.0 1.602e+04 3.221e-09
  1.20994    -94.1 1.583e+04 2.847e-09
  1.22977    -95.3 1.581e+04 2.721e-09
  1.24960    -97.0 1.587e+04 2.712e-09
  1.26943    -99.5 1.631e+04 3.172e-09
  1.28925   -102.1 1.706e+04 4.329e-09
  1.30194   -104.0 1.782e+04 6.007e-09
  1.31185   -103.9 1.759e+04 7.513e-09
  1.32138   -103.8 1.848e+04 1.056e-08
  1.33129   -103.0 1.746e+04 8.864e-09
  1.34874   -103.9 1.828e+04 1.064e-08
  1.36300   -105.3 1.599e+04 1.240e-08
  1.36791   -107.2 1.925e+04 1.190e-08
  1.37342   -108.1 2.162e+04 1.170e-08
  1.38334   -110.2 2.574e+04 1.083e-08
  1.39325   -118.1 4.554e+04 9.201e-09
  1.40317   -127.0 6.468e+04 9.189e-09
  1.41308   -136.1 6.361e+04 1.723e-08
  1.42299   -143.4 5.178e+04 4.772e-08
  1.42902   -151.6 3.968e+04 1.408e-07
  1.43147   -150.4 3.221e+04 3.228e-07
  1.43534   -153.8 3.124e+04 3.318e-07
  1.44029   -159.2 2.855e+04 4.393e-07
  1.44525   -164.7 2.790e+04 4.823e-07
  1.45021   -172.9 2.700e+04 5.029e-07
  1.45427   -181.5 3.219e+04 2.462e-07
  1.45675   -188.6 3.981e+04 1.201e-07
  1.45952   -198.7 5.746e+04 2.856e-08
  1.46200   -198.7 6.731e+04 2.489e-08
  1.46508   -200.5 7.616e+04 1.242e-08
  1.47004   -198.2 7.790e+04 9.161e-09
  1.47499   -198.4 8.182e+04 5.542e-09
  1.47995   -204.7 8.595e+04 3.167e-09
  1.48491   -214.1 8.562e+04 2.048e-09
  1.49010   -225.5 7.321e+04 1.471e-09
  1.49506   -204.2 5.509e+04 8.263e-09
  1.50228   -212.1 5.471e+04 4.286e-09
  1.51222   -235.0 4.593e+04 8.565e-10
  1.52714   -248.7 1.359e+04 7.641e-10
  1.54638   -247.1 1.137e+04 7.068e-10
  1.55629   -248.4 1.210e+04 7.756e-10
  1.56684   -244.3 1.079e+04 6.849e-10
  1.58250   -240.1 1.061e+04 6.218e-10
  1.59242   -238.4 1.045e+04 5.489e-10
  1.60650   -235.6 1.026e+04 4.506e-10
  1.62633   -232.8 9.994e+03 3.797e-10
  1.65617   -230.5 9.840e+03 3.350e-10
  1.67871   -227.9 9.585e+03 2.911e-10
  1.69854   -227.4 9.648e+03 3.421e-10
  1.73557   -223.9 9.260e+03 2.800e-10
  1.77523   -220.4 8.957e+03 2.387e-10
  1.81488   -217.2 8.837e+03 2.220e-10
  1.85454   -214.1 8.817e+03 2.193e-10
  1.89420   -211.1 8.820e+03 2.200e-10
  1.92315   -208.3 8.919e+03 2.351e-10
  1.94298   -208.1 8.933e+03 2.565e-10
  1.97351   -205.3 8.950e+03 2.616e-10
  2.01316   -202.6 8.983e+03 2.696e-10
  2.05282   -199.9 8.986e+03 2.760e-10
  2.09247   -197.2 8.980e+03 2.779e-10
  2.11487   -194.6 8.942e+03 2.780e-10
  2.13470   -194.6 8.983e+03 2.874e-10
  2.16759   -192.0 8.887e+03 2.827e-10
  2.18742   -191.4 8.429e+03 2.008e-10
  2.21144   -188.6 8.335e+03 1.865e-10
  2.25110   -185.8 8.251e+03 1.734e-10
  2.29075   -183.0 8.193e+03 1.641e-10
  2.33041   -180.2 8.170e+03 1.600e-10
  2.37006   -177.4 8.168e+03 1.593e-10
  2.40972   -174.7 8.174e+03 1.595e-10
  2.43186   -172.2 8.284e+03 1.637e-10
  2.45169   -171.7 8.035e+03 1.051e-10
  2.48903   -169.5 8.213e+03 1.112e-10
  2.52868   -167.5 8.399e+03 1.310e-10
  2.56834   -165.9 8.705e+03 1.709e-10
  2.60799   -164.5 9.162e+03 2.470e-10
  2.63712   -163.4 9.740e+03 3.823e-10
  2.65695   -163.0 9.463e+03 3.219e-10
  2.67630   -162.1 9.914e+03 4.414e-10
  2.69613   -161.4 9.549e+03 3.359e-10
  2.72696   -160.7 9.950e+03 4.363e-10
  2.76662   -160.1 1.034e+04 5.568e-10
  2.80627   -159.3 1.067e+04 6.890e-10
  2.84593   -158.6 1.087e+04 7.966e-10
  2.88558   -157.9 1.091e+04 8.378e-10
  2.92074   -157.0 1.089e+04 8.394e-10
  2.94057   -156.2 1.047e+04 5.826e-10
  2.96489   -155.1 1.042e+04 5.780e-10
  3.00455   -153.5 1.030e+04 5.325e-10
  3.04420   -151.6 1.018e+04 4.761e-10
  3.08386   -149.5 1.010e+04 4.304e-10
  3.12352   -147.2 1.004e+04 4.014e-10
  3.15937   -144.8 1.002e+04 3.888e-10
  3.17920   -144.3 9.868e+03 2.996e-10
  3.18501   -142.0 9.931e+03 3.104e-10
  3.20484   -142.3 1.021e+04 4.171e-10
  3.24248   -139.9 1.031e+04 4.612e-10
  3.28214   -137.7 1.045e+04 5.107e-10
  3.32179   -135.4 1.064e+04 5.789e-10
  3.36145   -133.1 1.083e+04 6.719e-10
  3.40110   -130.7 1.102e+04 7.740e-10
  3.42945   -128.3 1.123e+04 8.876e-10
  3.43884   -128.9 1.095e+04 7.587e-10
  3.44013   -129.0 1.121e+04 8.657e-10
  3.45048   -128.0 1.126e+04 8.992e-10
  3.47031   -126.7 1.131e+04 9.481e-10
  3.49013   -125.7 1.136e+04 9.905e-10
  3.50996   -124.4 1.145e+04 1.062e-09
  3.52979   -123.2 1.151e+04 1.113e-09
  3.54962   -121.8 1.160e+04 1.179e-09
  3.56139   -120.5 1.169e+04 1.250e-09
  3.57131   -120.5 1.142e+04 9.296e-10
  3.58927   -119.2 1.151e+04 9.726e-10
  3.60910   -117.7 1.160e+04 1.013e-09
  3.62893   -116.1 1.175e+04 1.062e-09
  3.64876   -114.8 1.203e+04 1.137e-09
  3.66858   -113.9 1.250e+04 1.267e-09
  3.68361   -113.3 1.317e+04 1.526e-09
  3.69353   -115.1 1.344e+04 1.464e-09
  3.70126   -115.0 1.414e+04 2.065e-09
  3.71117   -114.9 1.549e+04 4.881e-09
  3.72807   -114.5 1.652e+04 7.141e-09
  3.74789   -114.1 1.768e+04 1.031e-08
  3.76772   -113.7 1.892e+04 1.435e-08
  3.78254   -114.1 1.943e+04 1.479e-08
  3.79241   -113.8 2.010e+04 1.653e-08
  3.80232   -113.6 2.043e+04 1.657e-08
  3.81069   -113.7 2.102e+04 1.771e-08
  3.81570   -115.9 1.993e+04 1.505e-08
  3.82220   -115.7 2.026e+04 1.432e-08
  3.83173   -116.6 2.034e+04 1.405e-08
  3.83668   -116.6 2.081e+04 1.961e-08
  3.84198   -117.5 2.082e+04 1.851e-08
  3.85189   -118.7 2.046e+04 1.438e-08
  3.86681   -120.9 1.987e+04 1.070e-08
  3.88669   -124.5 1.923e+04 7.737e-09
  3.90652   -128.3 1.792e+04 5.684e-09
  3.92634   -131.8 1.628e+04 4.377e-09
  3.93797   -134.7 1.498e+04 3.644e-09
  3.94788   -134.2 1.367e+04 2.545e-09
  3.96239   -135.5 1.326e+04 2.360e-09
  3.97230   -134.5 1.510e+04 3.809e-09
  3.98583   -135.6 1.433e+04 3.258e-09
  4.00565   -136.2 1.366e+04 2.809e-09
  4.02548   -136.3 1.311e+04 2.443e-09
  4.04531   -136.2 1.270e+04 2.127e-09
  4.06019   -136.0 1.233e+04 1.827e-09
  4.07010   -135.3 1.196e+04 1.507e-09
  4.08497   -135.0 1.162e+04 1.264e-09
  4.10479   -134.5 1.130e+04 1.049e-09
  4.12462   -134.2 1.101e+04 8.864e-10
  4.14445   -133.8 1.080e+04 7.837e-10
  4.16428   -133.5 1.069e+04 7.392e-10
  4.18241   -133.0 1.067e+04 7.305e-10
  4.19232   -132.9 9.910e+03 4.778e-10
  4.20393   -132.4 9.895e+03 4.739e-10
  4.22351   -132.0 9.915e+03 4.774e-10
  4.23343   -131.5 9.934e+03 4.896e-10
  4.24359   -131.0 9.936e+03 4.935e-10
  4.26342   -130.6 9.968e+03 5.095e-10
  4.28324   -130.3 1.006e+04 5.441e-10
  4.30307   -130.2 1.015e+04 5.948e-10
  4.31454   -130.2 1.021e+04 6.549e-10
  4.32446   -130.7 9.615e+03 3.927e-10
  4.34273   -130.8 9.761e+03 4.653e-10
  4.36255   -130.9 9.941e+03 5.547e-10
  4.38238   -131.0 1.016e+04 6.540e-10
  4.40221   -131.0 1.040e+04 7.525e-10
  4.42204   -131.2 1.062e+04 8.278e-10
  4.43677   -131.8 1.076e+04 8.585e-10
  4.44678   -131.6 1.048e+04 6.728e-10
  4.47180   -133.3 1.073e+04 7.373e-10
  4.49465   -136.4 1.062e+04 6.603e-10
  4.50447   -134.8 1.078e+04 7.565e-10
  4.52118   -137.4 1.080e+04 7.166e-10
  4.54100   -140.2 1.082e+04 6.938e-10
  4.55899   -143.5 1.087e+04 6.897e-10
  4.56890   -143.0 1.093e+04 7.234e-10
  4.58066   -146.2 1.115e+04 7.494e-10
  4.60049   -149.4 1.130e+04 8.138e-10
  4.62031   -152.4 1.134e+04 8.594e-10
  4.64014   -155.3 1.133e+04 8.700e-10
  4.65997   -157.7 1.131e+04 8.707e-10
  4.67980   -159.9 1.114e+04 8.404e-10
  4.69112   -161.7 1.092e+04 7.744e-10
  4.70103   -160.8 1.066e+04 6.627e-10
  4.71945   -162.6 1.045e+04 5.998e-10
  4.73928   -164.0 1.024e+04 5.441e-10
  4.75568   -165.1 1.005e+04 4.958e-10
  4.76560   -164.8 1.014e+04 5.081e-10
  4.77894   -165.9 9.967e+03 4.624e-10
  4.79876   -166.7 9.810e+03 4.251e-10
  4.81334   -167.1 9.693e+03 3.957e-10
  4.82326   -166.8 9.739e+03 4.050e-10
  4.83842   -167.1 9.649e+03 3.844e-10
  4.86826   -167.4 9.630e+03 3.776e-10
  4.90801   -167.6 9.628e+03 3.744e-10
  4.93566   -167.4 9.648e+03 3.785e-10
  4.94548   -167.1 9.541e+03 3.665e-10
  4.95739   -167.1 9.569e+03 3.748e-10
  4.97721   -167.1 9.610e+03 3.947e-10
  4.99704   -167.1 9.646e+03 4.128e-10
  5.01681   -166.9 9.695e+03 4.317e-10
  5.03664   -167.1 9.812e+03 4.804e-10
  5.05652   -166.9 9.808e+03 4.807e-10
  5.06770   -166.3 9.748e+03 4.572e-10
  5.07761   -166.2 9.663e+03 4.233e-10
  5.10619   -165.8 9.663e+03 4.101e-10
  5.14594   -165.0 9.566e+03 3.668e-10
  5.18020   -164.1 9.425e+03 3.219e-10
  5.20003   -164.6 9.293e+03 2.935e-10
  5.22526   -164.0 9.281e+03 2.913e-10
  5.26491   -163.6 9.465e+03 3.143e-10
  5.28805   -163.4 9.761e+03 3.863e-10
  5.29786   -163.8 9.670e+03 3.799e-10
  5.31214   -163.9 9.792e+03 4.289e-10
  5.32205   -164.1 9.821e+03 4.411e-10
  5.33411   -164.2 9.893e+03 4.809e-10
  5.35394   -164.3 9.902e+03 4.971e-10
  5.37377   -164.5 9.876e+03 5.051e-10
  5.39360   -164.4 9.796e+03 4.777e-10
  5.41342   -164.2 9.714e+03 4.228e-10
  5.43325   -164.1 9.651e+03 3.685e-10
  5.44427   -163.9 9.603e+03 3.318e-10
  5.46420   -164.5 9.316e+03 2.689e-10
  5.50284   -163.9 9.261e+03 2.431e-10
  5.54250   -162.9 9.261e+03 2.379e-10
  5.58215   -161.7 9.286e+03 2.396e-10
  5.62181   -160.1 9.416e+03 2.649e-10
  5.66147   -158.3 9.586e+03 3.134e-10
  5.68891   -156.4 9.736e+03 3.735e-10
  5.70874   -155.9 9.406e+03 3.084e-10
  5.74078   -153.8 9.449e+03 3.244e-10
  5.78043   -151.7 9.479e+03 3.343e-10
  5.81030   -149.7 9.490e+03 3.363e-10
  5.83013   -150.3 9.143e+03 2.459e-10
  5.85974   -148.4 9.144e+03 2.451e-10
  5.89940   -146.7 9.352e+03 2.733e-10
  5.93335   -145.0 9.649e+03 3.436e-10
  5.95318   -144.2 9.397e+03 2.544e-10
  5.97871   -142.4 9.733e+03 3.541e-10
  6.01836   -140.4 1.003e+04 4.534e-10
  6.05802   -138.4 1.024e+04 5.193e-10
  6.09768   -136.4 1.030e+04 5.357e-10
  6.13733   -134.2 1.032e+04 5.256e-10
  6.17699   -131.8 1.022e+04 4.496e-10
  6.19762   -129.3 1.008e+04 3.608e-10
  6.21745   -128.6 1.009e+04 3.666e-10
  6.25630   -125.9 9.963e+03 2.790e-10
  6.29595   -123.3 9.872e+03 2.073e-10
  6.33255   -120.7 9.833e+03 1.559e-10
  6.35238   -121.2 9.633e+03 1.293e-10
  6.37526   -118.6 9.593e+03 1.101e-10
  6.41492   -115.7 9.625e+03 1.036e-10
  6.44206   -112.8 9.651e+03 1.024e-10
  6.46189   -112.1 9.636e+03 1.299e-10
  6.49423   -109.5 9.717e+03 1.306e-10
  6.53389   -107.3 1.021e+04 1.488e-10
  6.57354   -105.4 1.069e+04 2.754e-10
  6.61320   -103.1 1.125e+04 5.666e-10
  6.65285   -100.8 1.197e+04 1.048e-09
  6.68650    -98.8 1.267e+04 1.631e-09
  6.70633    -97.7 1.246e+04 1.456e-09
  6.72215    -96.5 1.302e+04 2.021e-09
  6.74188    -95.7 1.321e+04 2.206e-09
  6.76171    -95.2 1.358e+04 2.508e-09
  6.78154    -95.0 1.410e+04 2.781e-09
  6.80137    -95.1 1.491e+04 3.297e-09
  6.81844    -95.9 1.580e+04 4.048e-09
  6.82835    -95.5 1.563e+04 3.661e-09
  6.84102    -96.7 1.638e+04 4.816e-09
  6.86085    -97.6 1.666e+04 5.838e-09
  6.87444    -97.9 1.665e+04 6.413e-09
  6.88435    -97.8 1.812e+04 1.183e-08
  6.89550    -97.7 1.738e+04 8.782e-09
  6.90536    -97.7 1.718e+04 8.053e-09
  6.91528    -97.8 1.691e+04 7.015e-09
  6.92519    -98.2 1.679e+04 6.217e-09
  6.93510    -98.7 1.644e+04 5.308e-09
  6.94502    -99.3 1.610e+04 4.591e-09
  6.95053   -100.2 1.577e+04 3.955e-09
  6.95548    -99.3 1.671e+04 5.000e-09
  6.96485    -99.8 1.666e+04 4.659e-09
  6.97476   -100.7 1.674e+04 4.439e-09
  6.98467   -101.4 1.678e+04 4.410e-09
  6.99459   -102.6 1.717e+04 4.387e-09
  7.00450   -103.6 1.754e+04 4.662e-09
  7.00986   -105.0 1.796e+04 5.123e-09
  7.01199   -105.9 1.722e+04 4.628e-09
  7.01655   -106.8 1.842e+04 6.187e-09
  7.02433   -107.6 1.840e+04 6.993e-09
  7.03424   -108.1 1.827e+04 7.892e-09
  7.04416   -108.3 1.812e+04 8.862e-09
  7.05407   -108.4 1.795e+04 9.747e-09
  7.06399   -108.4 1.778e+04 1.036e-08
  7.07270   -108.4 1.763e+04 1.075e-08
  7.07766   -108.3 1.861e+04 1.452e-08
  7.08381   -108.3 1.855e+04 1.464e-08
  7.09373   -108.2 1.852e+04 1.468e-08
  7.10364   -108.2 1.841e+04 1.457e-08
  7.11355   -108.3 1.837e+04 1.393e-08
  7.12347   -108.7 1.833e+04 1.289e-08
  7.13338   -109.1 1.842e+04 1.171e-08
  7.13877   -109.9 1.868e+04 1.093e-08
  7.14085   -110.6 2.037e+04 1.441e-08
  7.14538   -111.7 1.952e+04 9.176e-09
  7.15321   -113.5 1.973e+04 8.671e-09
  7.16312   -115.8 2.015e+04 8.549e-09
  7.17304   -118.5 2.081e+04 8.817e-09
  7.18295   -121.4 2.104e+04 9.447e-09
  7.19287   -124.0 2.074e+04 1.007e-08
  7.19988   -126.1 2.036e+04 1.032e-08
  7.20483   -127.2 2.138e+04 1.229e-08
  7.21269   -128.3 2.053e+04 1.208e-08
  7.22261   -129.1 1.972e+04 1.137e-08
  7.23252   -129.6 1.893e+04 1.027e-08
  7.24243   -130.1 1.811e+04 8.941e-09
  7.25235   -130.6 1.725e+04 7.562e-09
  7.26099   -131.1 1.647e+04 6.247e-09
  7.26594   -131.3 1.644e+04 6.067e-09
  7.27718   -131.9 1.566e+04 4.859e-09
  7.29706   -133.5 1.423e+04 3.017e-09
  7.31689   -135.2 1.343e+04 2.149e-09
  7.32715   -137.0 1.285e+04 1.803e-09
  7.33707   -136.9 1.201e+04 1.378e-09
  7.35654   -138.0 1.183e+04 1.318e-09
  7.37637   -138.9 1.178e+04 1.313e-09
  7.39620   -140.0 1.189e+04 1.479e-09
  7.40661   -140.9 1.236e+04 1.866e-09
  7.41652   -139.8 1.225e+04 1.692e-09
  7.43585   -140.7 1.260e+04 2.080e-09
  7.44937   -141.4 1.277e+04 2.381e-09
  7.45929   -140.2 1.219e+04 1.898e-09
  7.47551   -140.8 1.232e+04 2.097e-09
  7.49534   -141.2 1.233e+04 2.168e-09
  7.51516   -141.4 1.230e+04 2.178e-09
  7.53499   -141.5 1.211e+04 2.120e-09
  7.55482   -141.5 1.187e+04 1.946e-09
  7.57159   -141.5 1.158e+04 1.718e-09
  7.58151   -140.8 1.163e+04 1.780e-09
  7.59447   -140.7 1.140e+04 1.599e-09
  7.61430   -140.6 1.117e+04 1.417e-09
  7.63413   -140.6 1.096e+04 1.259e-09
  7.65396   -140.5 1.079e+04 1.126e-09
  7.66773   -140.4 1.065e+04 1.024e-09
  7.67765   -140.9 1.089e+04 1.163e-09
  7.69361   -140.8 1.077e+04 1.068e-09
  7.70373   -140.7 1.068e+04 9.876e-10
  7.71364   -140.2 1.109e+04 1.207e-09
  7.73327   -140.0 1.101e+04 1.130e-09
  7.75310   -139.8 1.092e+04 1.052e-09
  7.77292   -139.6 1.082e+04 9.785e-10
  7.79275   -139.4 1.073e+04 9.109e-10
  7.81258   -139.2 1.065e+04 8.522e-10
  7.82595   -139.1 1.059e+04 8.045e-10
  7.83586   -138.6 1.107e+04 1.026e-09
  7.85224   -138.5 1.100e+04 9.708e-10
  7.87206   -138.4 1.096e+04 9.280e-10
  7.89189   -138.3 1.093e+04 8.983e-10
  7.91172   -138.1 1.091e+04 8.776e-10
  7.92886   -137.7 1.087e+04 8.583e-10
  7.93877   -138.9 1.112e+04 1.080e-09
  7.94817   -138.3 1.094e+04 1.031e-09
  7.95808   -137.6 1.102e+04 1.093e-09
  7.97120   -136.8 1.077e+04 9.730e-10
  7.99103   -135.8 1.048e+04 8.219e-10
  8.01086   -134.7 1.015e+04 6.540e-10
  8.03068   -133.6 9.850e+03 5.077e-10
  8.05051   -132.8 9.658e+03 4.190e-10
  8.08035   -132.1 9.542e+03 3.617e-10
  8.12010   -130.6 9.274e+03 2.747e-10
  8.15976   -128.6 9.024e+03 2.132e-10
  8.19281   -126.8 8.949e+03 1.897e-10
  8.21263   -125.9 9.004e+03 2.060e-10
  8.23907   -124.2 8.999e+03 2.036e-10
  8.27873   -122.8 9.115e+03 2.143e-10
  8.31838   -121.4 9.269e+03 2.466e-10
  8.35804   -119.8 9.378e+03 2.815e-10
  8.39769   -118.1 9.463e+03 3.092e-10
  8.43725   -116.2 9.549e+03 3.267e-10
  8.46112   -113.9 9.686e+03 3.271e-10
  8.48105   -113.9 9.514e+03 2.614e-10
  8.51666   -112.0 9.486e+03 2.539e-10
  8.55632   -110.1 9.457e+03 2.469e-10
  8.59597   -108.1 9.409e+03 2.353e-10
  8.63563   -106.2 9.338e+03 2.174e-10
  8.67528   -104.3 9.228e+03 1.959e-10
  8.70152   -102.4 9.093e+03 1.753e-10
  8.72134   -101.9 9.141e+03 1.714e-10
  8.75459   -100.0 9.006e+03 1.619e-10
  8.79425    -98.0 8.886e+03 1.550e-10
  8.83390    -96.0 8.773e+03 1.524e-10
  8.87356    -94.1 8.693e+03 1.525e-10
  8.91321    -92.1 8.660e+03 1.531e-10
  8.94596    -90.2 8.591e+03 1.566e-10
  8.96578    -89.2 8.644e+03 1.624e-10
  8.98348    -87.4 8.574e+03 1.624e-10
  9.00330    -87.0 8.468e+03 1.553e-10
  9.03218    -85.2 8.454e+03 1.554e-10
  9.07184    -83.5 8.449e+03 1.586e-10
  9.11149    -82.0 8.462e+03 1.627e-10
  9.15115    -80.8 8.472e+03 1.645e-10
  9.19040    -80.1 8.470e+03 1.643e-10
  9.21023    -78.8 8.549e+03 1.777e-10
  9.23046    -78.5 8.521e+03 1.751e-10
  9.27011    -78.3 8.502e+03 1.716e-10
  9.30977    -79.7 8.645e+03 1.819e-10
  9.34942    -83.0 9.531e+03 2.875e-10
  9.38908    -86.8 1.078e+04 5.562e-10
  9.42874    -91.0 1.183e+04 9.279e-10
  9.45467    -95.3 1.241e+04 1.133e-09
  9.46448    -94.8 1.299e+04 1.335e-09
  9.47811    -96.7 1.356e+04 1.614e-09
  9.49794    -99.5 1.372e+04 1.963e-09
  9.51545   -101.3 1.366e+04 2.031e-09
  9.52536   -103.2 1.362e+04 2.667e-09
  9.53759   -103.8 1.288e+04 2.315e-09
  9.55742   -104.2 1.226e+04 1.984e-09
  9.57669   -104.6 1.190e+04 1.807e-09
  9.58661   -103.8 1.239e+04 2.328e-09
  9.59708   -104.1 1.219e+04 2.097e-09
  9.61690   -104.3 1.220e+04 2.043e-09
  9.63673   -104.5 1.234e+04 2.098e-09
  9.65656   -105.0 1.286e+04 2.478e-09
  9.67639   -105.6 1.352e+04 3.056e-09
  9.69621   -106.7 1.419e+04 3.781e-09
  9.70883   -108.1 1.476e+04 4.510e-09
  9.71874   -107.6 1.422e+04 3.314e-09
  9.73587   -109.7 1.475e+04 3.907e-09
  9.75570   -111.9 1.515e+04 4.531e-09
  9.77553   -113.9 1.535e+04 5.012e-09
  9.78649   -115.8 1.538e+04 5.101e-09
  9.79640   -117.2 1.547e+04 5.298e-09
  9.81518   -118.5 1.515e+04 4.795e-09
  9.83105   -119.3 1.454e+04 3.640e-09
  9.84096   -119.1 1.500e+04 4.849e-09
  9.85484   -119.4 1.420e+04 3.390e-09
  9.87466   -119.8 1.338e+04 2.272e-09
  9.89449   -120.1 1.266e+04 1.579e-09
  9.91432   -120.2 1.209e+04 1.157e-09
  9.93415   -120.0 1.161e+04 8.667e-10
  9.95327   -119.2 1.124e+04 6.540e-10
  9.96318   -119.3 1.121e+04 6.275e-10
