# Columns:
#   distance along LOS (in CHIMPs)
#   peculiar velocity  (in km/s)
#   temperature (K)
#   HI number density
# pos=(128.144,200.429,68.2889), angles=(1.28948,0.0872724)
  0.00888    -17.8 9.651e+03 2.087e-10
  0.03818    -19.3 9.285e+03 1.561e-10
  0.07899    -20.2 9.238e+03 1.682e-10
  0.10929    -20.3 9.201e+03 1.959e-10
  0.12632    -20.1 9.403e+03 2.566e-10
  0.13683    -19.4 9.424e+03 2.513e-10
  0.16062    -19.4 9.316e+03 2.442e-10
  0.20144    -19.3 9.394e+03 2.626e-10
  0.24087    -19.8 9.824e+03 3.560e-10
  0.26128    -19.9 9.859e+03 3.586e-10
  0.27277    -20.6 1.030e+04 4.820e-10
  0.29308    -21.6 1.083e+04 6.629e-10
  0.31349    -23.1 1.145e+04 1.039e-09
  0.32687    -22.7 1.168e+04 1.490e-09
  0.33708    -22.4 1.142e+04 1.270e-09
  0.35431    -21.7 1.142e+04 1.275e-09
  0.36550    -21.1 1.142e+04 1.173e-09
  0.37571    -20.4 1.177e+04 1.538e-09
  0.39266    -20.4 1.168e+04 1.242e-09
  0.40286    -20.4 1.154e+04 1.016e-09
  0.41553    -24.9 1.449e+04 1.066e-09
  0.43594    -38.7 1.968e+04 2.548e-09
  0.45635    -43.7 1.651e+04 8.751e-09
  0.46865    -41.5 1.687e+04 1.706e-08
  0.47886    -40.3 1.668e+04 1.563e-08
  0.49201    -39.9 1.763e+04 1.868e-08
  0.50145    -39.2 1.810e+04 1.634e-08
  0.50655    -38.7 1.801e+04 1.419e-08
  0.51237    -39.2 1.998e+04 8.174e-09
  0.52257    -41.2 1.998e+04 5.386e-09
  0.53439    -49.0 1.696e+04 1.763e-09
  0.54464    -49.2 1.616e+04 1.340e-09
  0.55839    -56.5 1.207e+04 6.339e-10
  0.57879    -58.0 1.140e+04 5.286e-10
  0.59437    -58.9 1.107e+04 4.813e-10
  0.60458    -58.4 1.173e+04 7.891e-10
  0.61043    -59.0 1.149e+04 6.904e-10
  0.62064    -58.5 1.137e+04 6.228e-10
  0.64002    -59.1 1.129e+04 5.386e-10
  0.66043    -60.0 1.126e+04 4.663e-10
  0.67622    -61.2 1.115e+04 4.257e-10
  0.68642    -60.5 1.111e+04 3.951e-10
  0.70124    -61.2 1.115e+04 4.002e-10
  0.72165    -62.0 1.107e+04 4.239e-10
  0.74201    -62.3 1.106e+04 4.497e-10
  0.76242    -62.3 1.106e+04 5.026e-10
  0.78288    -62.5 1.103e+04 4.927e-10
  0.80789    -62.8 1.091e+04 4.342e-10
  0.82840    -61.8 1.108e+04 5.404e-10
  0.85450    -62.1 1.049e+04 3.258e-10
  0.89532    -62.2 9.954e+03 1.661e-10
  0.93613    -62.5 9.466e+03 8.670e-11
  0.95997    -61.8 9.194e+03 5.813e-11
  0.98038    -61.1 9.181e+03 5.302e-11
  1.01776    -60.3 9.043e+03 4.222e-11
  1.05231    -59.3 8.934e+03 3.640e-11
  1.07272    -59.2 9.092e+03 4.361e-11
  1.09155    -58.2 8.975e+03 3.994e-11
  1.11196    -57.2 8.972e+03 4.078e-11
  1.14021    -56.0 8.932e+03 3.997e-11
  1.18103    -54.7 8.851e+03 4.109e-11
  1.22185    -53.5 8.793e+03 4.385e-11
  1.24353    -52.1 8.770e+03 4.619e-11
  1.26394    -51.1 8.746e+03 5.245e-11
  1.30348    -49.8 8.765e+03 5.527e-11
  1.34429    -48.7 8.838e+03 5.929e-11
  1.37511    -47.9 8.940e+03 6.801e-11
  1.39552    -46.9 8.943e+03 7.612e-11
  1.42593    -46.3 8.955e+03 9.553e-11
  1.46674    -45.2 8.955e+03 1.170e-10
  1.50669    -44.1 8.957e+03 1.217e-10
  1.52709    -43.1 8.974e+03 1.343e-10
  1.53046    -42.3 9.012e+03 1.187e-10
  1.55086    -42.3 9.095e+03 1.461e-10
  1.58919    -41.9 9.162e+03 1.158e-10
  1.63001    -42.1 9.011e+03 1.053e-10
  1.65867    -41.6 8.883e+03 1.043e-10
  1.67908    -40.5 8.912e+03 1.333e-10
  1.71164    -39.5 8.811e+03 1.216e-10
  1.75246    -38.8 8.704e+03 1.040e-10
  1.79025    -38.1 8.650e+03 9.359e-11
  1.81065    -37.0 8.644e+03 9.421e-11
  1.83409    -36.4 8.687e+03 9.070e-11
  1.87491    -36.2 8.898e+03 9.700e-11
  1.91572    -36.2 8.950e+03 1.323e-10
  1.94223    -36.3 9.399e+03 1.972e-10
  1.96264    -34.6 9.214e+03 1.910e-10
  1.98819    -37.1 1.092e+04 3.318e-10
  2.00850    -38.9 1.222e+04 4.592e-10
  2.01803    -42.8 1.292e+04 1.251e-09
  2.02823    -42.4 1.307e+04 1.113e-09
  2.04818    -43.5 1.268e+04 2.207e-09
  2.06859    -42.5 1.291e+04 3.045e-09
  2.08381    -40.5 1.314e+04 3.205e-09
  2.09402    -39.9 1.311e+04 3.233e-09
  2.10940    -38.8 1.296e+04 2.354e-09
  2.12981    -40.8 1.237e+04 1.070e-09
  2.14960    -45.5 1.026e+04 5.520e-10
  2.15981    -44.5 1.045e+04 6.027e-10
  2.17063    -45.3 1.008e+04 4.963e-10
  2.19104    -46.5 9.795e+03 4.196e-10
  2.21144    -47.1 9.815e+03 4.095e-10
  2.22569    -48.7 9.609e+03 4.011e-10
  2.24620    -46.5 9.584e+03 3.954e-10
  2.28307    -47.0 9.644e+03 4.874e-10
  2.32388    -46.4 9.823e+03 5.775e-10
  2.35737    -45.8 1.003e+04 6.232e-10
  2.37777    -44.2 9.644e+03 5.076e-10
  2.40552    -44.0 9.761e+03 4.957e-10
  2.43326    -47.5 1.186e+04 7.808e-10
  2.44337    -45.2 1.105e+04 5.625e-10
  2.45594    -49.7 1.363e+04 1.162e-09
  2.46615    -52.5 1.429e+04 2.212e-09
  2.47675    -53.5 1.462e+04 4.517e-09
  2.49716    -53.3 1.549e+04 7.056e-09
  2.50915    -52.9 1.665e+04 8.817e-09
  2.51936    -52.5 1.648e+04 9.891e-09
  2.53797    -52.1 1.727e+04 1.099e-08
  2.55838    -53.7 1.862e+04 8.651e-09
  2.57494    -57.0 1.834e+04 4.197e-09
  2.58515    -54.7 1.871e+04 6.636e-09
  2.59920    -59.2 1.733e+04 2.703e-09
  2.61961    -65.5 1.315e+04 1.270e-09
  2.64001    -68.9 1.145e+04 1.049e-09
  2.65093    -71.0 1.183e+04 1.190e-09
  2.66114    -70.1 1.148e+04 1.044e-09
  2.68083    -72.9 1.273e+04 1.580e-09
  2.69502    -75.4 1.396e+04 2.648e-09
  2.70522    -76.4 1.474e+04 4.111e-09
  2.71672    -77.7 1.511e+04 5.900e-09
  2.72693    -77.7 1.546e+04 6.161e-09
  2.74205    -80.0 1.669e+04 8.396e-09
  2.76246    -84.3 1.936e+04 1.048e-08
  2.78251    -90.0 2.242e+04 1.290e-08
  2.79271    -90.4 2.256e+04 1.598e-08
  2.80328    -95.7 2.305e+04 1.707e-08
  2.82369   -100.2 2.139e+04 1.633e-08
  2.84410   -102.4 1.904e+04 1.385e-08
  2.85850   -103.0 1.740e+04 1.142e-08
  2.86871   -102.7 1.738e+04 1.151e-08
  2.88491   -102.7 1.663e+04 8.817e-09
  2.90532   -102.6 1.619e+04 6.189e-09
  2.92389   -103.0 1.557e+04 3.893e-09
  2.93265   -107.5 1.346e+04 1.692e-09
  2.93449   -109.4 1.248e+04 1.267e-09
  2.94614   -110.4 1.133e+04 9.587e-10
  2.96654   -110.6 1.095e+04 8.605e-10
  2.98695   -110.2 1.084e+04 8.341e-10
  3.00028   -109.9 1.082e+04 8.288e-10
  3.01049   -110.1 1.090e+04 8.456e-10
  3.02777   -109.8 1.097e+04 8.599e-10
  3.04818   -109.8 1.112e+04 8.813e-10
  3.06607   -110.3 1.144e+04 9.516e-10
  3.07627   -110.2 1.179e+04 1.076e-09
  3.08899   -111.4 1.225e+04 1.346e-09
  3.10940   -113.4 1.288e+04 1.891e-09
  3.12981   -115.7 1.387e+04 2.887e-09
  3.14206   -118.3 1.523e+04 4.407e-09
  3.15227   -118.5 1.597e+04 5.650e-09
  3.16296   -121.7 1.756e+04 8.242e-09
  3.17316   -126.3 2.020e+04 1.114e-08
  3.19103   -131.2 2.088e+04 1.274e-08
  3.20785   -134.9 2.067e+04 1.207e-08
  3.21800   -134.8 2.119e+04 1.370e-08
  3.23180   -138.2 2.115e+04 1.137e-08
  3.25226   -140.6 1.934e+04 6.689e-09
  3.27267   -142.9 1.691e+04 3.841e-09
  3.28384   -144.2 1.525e+04 2.572e-09
  3.29405   -144.4 1.578e+04 3.318e-09
  3.31348   -144.7 1.457e+04 2.404e-09
  3.33389   -144.8 1.356e+04 1.879e-09
  3.34963   -144.6 1.278e+04 1.521e-09
  3.35983   -144.0 1.314e+04 1.735e-09
  3.37471   -143.8 1.239e+04 1.426e-09
  3.39183   -143.4 1.186e+04 1.215e-09
  3.40203   -145.4 1.149e+04 1.036e-09
  3.41542   -144.8 1.107e+04 8.619e-10
  3.42562   -144.3 1.109e+04 8.630e-10
  3.43593   -143.7 1.072e+04 7.320e-10
  3.45634   -143.1 1.042e+04 6.372e-10
  3.47675   -142.3 1.018e+04 5.694e-10
  3.49141   -141.6 9.999e+03 5.194e-10
  3.50161   -141.3 9.985e+03 5.179e-10
  3.51756   -140.6 9.847e+03 4.863e-10
  3.53797   -139.8 9.739e+03 4.624e-10
  3.55720   -139.2 9.653e+03 4.457e-10
  3.56740   -139.0 9.671e+03 4.593e-10
  3.57879   -138.3 9.629e+03 4.527e-10
  3.59920   -137.8 9.600e+03 4.501e-10
  3.61960   -137.2 9.592e+03 4.513e-10
  3.63090   -136.6 9.544e+03 4.607e-10
  3.63428   -137.0 9.373e+03 3.816e-10
  3.64339   -136.7 9.483e+03 4.225e-10
  3.66042   -136.0 9.567e+03 4.407e-10
  3.68083   -135.8 9.657e+03 4.732e-10
  3.69898   -135.7 9.871e+03 5.423e-10
  3.70918   -135.5 9.915e+03 5.884e-10
  3.72164   -135.6 1.026e+04 7.217e-10
  3.74205   -136.1 1.090e+04 9.827e-10
  3.76246   -137.0 1.181e+04 1.459e-09
  3.77497   -137.7 1.283e+04 2.270e-09
  3.78517   -137.9 1.310e+04 2.547e-09
  3.80328   -138.4 1.406e+04 3.869e-09
  3.82368   -138.7 1.479e+04 5.235e-09
  3.84076   -139.2 1.513e+04 5.929e-09
  3.85096   -139.5 1.524e+04 6.219e-09
  3.85977   -140.1 1.526e+04 6.324e-09
  3.86998   -140.4 1.531e+04 6.489e-09
  3.88491   -140.6 1.483e+04 5.678e-09
  3.90532   -140.5 1.414e+04 4.288e-09
  3.91675   -140.6 1.348e+04 3.143e-09
  3.92695   -140.6 1.348e+04 3.175e-09
  3.94613   -141.1 1.293e+04 2.391e-09
  3.96654   -141.6 1.247e+04 1.876e-09
  3.98254   -141.9 1.209e+04 1.541e-09
  3.99274   -141.8 1.220e+04 1.610e-09
  4.00736   -142.0 1.199e+04 1.430e-09
  4.02777   -142.1 1.183e+04 1.314e-09
  4.04817   -142.1 1.167e+04 1.240e-09
  4.05853   -142.3 1.156e+04 1.177e-09
  4.06873   -142.3 1.185e+04 1.326e-09
  4.08864   -142.6 1.211e+04 1.331e-09
  4.09884   -143.9 1.356e+04 1.922e-09
  4.10940   -144.3 1.397e+04 2.310e-09
  4.12432   -144.5 1.423e+04 2.636e-09
  4.13452   -144.7 1.495e+04 3.207e-09
  4.15021   -145.0 1.498e+04 3.324e-09
  4.17062   -145.1 1.489e+04 3.335e-09
  4.19010   -144.9 1.450e+04 3.069e-09
  4.20031   -145.0 1.495e+04 3.314e-09
  4.21144   -144.7 1.443e+04 2.766e-09
  4.23185   -144.4 1.392e+04 2.304e-09
  4.25225   -144.2 1.345e+04 1.946e-09
  4.26610   -143.8 1.302e+04 1.694e-09
  4.27630   -144.1 1.355e+04 1.932e-09
  4.29307   -143.9 1.335e+04 1.826e-09
  4.31348   -143.7 1.335e+04 1.799e-09
  4.32771   -143.6 1.359e+04 1.851e-09
  4.33592   -143.9 1.274e+04 1.312e-09
  4.34209   -144.7 1.397e+04 1.813e-09
  4.35430   -144.7 1.411e+04 1.763e-09
  4.37470   -144.8 1.428e+04 1.784e-09
  4.39511   -145.0 1.442e+04 1.849e-09
  4.40788   -145.3 1.446e+04 1.934e-09
  4.41808   -146.5 1.588e+04 3.563e-09
  4.43593   -146.6 1.564e+04 3.581e-09
  4.45634   -146.5 1.509e+04 3.340e-09
  4.47366   -146.2 1.443e+04 2.881e-09
  4.48387   -146.5 1.488e+04 3.920e-09
  4.49715   -146.0 1.406e+04 2.968e-09
  4.51756   -145.6 1.337e+04 2.248e-09
  4.53797   -145.3 1.281e+04 1.720e-09
  4.54966   -145.1 1.236e+04 1.352e-09
  4.55807   -145.3 1.225e+04 1.383e-09
  4.56679   -145.1 1.201e+04 1.025e-09
  4.57878   -144.7 1.170e+04 8.645e-10
  4.59919   -144.2 1.146e+04 7.569e-10
  4.61544   -143.6 1.130e+04 6.901e-10
  4.62565   -143.5 1.122e+04 6.850e-10
  4.64001   -142.9 1.114e+04 6.367e-10
  4.66042   -142.4 1.116e+04 6.102e-10
  4.68083   -142.0 1.123e+04 6.052e-10
  4.69144   -141.7 1.134e+04 6.169e-10
  4.70164   -141.2 1.127e+04 5.618e-10
  4.72164   -140.9 1.140e+04 5.577e-10
  4.74205   -140.8 1.153e+04 5.558e-10
  4.75722   -140.8 1.170e+04 5.595e-10
  4.77773   -140.4 1.141e+04 4.311e-10
  4.79585   -140.7 1.170e+04 5.047e-10
  4.80596   -141.1 1.212e+04 8.305e-10
  4.82301   -141.3 1.217e+04 9.230e-10
  4.83322   -140.7 1.196e+04 7.501e-10
  4.84409   -140.9 1.191e+04 8.121e-10
  4.86450   -141.0 1.192e+04 8.670e-10
  4.88491   -141.0 1.192e+04 9.399e-10
  4.89900   -141.1 1.198e+04 1.016e-09
  4.90931   -140.6 1.170e+04 8.237e-10
  4.93612   -140.8 1.188e+04 9.508e-10
  4.96489   -140.8 1.220e+04 1.183e-09
  4.97500   -139.7 1.211e+04 1.059e-09
  4.98695   -140.8 1.236e+04 1.256e-09
  5.00735   -142.0 1.254e+04 1.539e-09
  5.02453   -142.9 1.270e+04 1.714e-09
  5.03473   -144.3 1.308e+04 1.872e-09
  5.04078   -144.8 1.324e+04 2.045e-09
  5.05099   -143.9 1.332e+04 2.199e-09
  5.06858   -144.3 1.342e+04 2.284e-09
  5.08899   -144.7 1.335e+04 2.171e-09
  5.10657   -145.0 1.301e+04 1.768e-09
  5.11678   -144.1 1.335e+04 2.159e-09
  5.12980   -144.4 1.294e+04 1.692e-09
  5.15021   -144.6 1.249e+04 1.335e-09
  5.17062   -144.8 1.208e+04 1.122e-09
  5.18256   -144.9 1.185e+04 1.025e-09
  5.19277   -144.2 1.197e+04 1.072e-09
  5.21144   -144.2 1.180e+04 1.003e-09
  5.23184   -144.2 1.176e+04 9.915e-10
  5.24835   -144.3 1.184e+04 1.007e-09
  5.25856   -143.7 1.169e+04 9.471e-10
  5.26360   -143.9 1.183e+04 9.877e-10
  5.27380   -144.5 1.174e+04 9.552e-10
  5.29307   -144.6 1.197e+04 1.062e-09
  5.31348   -144.7 1.215e+04 1.177e-09
  5.32434   -144.7 1.223e+04 1.263e-09
  5.33455   -144.0 1.207e+04 1.125e-09
  5.35429   -144.0 1.210e+04 1.171e-09
  5.37470   -143.8 1.209e+04 1.181e-09
  5.39013   -143.4 1.196e+04 1.176e-09
  5.40034   -142.8 1.193e+04 1.079e-09
  5.41552   -142.2 1.176e+04 1.051e-09
  5.43593   -141.6 1.165e+04 9.361e-10
  5.45592   -140.8 1.150e+04 7.974e-10
  5.46612   -140.2 1.140e+04 7.536e-10
  5.47674   -139.3 1.123e+04 6.242e-10
  5.49247   -138.4 1.110e+04 5.111e-10
  5.50267   -138.2 1.106e+04 4.871e-10
  5.51756   -137.7 1.103e+04 4.347e-10
  5.54827   -137.0 1.097e+04 3.834e-10
  5.58769   -135.6 1.076e+04 3.237e-10
  5.60810   -134.3 1.078e+04 3.033e-10
  5.63000   -132.3 1.054e+04 2.629e-10
  5.67081   -130.5 1.040e+04 2.478e-10
  5.71133   -128.7 1.038e+04 2.463e-10
  5.73174   -128.6 1.041e+04 2.653e-10
  5.73967   -127.1 1.041e+04 2.718e-10
  5.76008   -126.0 1.061e+04 3.078e-10
  5.79326   -124.9 1.083e+04 3.687e-10
  5.83408   -124.0 1.114e+04 4.596e-10
  5.87125   -123.6 1.151e+04 5.785e-10
  5.89166   -122.5 1.172e+04 7.314e-10
  5.90541   -122.7 1.188e+04 7.983e-10
  5.92572   -123.1 1.201e+04 8.885e-10
  5.94613   -123.3 1.219e+04 9.889e-10
  5.95725   -123.5 1.240e+04 1.110e-09
  5.96133   -122.7 1.234e+04 1.082e-09
  5.97062   -123.1 1.236e+04 1.082e-09
  5.98694   -123.3 1.257e+04 1.191e-09
  6.00735   -123.7 1.279e+04 1.315e-09
  6.02304   -124.2 1.290e+04 1.420e-09
  6.03324   -122.9 1.282e+04 1.282e-09
  6.04817   -123.1 1.289e+04 1.348e-09
  6.06858   -123.2 1.289e+04 1.367e-09
  6.08883   -123.0 1.287e+04 1.362e-09
  6.09903   -122.7 1.284e+04 1.323e-09
  6.11969   -122.3 1.285e+04 1.372e-09
  6.15481   -122.0 1.281e+04 1.410e-09
  6.17512   -120.6 1.285e+04 1.253e-09
  6.18928   -120.4 1.285e+04 1.285e-09
  6.19949   -120.7 1.280e+04 1.248e-09
  6.21143   -120.5 1.278e+04 1.275e-09
  6.23061   -120.2 1.277e+04 1.297e-09
  6.24081   -120.0 1.274e+04 1.277e-09
  6.25225   -119.8 1.267e+04 1.279e-09
  6.28296   -119.8 1.260e+04 1.279e-09
  6.30679   -119.5 1.241e+04 1.231e-09
  6.31690   -117.6 1.239e+04 1.208e-09
  6.33388   -117.3 1.225e+04 1.161e-09
  6.35429   -117.0 1.215e+04 1.097e-09
  6.37239   -116.7 1.206e+04 1.030e-09
  6.38259   -116.4 1.201e+04 1.006e-09
  6.39511   -116.0 1.195e+04 9.444e-10
  6.41551   -115.6 1.188e+04 8.873e-10
  6.42836   -115.1 1.180e+04 8.287e-10
  6.43856   -115.5 1.180e+04 8.361e-10
  6.44838   -114.9 1.171e+04 7.885e-10
  6.45858   -113.6 1.146e+04 6.570e-10
  6.47674   -112.9 1.139e+04 6.227e-10
  6.49715   -112.2 1.137e+04 6.043e-10
  6.51417   -111.4 1.137e+04 6.012e-10
  6.52437   -110.5 1.114e+04 5.372e-10
  6.53796   -109.7 1.115e+04 5.368e-10
  6.55837   -108.9 1.123e+04 5.512e-10
  6.57878   -108.2 1.132e+04 5.872e-10
  6.59016   -107.4 1.142e+04 6.347e-10
  6.60036   -106.2 1.119e+04 5.628e-10
  6.61960   -105.2 1.128e+04 6.226e-10
  6.64000   -104.2 1.139e+04 6.887e-10
  6.65595   -103.1 1.153e+04 7.577e-10
  6.66296   -102.4 1.141e+04 7.310e-10
  6.66743   -102.7 1.133e+04 7.046e-10
  6.68082   -101.7 1.143e+04 7.471e-10
  6.70123   -100.5 1.155e+04 7.814e-10
  6.72164    -99.5 1.168e+04 8.153e-10
  6.73194    -98.7 1.180e+04 8.577e-10
  6.74214    -97.6 1.195e+04 9.346e-10
  6.76245    -97.0 1.219e+04 1.032e-09
  6.78286    -96.5 1.245e+04 1.182e-09
  6.79773    -96.0 1.272e+04 1.409e-09
  6.80793    -95.5 1.315e+04 1.670e-09
  6.82368    -95.1 1.349e+04 2.106e-09
  6.84408    -94.4 1.378e+04 2.652e-09
  6.86351    -93.6 1.403e+04 3.246e-09
  6.87372    -92.9 1.440e+04 3.903e-09
  6.88490    -91.9 1.459e+04 4.563e-09
  6.89630    -90.9 1.468e+04 4.983e-09
  6.90650    -90.8 1.387e+04 3.275e-09
  6.92572    -89.6 1.400e+04 3.666e-09
  6.93951    -88.4 1.409e+04 3.892e-09
  6.94971    -87.6 1.426e+04 4.336e-09
  6.96653    -86.6 1.429e+04 4.283e-09
  6.98694    -85.5 1.429e+04 4.008e-09
  7.00529    -84.9 1.446e+04 3.976e-09
  7.01550    -84.2 1.432e+04 3.863e-09
  7.02776    -83.9 1.474e+04 3.983e-09
  7.04817    -84.1 1.593e+04 4.688e-09
  7.06857    -85.2 1.766e+04 6.843e-09
  7.08129    -86.1 1.925e+04 1.129e-08
  7.09149    -84.7 1.833e+04 8.235e-09
  7.10939    -85.4 1.956e+04 1.327e-08
  7.12517    -86.0 2.023e+04 1.850e-08
  7.13532    -86.2 2.094e+04 2.501e-08
  7.14703    -87.5 2.095e+04 2.676e-08
  7.15728    -85.8 2.060e+04 2.367e-08
  7.17061    -86.1 2.007e+04 2.092e-08
  7.19102    -85.9 1.920e+04 1.439e-08
  7.21143    -86.4 1.817e+04 8.306e-09
  7.22307    -87.9 1.659e+04 4.293e-09
  7.23327    -85.6 1.759e+04 6.086e-09
  7.25225    -87.4 1.605e+04 3.343e-09
  7.27266    -89.2 1.410e+04 1.913e-09
  7.28885    -90.4 1.256e+04 1.201e-09
  7.29906    -88.2 1.404e+04 1.802e-09
  7.31347    -89.4 1.265e+04 1.151e-09
  7.33388    -90.2 1.178e+04 8.154e-10
  7.35404    -90.9 1.118e+04 6.319e-10
  7.36424    -92.0 1.050e+04 4.897e-10
  7.36485    -92.3 1.028e+04 4.380e-10
  7.37505    -91.4 1.047e+04 4.815e-10
  7.39510    -91.7 1.029e+04 4.371e-10
  7.41551    -91.7 1.017e+04 4.131e-10
  7.43063    -91.8 1.011e+04 4.038e-10
  7.44084    -91.0 1.028e+04 4.421e-10
  7.45633    -91.2 1.019e+04 4.301e-10
  7.47674    -91.5 1.029e+04 4.414e-10
  7.49642    -92.3 1.052e+04 5.247e-10
  7.50663    -91.5 1.053e+04 5.289e-10
  7.51755    -92.2 1.084e+04 6.736e-10
  7.53796    -92.7 1.128e+04 9.128e-10
  7.55837    -92.9 1.173e+04 1.224e-09
  7.57241    -93.0 1.202e+04 1.476e-09
  7.58262    -92.2 1.208e+04 1.528e-09
  7.59311    -92.2 1.222e+04 1.653e-09
  7.60332    -92.6 1.222e+04 1.630e-09
  7.61959    -92.5 1.207e+04 1.538e-09
  7.63820    -92.1 1.165e+04 1.196e-09
  7.64841    -91.4 1.189e+04 1.367e-09
  7.66041    -91.2 1.139e+04 9.999e-10
  7.68082    -90.9 1.083e+04 6.937e-10
  7.70123    -90.6 1.029e+04 4.726e-10
  7.71419    -90.2 9.926e+03 3.468e-10
  7.72440    -89.4 1.010e+04 4.149e-10
  7.74204    -88.8 9.796e+03 3.209e-10
  7.76245    -88.2 9.687e+03 2.901e-10
  7.79316    -87.3 9.590e+03 2.559e-10
  7.83407    -86.0 9.191e+03 1.884e-10
  7.85617    -84.4 8.872e+03 1.486e-10
  7.87658    -83.3 9.192e+03 2.002e-10
  7.91571    -81.8 8.979e+03 1.764e-10
  7.95652    -80.3 8.892e+03 1.682e-10
  7.98774    -78.7 8.843e+03 1.688e-10
  8.00815    -77.7 9.127e+03 2.232e-10
  8.03815    -76.1 9.045e+03 2.142e-10
  8.06125    -74.5 8.980e+03 2.030e-10
  8.08166    -73.7 8.920e+03 1.803e-10
  8.11932    -71.9 8.916e+03 1.756e-10
  8.13973    -71.3 9.144e+03 2.222e-10
  8.16060    -69.7 9.180e+03 2.217e-10
  8.20142    -68.0 9.440e+03 2.459e-10
  8.23193    -67.1 9.550e+03 2.669e-10
  8.25224    -67.0 9.643e+03 2.780e-10
  8.27111    -68.4 1.062e+04 3.971e-10
  8.28131    -71.2 1.207e+04 5.396e-10
  8.28992    -75.8 1.461e+04 1.394e-09
  8.30013    -71.7 1.307e+04 8.228e-10
  8.31347    -75.4 1.491e+04 2.049e-09
  8.33388    -77.0 1.573e+04 4.321e-09
  8.34705    -77.3 1.602e+04 6.560e-09
  8.35211    -76.8 1.561e+04 6.402e-09
  8.35929    -76.8 1.589e+04 7.416e-09
  8.37464    -76.2 1.624e+04 8.131e-09
  8.39510    -75.9 1.661e+04 8.288e-09
  8.41289    -77.1 1.671e+04 6.350e-09
  8.42309    -79.5 1.540e+04 3.016e-09
  8.43592    -83.5 1.372e+04 1.708e-09
  8.45633    -87.2 1.141e+04 1.056e-09
  8.47673    -88.7 1.049e+04 8.031e-10
  8.48888    -89.0 1.040e+04 6.905e-10
  8.49909    -88.8 1.039e+04 6.490e-10
  8.51889    -89.2 1.024e+04 5.831e-10
  8.53940    -88.6 1.050e+04 6.933e-10
  8.55486    -88.8 1.012e+04 5.385e-10
  8.57527    -87.6 9.967e+03 4.669e-10
  8.60958    -87.8 9.692e+03 3.982e-10
  8.65040    -88.4 9.700e+03 3.971e-10
  8.68644    -89.8 1.050e+04 6.127e-10
  8.70685    -89.2 1.084e+04 6.630e-10
  8.73203    -90.8 1.197e+04 1.367e-09
  8.75797    -91.0 1.229e+04 1.763e-09
  8.76786    -91.8 1.237e+04 1.793e-09
  8.77244    -91.9 1.275e+04 2.115e-09
  8.78286    -92.5 1.293e+04 2.341e-09
  8.80326    -93.0 1.297e+04 2.404e-09
  8.82367    -93.2 1.291e+04 2.391e-09
  8.83823    -93.3 1.267e+04 2.142e-09
  8.84843    -93.0 1.285e+04 2.359e-09
  8.86449    -93.0 1.252e+04 1.908e-09
  8.88490    -93.0 1.221e+04 1.543e-09
  8.90402    -93.0 1.189e+04 1.266e-09
