# Columns:
#   distance along LOS (in CHIMPs)
#   peculiar velocity  (in km/s)
#   temperature (K)
#   HI number density
# pos=(97.3225,156.78,0.0675835), angles=(1.56214,2.85934)
  0.00086    158.6 1.516e+04 4.278e-09
  0.00680    159.1 1.527e+04 4.316e-09
  0.01517    159.8 1.538e+04 4.365e-09
  0.02025    159.7 1.583e+04 4.821e-09
  0.02714    160.3 1.606e+04 5.061e-09
  0.03731    160.2 1.654e+04 5.386e-09
  0.04748    159.1 1.831e+04 6.363e-09
  0.05304    155.4 2.321e+04 1.059e-08
  0.05812    151.4 2.557e+04 2.665e-08
  0.06781    146.4 2.617e+04 7.533e-08
  0.07542    143.3 2.550e+04 1.547e-07
  0.08048    141.3 2.470e+04 2.523e-07
  0.08580    138.4 2.322e+04 3.751e-07
  0.09088    137.3 2.264e+04 5.267e-07
  0.09829    136.0 2.225e+04 5.023e-07
  0.10849    136.1 2.200e+04 4.625e-07
  0.11861    136.8 2.200e+04 3.227e-07
  0.12878    138.1 2.238e+04 1.746e-07
  0.13899    138.1 2.327e+04 8.233e-08
  0.14916    137.7 2.533e+04 3.363e-08
  0.15648    135.1 3.030e+04 7.819e-09
  0.16156    134.7 3.078e+04 6.766e-09
  0.16950    132.7 3.245e+04 3.618e-09
  0.18422    123.0 3.364e+04 6.595e-10
  0.19444    117.1 2.411e+04 5.059e-10
  0.20518    108.6 1.162e+04 6.962e-10
  0.22552    105.2 1.081e+04 7.543e-10
  0.24586    104.0 1.100e+04 8.513e-10
  0.26001    102.9 1.132e+04 9.233e-10
  0.27018    103.0 1.146e+04 1.030e-09
  0.28653    102.0 1.151e+04 1.032e-09
  0.30687    101.1 1.149e+04 1.015e-09
  0.32558    100.3 1.140e+04 9.509e-10
  0.33575    100.9 1.144e+04 1.001e-09
  0.34754    100.4 1.122e+04 8.689e-10
  0.36788     99.7 1.097e+04 7.507e-10
  0.38821     99.1 1.077e+04 6.908e-10
  0.40132     98.6 1.072e+04 6.900e-10
  0.41149     99.3 1.056e+04 6.501e-10
  0.42889     99.3 1.058e+04 6.607e-10
  0.44923     99.3 1.066e+04 7.000e-10
  0.46689     99.5 1.081e+04 7.672e-10
  0.47705    100.5 1.059e+04 7.025e-10
  0.48990    100.9 1.079e+04 7.933e-10
  0.51024    101.1 1.106e+04 9.160e-10
  0.53057    101.3 1.140e+04 1.088e-09
  0.54262    101.4 1.193e+04 1.362e-09
  0.55279    102.6 1.171e+04 1.276e-09
  0.57125    102.5 1.239e+04 1.671e-09
  0.59158    102.1 1.329e+04 2.331e-09
  0.60819    101.7 1.432e+04 3.383e-09
  0.61836    103.0 1.396e+04 2.950e-09
  0.63226    102.4 1.487e+04 4.162e-09
  0.65259    102.0 1.564e+04 5.626e-09
  0.67293    101.9 1.629e+04 7.133e-09
  0.68393    101.8 1.675e+04 8.016e-09
  0.69410    102.7 1.583e+04 6.243e-09
  0.71360    102.4 1.586e+04 6.238e-09
  0.73394    102.2 1.577e+04 5.978e-09
  0.74950    102.2 1.548e+04 5.261e-09
  0.75967    103.1 1.491e+04 4.613e-09
  0.77461    103.1 1.472e+04 4.120e-09
  0.79495    102.8 1.468e+04 3.720e-09
  0.81507    102.5 1.477e+04 3.615e-09
  0.82524    104.3 1.443e+04 3.788e-09
  0.83562    104.2 1.500e+04 3.933e-09
  0.85596    103.9 1.572e+04 4.173e-09
  0.87116    103.2 1.581e+04 4.128e-09
  0.88128    102.9 1.575e+04 4.059e-09
  0.89071    101.9 1.600e+04 4.162e-09
  0.89579    104.2 1.589e+04 4.353e-09
  0.90162    103.0 1.636e+04 4.648e-09
  0.91179    101.2 1.722e+04 5.203e-09
  0.92196     99.1 1.819e+04 5.902e-09
  0.92858     96.6 1.922e+04 6.843e-09
  0.93366     96.8 1.939e+04 7.303e-09
  0.94229     94.3 2.042e+04 8.689e-09
  0.95246     91.7 2.113e+04 1.030e-08
  0.96136     90.8 2.119e+04 1.095e-08
  0.96644     88.6 2.236e+04 1.539e-08
  0.97280     87.1 2.240e+04 1.839e-08
  0.98297     86.6 2.235e+04 2.133e-08
  0.99313     86.3 2.187e+04 2.271e-08
  0.99923     86.1 2.153e+04 2.277e-08
  1.00431     85.4 2.170e+04 2.832e-08
  1.01347     85.7 2.140e+04 2.650e-08
  1.02364     85.9 2.109e+04 2.487e-08
  1.03206     86.1 2.003e+04 1.917e-08
  1.03601     85.8 2.072e+04 2.775e-08
  1.03776     86.6 2.139e+04 3.046e-08
  1.04398     87.0 2.111e+04 2.807e-08
  1.05414     87.3 2.075e+04 2.522e-08
  1.06431     87.8 2.033e+04 2.217e-08
  1.06988     88.0 1.998e+04 1.901e-08
  1.07497     87.9 2.038e+04 2.058e-08
  1.08465     88.2 2.002e+04 1.728e-08
  1.09763     89.1 1.961e+04 1.422e-08
  1.10780     87.8 1.940e+04 1.106e-08
  1.12029     87.6 1.991e+04 1.095e-08
  1.14067     86.0 1.901e+04 8.564e-09
  1.16101     84.9 1.830e+04 8.314e-09
  1.17342     84.6 1.813e+04 8.800e-09
  1.18358     83.1 1.859e+04 8.056e-09
  1.20168     83.5 1.889e+04 9.462e-09
  1.22202     83.8 1.966e+04 1.180e-08
  1.23899     84.0 2.049e+04 1.488e-08
  1.24915     82.7 1.982e+04 8.173e-09
  1.26269     82.7 1.931e+04 9.332e-09
  1.28303     82.3 1.875e+04 9.624e-09
  1.30337     82.0 1.787e+04 8.966e-09
  1.31472     82.1 1.689e+04 7.393e-09
  1.32489     81.5 1.495e+04 4.366e-09
  1.34404     81.6 1.462e+04 3.547e-09
  1.36438     81.5 1.414e+04 2.684e-09
  1.38029     81.3 1.341e+04 1.958e-09
  1.39046     80.5 1.277e+04 1.459e-09
  1.40505     80.3 1.216e+04 1.133e-09
  1.42539     80.3 1.172e+04 9.202e-10
  1.44572     80.5 1.149e+04 7.852e-10
  1.45603     80.6 1.140e+04 6.993e-10
  1.46620     80.2 1.130e+04 6.621e-10
  1.48640     80.0 1.130e+04 6.300e-10
  1.50673     79.8 1.131e+04 6.309e-10
  1.52160     79.4 1.135e+04 6.460e-10
  1.53177     79.2 1.165e+04 7.749e-10
  1.54741     78.7 1.187e+04 8.377e-10
  1.57801     77.8 1.247e+04 1.049e-09
  1.60851     75.6 1.332e+04 1.488e-09
  1.62875     74.3 1.358e+04 1.830e-09
  1.64909     73.4 1.364e+04 2.082e-09
  1.66290     72.7 1.365e+04 2.217e-09
  1.67307     72.3 1.398e+04 2.817e-09
  1.68976     71.7 1.405e+04 2.781e-09
  1.71010     71.0 1.412e+04 2.674e-09
  1.72847     70.3 1.404e+04 2.515e-09
  1.73864     69.8 1.441e+04 2.767e-09
  1.75077     69.1 1.431e+04 2.443e-09
  1.77111     68.5 1.403e+04 2.115e-09
  1.79145     68.1 1.367e+04 1.830e-09
  1.80421     67.9 1.331e+04 1.605e-09
  1.81438     67.3 1.335e+04 1.664e-09
  1.83212     67.2 1.301e+04 1.455e-09
  1.85246     67.4 1.272e+04 1.278e-09
  1.86978     67.6 1.247e+04 1.120e-09
  1.87995     67.3 1.233e+04 1.039e-09
  1.89313     67.5 1.207e+04 8.827e-10
  1.91347     67.6 1.181e+04 7.538e-10
  1.93380     67.7 1.158e+04 6.584e-10
  1.94552     67.9 1.140e+04 5.942e-10
  1.95568     67.7 1.121e+04 5.302e-10
  1.97448     68.0 1.106e+04 4.977e-10
  1.99481     68.5 1.095e+04 4.790e-10
  2.01108     69.0 1.089e+04 4.681e-10
  2.02125     68.9 1.080e+04 4.486e-10
  2.03549     69.4 1.081e+04 4.542e-10
  2.05582     70.0 1.087e+04 4.603e-10
  2.07616     70.5 1.094e+04 4.744e-10
  2.08682     71.0 1.099e+04 4.903e-10
  2.09699     71.2 1.103e+04 5.363e-10
  2.11683     71.8 1.114e+04 5.713e-10
  2.13717     71.9 1.145e+04 6.315e-10
  2.15239     71.2 1.219e+04 7.675e-10
  2.16256     69.7 1.314e+04 1.141e-09
  2.17784     68.0 1.407e+04 1.740e-09
  2.19818     66.9 1.462e+04 2.688e-09
  2.21796     66.9 1.499e+04 3.873e-09
  2.22813     66.9 1.526e+04 5.114e-09
  2.23885     67.4 1.531e+04 5.512e-09
  2.25919     68.0 1.525e+04 5.366e-09
  2.27953     68.8 1.506e+04 4.871e-09
  2.29370     69.2 1.482e+04 4.021e-09
  2.30386     68.9 1.465e+04 2.994e-09
  2.32020     68.0 1.427e+04 2.041e-09
  2.34054     66.3 1.367e+04 1.451e-09
  2.35927     64.5 1.291e+04 1.214e-09
  2.36943     62.6 1.182e+04 8.586e-10
  2.38121     62.2 1.170e+04 8.765e-10
  2.40155     62.2 1.158e+04 9.539e-10
  2.42188     62.5 1.169e+04 1.099e-09
  2.43500     62.9 1.190e+04 1.253e-09
  2.44517     61.9 1.167e+04 1.072e-09
  2.46256     62.1 1.214e+04 1.210e-09
  2.48289     61.8 1.249e+04 1.344e-09
  2.50057     61.3 1.299e+04 1.494e-09
  2.51074     60.3 1.272e+04 1.348e-09
  2.52357     59.3 1.325e+04 1.604e-09
  2.54391     57.8 1.430e+04 2.166e-09
  2.56424     56.4 1.563e+04 3.191e-09
  2.57631     54.4 1.710e+04 5.313e-09
  2.58648     54.4 1.617e+04 4.088e-09
  2.60492     50.9 1.834e+04 6.784e-09
  2.62012     48.5 1.926e+04 8.129e-09
  2.63024     45.6 2.046e+04 1.020e-08
  2.64041     39.2 2.420e+04 1.655e-08
  2.64686     30.6 2.720e+04 3.840e-08
  2.65195     29.8 2.721e+04 3.523e-08
  2.66074     23.3 2.604e+04 8.349e-08
  2.67091     18.3 2.475e+04 1.504e-07
  2.67965     12.3 2.509e+04 1.577e-07
  2.68473     12.3 2.500e+04 1.520e-07
  2.69125      5.9 2.547e+04 1.232e-07
  2.70142     -1.0 2.577e+04 7.651e-08
  2.71159     -8.0 2.427e+04 4.851e-08
  2.71752    -13.1 2.221e+04 3.095e-08
  2.72260    -12.5 2.236e+04 2.846e-08
  2.73192    -15.6 2.053e+04 2.040e-08
  2.74209    -17.7 1.950e+04 1.418e-08
  2.75030    -19.4 1.874e+04 1.139e-08
  2.75539    -18.5 1.865e+04 1.088e-08
  2.76243    -21.7 1.720e+04 6.452e-09
  2.77260    -23.0 1.690e+04 5.695e-09
  2.78276    -26.9 1.621e+04 3.885e-09
  2.78817    -27.4 1.638e+04 3.898e-09
  2.79330    -25.1 1.569e+04 3.196e-09
  2.80828    -29.6 1.437e+04 1.907e-09
  2.82862    -34.1 1.227e+04 1.317e-09
  2.84875    -35.4 1.169e+04 1.242e-09
  2.85892    -34.1 1.091e+04 7.814e-10
  2.86929    -34.8 1.097e+04 9.667e-10
  2.88963    -35.0 1.106e+04 1.138e-09
  2.90997    -35.8 1.201e+04 1.482e-09
  2.92449    -38.3 1.509e+04 2.488e-09
  2.93466    -34.9 1.270e+04 1.728e-09
  2.95064    -37.8 1.579e+04 3.248e-09
  2.97098    -40.9 1.755e+04 6.134e-09
  2.99006    -42.5 1.779e+04 9.215e-09
  3.00023    -39.9 1.807e+04 8.156e-09
  3.01165    -41.5 1.826e+04 1.072e-08
  3.03199    -42.1 1.788e+04 1.055e-08
  3.04719    -41.7 1.733e+04 7.971e-09
  3.05731    -41.7 1.760e+04 7.095e-09
  3.06575    -43.8 1.761e+04 4.208e-09
  3.07083    -40.8 1.748e+04 6.154e-09
  3.07765    -41.2 1.784e+04 4.855e-09
  3.09295    -44.6 1.713e+04 3.048e-09
  3.11333    -49.4 1.419e+04 1.578e-09
  3.13136    -51.1 1.247e+04 1.248e-09
  3.14153    -49.6 1.337e+04 1.591e-09
  3.15401    -50.1 1.281e+04 1.481e-09
  3.17434    -50.1 1.275e+04 1.500e-09
  3.19468    -50.1 1.305e+04 1.657e-09
  3.20710    -51.3 1.412e+04 2.034e-09
  3.21727    -51.2 1.515e+04 2.792e-09
  3.23535    -53.6 1.694e+04 4.248e-09
  3.25569    -55.6 1.823e+04 6.924e-09
  3.27267    -56.3 1.878e+04 1.062e-08
  3.28284    -55.8 1.989e+04 1.379e-08
  3.28975    -56.1 1.963e+04 1.582e-08
  3.29479    -55.8 2.065e+04 2.314e-08
  3.30135    -55.8 2.049e+04 2.324e-08
  3.31665    -55.7 2.030e+04 2.202e-08
  3.33704    -55.6 1.933e+04 1.581e-08
  3.34841    -55.2 1.782e+04 9.870e-09
  3.35858    -55.4 1.790e+04 8.462e-09
  3.37771    -55.9 1.627e+04 5.023e-09
  3.39805    -55.8 1.473e+04 3.055e-09
  3.41398    -55.5 1.357e+04 1.976e-09
  3.42414    -55.5 1.328e+04 1.848e-09
  3.43872    -54.7 1.254e+04 1.287e-09
  3.45906    -53.8 1.191e+04 9.361e-10
  3.47939    -52.8 1.153e+04 7.488e-10
  3.48971    -51.7 1.132e+04 6.666e-10
  3.49988    -51.1 1.087e+04 6.254e-10
  3.52007    -50.1 1.087e+04 5.876e-10
  3.54040    -49.1 1.087e+04 5.812e-10
  3.55528    -47.8 1.092e+04 5.931e-10
  3.56545    -47.2 1.064e+04 5.063e-10
  3.58108    -46.1 1.077e+04 5.345e-10
  3.60141    -45.1 1.087e+04 5.923e-10
  3.62085    -44.2 1.087e+04 6.416e-10
  3.63102    -43.5 1.062e+04 5.402e-10
  3.64209    -42.3 1.077e+04 6.113e-10
  3.66242    -41.3 1.097e+04 6.735e-10
  3.68276    -40.3 1.120e+04 7.325e-10
  3.69659    -39.4 1.136e+04 7.682e-10
  3.70676    -38.8 1.135e+04 6.952e-10
  3.72343    -37.9 1.157e+04 7.305e-10
  3.74377    -37.1 1.164e+04 7.448e-10
  3.76216    -36.2 1.163e+04 7.454e-10
  3.77233    -35.7 1.172e+04 7.616e-10
  3.78444    -34.8 1.167e+04 7.568e-10
  3.80478    -33.8 1.154e+04 7.253e-10
  3.82512    -32.8 1.144e+04 6.945e-10
  3.83789    -32.0 1.140e+04 6.748e-10
  3.84806    -31.1 1.146e+04 6.799e-10
  3.86579    -30.2 1.151e+04 6.491e-10
  3.88613    -29.3 1.157e+04 6.390e-10
  3.90346    -28.4 1.159e+04 6.462e-10
  3.91363    -27.6 1.158e+04 6.342e-10
  3.92680    -26.7 1.160e+04 6.375e-10
  3.94714    -25.7 1.149e+04 6.592e-10
  3.96747    -24.7 1.142e+04 6.904e-10
  3.97920    -23.7 1.142e+04 7.130e-10
  3.98937    -22.9 1.168e+04 7.422e-10
  4.00815    -21.8 1.165e+04 7.629e-10
  4.02848    -20.8 1.174e+04 7.875e-10
  4.04477    -20.0 1.188e+04 8.156e-10
  4.05494    -19.0 1.219e+04 9.596e-10
  4.06916    -18.2 1.227e+04 9.759e-10
  4.08949    -17.7 1.245e+04 1.019e-09
  4.10983    -17.3 1.265e+04 1.098e-09
  4.12051    -17.2 1.286e+04 1.235e-09
  4.13067    -15.5 1.290e+04 1.265e-09
  4.15050    -15.3 1.315e+04 1.426e-09
  4.17084    -15.2 1.340e+04 1.646e-09
  4.18608    -15.1 1.351e+04 1.909e-09
  4.19624    -13.7 1.359e+04 1.761e-09
  4.21151    -13.4 1.363e+04 2.007e-09
  4.23185    -12.6 1.367e+04 2.168e-09
  4.25164    -11.7 1.366e+04 2.191e-09
  4.26181    -10.5 1.377e+04 2.170e-09
  4.27252     -9.8 1.366e+04 2.080e-09
  4.29286     -9.2 1.336e+04 1.844e-09
  4.31320     -8.8 1.322e+04 1.681e-09
  4.32738     -8.4 1.309e+04 1.603e-09
  4.33755     -7.2 1.333e+04 1.738e-09
  4.35387     -6.6 1.322e+04 1.704e-09
  4.37421     -5.7 1.316e+04 1.722e-09
  4.39295     -4.6 1.321e+04 1.791e-09
  4.40312     -3.5 1.339e+04 1.931e-09
  4.41488     -2.3 1.346e+04 2.024e-09
  4.43522     -1.2 1.376e+04 2.226e-09
  4.45555     -0.7 1.490e+04 2.713e-09
  4.46869     -1.6 1.710e+04 4.032e-09
  4.47886      0.6 1.664e+04 3.654e-09
  4.49623     -1.6 1.953e+04 7.181e-09
  4.51656     -3.0 2.047e+04 1.606e-08
  4.53177     -3.2 2.070e+04 2.236e-08
  4.53924     -3.6 2.006e+04 3.174e-08
  4.54433     -3.7 2.010e+04 3.693e-08
  4.55206     -2.7 1.967e+04 5.549e-08
  4.56222     -1.3 1.974e+04 6.719e-08
  4.57203      0.3 2.007e+04 7.517e-08
  4.57711      1.2 2.026e+04 1.031e-07
  4.58256      1.9 2.014e+04 8.964e-08
  4.59273      2.4 2.076e+04 6.278e-08
  4.60290      1.6 2.174e+04 4.236e-08
  4.60990      0.4 2.278e+04 2.779e-08
  4.61498      1.1 2.294e+04 2.829e-08
  4.62323     -0.4 2.399e+04 1.854e-08
  4.63854     -5.0 2.322e+04 8.779e-09
  4.65892     -9.4 1.975e+04 4.385e-09
  4.67556    -11.4 1.545e+04 2.536e-09
  4.68573    -10.6 1.636e+04 2.623e-09
  4.69960    -11.1 1.360e+04 2.001e-09
  4.71993    -10.1 1.247e+04 1.536e-09
  4.74027     -9.2 1.187e+04 1.147e-09
  4.75130     -8.2 1.133e+04 8.579e-10
  4.76147     -7.3 1.150e+04 9.745e-10
  4.78094     -6.1 1.104e+04 7.191e-10
  4.80128     -5.1 1.055e+04 5.192e-10
  4.81687     -4.1 1.006e+04 3.770e-10
  4.82704     -3.2 1.024e+04 4.145e-10
  4.84195     -2.3 9.859e+03 3.102e-10
  4.86229     -1.6 9.690e+03 2.613e-10
  4.88244     -0.6 9.584e+03 2.373e-10
  4.89261      0.8 9.614e+03 2.392e-10
  4.91323      2.6 9.631e+03 2.193e-10
  4.95400      4.6 9.016e+03 1.610e-10
  4.99467      6.7 8.950e+03 1.523e-10
  5.02394      8.4 9.153e+03 1.833e-10
  5.04428     10.3 9.328e+03 1.927e-10
  5.07602     11.8 9.426e+03 2.639e-10
  5.11669     14.2 9.576e+03 3.582e-10
  5.15508     16.9 9.786e+03 4.011e-10
  5.17541     17.6 9.798e+03 4.140e-10
  5.18777     18.6 9.887e+03 3.772e-10
  5.20801     19.6 1.029e+04 3.694e-10
  5.22835     19.7 1.076e+04 3.846e-10
  5.24079     19.0 1.062e+04 3.837e-10
  5.25096     19.7 1.058e+04 3.868e-10
  5.26902     18.7 1.049e+04 4.390e-10
  5.28936     17.7 1.072e+04 5.423e-10
  5.30636     17.1 1.117e+04 7.559e-10
  5.31652     18.2 1.105e+04 6.944e-10
  5.33003     17.7 1.142e+04 8.681e-10
  5.35037     17.4 1.156e+04 1.023e-09
  5.37071     17.1 1.164e+04 1.080e-09
  5.38209     16.3 1.158e+04 1.029e-09
  5.39226     16.6 1.144e+04 9.182e-10
  5.41138     15.1 1.151e+04 8.487e-10
  5.43172     12.4 1.148e+04 7.889e-10
  5.44766      9.1 1.161e+04 8.053e-10
  5.45783     10.1 1.125e+04 7.559e-10
  5.47239      7.0 1.171e+04 9.109e-10
  5.49273      4.3 1.229e+04 1.172e-09
  5.51306      1.9 1.242e+04 1.362e-09
  5.52340     -0.1 1.234e+04 1.409e-09
  5.53357      0.6 1.202e+04 1.155e-09
  5.54674     -1.2 1.169e+04 1.110e-09
  5.55691     -0.2 1.169e+04 1.100e-09
  5.57407     -2.1 1.136e+04 8.823e-10
  5.58897     -4.7 1.112e+04 6.818e-10
  5.59914     -4.3 1.097e+04 6.444e-10
  5.61475     -7.4 1.087e+04 5.831e-10
  5.63508    -10.2 1.077e+04 5.674e-10
  5.65454    -12.0 1.043e+04 6.127e-10
  5.66470    -11.8 1.048e+04 6.370e-10
  5.67576    -12.7 1.056e+04 8.454e-10
  5.69609    -13.8 1.167e+04 1.208e-09
  5.71643    -16.7 1.423e+04 1.998e-09
  5.73027    -20.5 1.666e+04 3.520e-09
  5.74044    -20.3 1.626e+04 3.273e-09
  5.75710    -23.9 1.744e+04 5.054e-09
  5.77744    -26.7 1.746e+04 6.682e-09
  5.79584    -28.7 1.720e+04 7.372e-09
  5.80601    -28.7 1.667e+04 5.793e-09
  5.81811    -30.5 1.627e+04 5.872e-09
  5.83845    -32.0 1.589e+04 5.599e-09
  5.85879    -33.5 1.541e+04 4.843e-09
  5.87158    -34.8 1.469e+04 3.782e-09
  5.88175    -35.0 1.430e+04 3.318e-09
  5.89946    -36.0 1.367e+04 2.631e-09
  5.91980    -37.0 1.300e+04 2.039e-09
  5.93715    -38.2 1.237e+04 1.623e-09
  5.94732    -38.3 1.217e+04 1.528e-09
  5.96047    -39.4 1.181e+04 1.343e-09
  5.98081    -40.4 1.169e+04 1.264e-09
  6.00114    -41.3 1.169e+04 1.239e-09
  6.01289    -42.1 1.168e+04 1.222e-09
  6.02305    -42.4 1.166e+04 1.198e-09
  6.04182    -43.1 1.149e+04 1.125e-09
  6.06215    -43.5 1.119e+04 1.014e-09
  6.07845    -43.7 1.082e+04 8.808e-10
  6.08862    -43.9 1.061e+04 7.992e-10
  6.10283    -43.9 1.020e+04 6.573e-10
  6.12316    -43.6 9.815e+03 5.248e-10
  6.14350    -43.6 9.544e+03 4.302e-10
  6.15429    -44.0 9.347e+03 3.679e-10
  6.17472    -44.5 9.285e+03 3.493e-10
  6.21487    -44.5 8.990e+03 2.896e-10
  6.25555    -43.8 8.666e+03 2.421e-10
  6.28552    -43.0 8.594e+03 2.323e-10
  6.30586    -43.0 8.854e+03 2.736e-10
  6.33689    -42.4 8.935e+03 2.876e-10
  6.37757    -41.9 9.356e+03 3.766e-10
  6.41666    -41.3 9.799e+03 5.015e-10
  6.43700    -40.9 9.737e+03 4.733e-10
  6.45892    -40.2 1.002e+04 5.583e-10
  6.48932    -39.6 1.034e+04 7.092e-10
  6.50237    -39.1 1.035e+04 7.056e-10
  6.51254    -38.9 1.013e+04 5.925e-10
  6.52990    -38.6 1.018e+04 5.620e-10
  6.55023    -38.4 1.014e+04 5.120e-10
  6.56804    -38.4 1.003e+04 4.578e-10
  6.58847    -38.3 9.688e+03 3.527e-10
  6.62161    -37.7 9.270e+03 2.738e-10
  6.66228    -37.5 9.161e+03 2.546e-10
  6.69927    -37.6 9.233e+03 2.664e-10
  6.71961    -37.7 9.254e+03 2.732e-10
  6.74363    -38.6 9.770e+03 4.077e-10
  6.78430    -38.9 1.035e+04 6.466e-10
  6.82498    -38.8 1.082e+04 8.900e-10
  6.85075    -38.7 1.101e+04 9.822e-10
  6.87109    -38.3 1.067e+04 8.358e-10
  6.90632    -38.3 1.014e+04 6.040e-10
  6.94700    -39.0 9.516e+03 4.236e-10
  6.98189    -40.1 9.276e+03 3.786e-10
  7.00222    -39.8 8.830e+03 2.948e-10
  7.02834    -40.4 9.103e+03 3.496e-10
  7.06902    -40.5 9.685e+03 5.109e-10
  7.10969    -40.3 1.007e+04 6.434e-10
  7.13336    -40.2 1.015e+04 6.726e-10
  7.15370    -39.3 9.886e+03 5.871e-10
  7.19104    -39.3 9.654e+03 4.760e-10
  7.23171    -40.0 9.169e+03 3.251e-10
  7.26450    -41.3 9.061e+03 2.920e-10
  7.28484    -41.3 9.025e+03 2.781e-10
  7.30279    -42.8 9.379e+03 3.333e-10
  7.32303    -43.3 9.563e+03 3.910e-10
  7.34004    -44.3 1.005e+04 5.811e-10
  7.35021    -44.5 1.015e+04 6.149e-10
  7.36370    -45.1 1.094e+04 9.288e-10
  7.38404    -46.2 1.196e+04 1.418e-09
  7.40438    -47.4 1.305e+04 2.131e-09
  7.41578    -48.5 1.406e+04 3.074e-09
  7.42595    -48.7 1.433e+04 3.478e-09
  7.44505    -49.9 1.515e+04 4.465e-09
  7.46539    -51.4 1.563e+04 5.094e-09
  7.48135    -53.2 1.574e+04 5.228e-09
  7.49152    -54.0 1.601e+04 5.607e-09
  7.50606    -55.7 1.570e+04 5.357e-09
  7.52640    -56.8 1.492e+04 4.344e-09
  7.54673    -57.4 1.405e+04 3.235e-09
  7.55708    -57.8 1.324e+04 2.293e-09
  7.56725    -58.5 1.338e+04 2.524e-09
  7.58741    -58.9 1.258e+04 1.729e-09
  7.60774    -59.8 1.175e+04 1.176e-09
  7.62265    -60.9 1.090e+04 8.315e-10
  7.63282    -61.7 1.117e+04 9.723e-10
  7.64842    -62.4 1.053e+04 7.738e-10
  7.66875    -62.8 1.020e+04 6.851e-10
  7.68822    -62.6 1.007e+04 6.527e-10
  7.69839    -63.0 1.032e+04 7.560e-10
  7.70943    -62.5 1.023e+04 7.199e-10
  7.72976    -62.1 1.013e+04 6.752e-10
  7.75010    -61.7 1.000e+04 6.179e-10
  7.76396    -61.4 9.840e+03 5.603e-10
  7.77413    -62.2 9.816e+03 5.540e-10
  7.79077    -62.1 9.667e+03 5.072e-10
  7.80372    -62.0 9.587e+03 4.781e-10
  7.81389    -63.1 9.756e+03 5.164e-10
  7.82953    -63.0 9.767e+03 5.118e-10
  7.83970    -64.1 9.987e+03 5.730e-10
  7.85178    -64.1 1.008e+04 5.877e-10
  7.87212    -64.1 1.016e+04 6.002e-10
  7.89246    -64.1 1.020e+04 6.077e-10
  7.90526    -64.1 1.022e+04 6.112e-10
