# Columns:
#   distance along LOS (in CHIMPs)
#   peculiar velocity  (in km/s)
#   temperature (K)
#   HI number density
# pos=(111.59,167.969,17.5295), angles=(1.33868,1.60137)
  0.00257      4.9 1.086e+04 5.588e-10
  0.01518      4.9 1.078e+04 5.598e-10
  0.03526      5.0 1.073e+04 5.543e-10
  0.05518      5.5 1.068e+04 5.377e-10
  0.06522      5.4 1.071e+04 5.620e-10
  0.07542      5.6 1.072e+04 5.628e-10
  0.09550      6.3 1.075e+04 5.666e-10
  0.11558      6.5 1.076e+04 5.691e-10
  0.13565      7.2 1.079e+04 5.690e-10
  0.14783      7.3 1.081e+04 5.722e-10
  0.15797      7.2 1.086e+04 6.114e-10
  0.17591      7.3 1.091e+04 6.276e-10
  0.19589      7.6 1.088e+04 6.272e-10
  0.21597      8.1 1.087e+04 6.368e-10
  0.23044      8.5 1.091e+04 6.564e-10
  0.24048      8.4 1.091e+04 6.753e-10
  0.25613      8.9 1.091e+04 6.920e-10
  0.27621      9.4 1.089e+04 7.226e-10
  0.29629     10.7 1.089e+04 7.218e-10
  0.31305     11.0 1.090e+04 7.279e-10
  0.32319     11.0 1.080e+04 6.686e-10
  0.34668     12.9 1.073e+04 6.479e-10
  0.38684     14.7 1.057e+04 5.922e-10
  0.42699     16.5 1.039e+04 5.016e-10
  0.45895     18.1 1.020e+04 4.031e-10
  0.47903     16.6 9.856e+03 2.673e-10
  0.48851     18.3 9.784e+03 2.535e-10
  0.50859     17.8 9.505e+03 1.836e-10
  0.54747     19.9 9.574e+03 2.169e-10
  0.58762     22.8 1.001e+04 2.983e-10
  0.61764     24.2 1.011e+04 3.318e-10
  0.63763     24.7 1.014e+04 3.420e-10
  0.65353     25.6 1.018e+04 3.776e-10
  0.66357     25.3 1.010e+04 3.464e-10
  0.67778     26.2 1.018e+04 4.017e-10
  0.69786     27.2 1.036e+04 4.940e-10
  0.71794     28.3 1.067e+04 6.156e-10
  0.73614     29.1 1.118e+04 7.911e-10
  0.74618     28.8 1.107e+04 7.038e-10
  0.75810     29.1 1.181e+04 9.714e-10
  0.77818     28.8 1.277e+04 1.458e-09
  0.79826     27.8 1.452e+04 2.599e-09
  0.81834     26.0 1.674e+04 5.570e-09
  0.82879     25.1 1.833e+04 1.192e-08
  0.83883     24.9 1.759e+04 9.557e-09
  0.85849     24.8 1.872e+04 1.690e-08
  0.87857     24.8 1.946e+04 2.303e-08
  0.89865     24.7 1.980e+04 2.431e-08
  0.91140     24.3 1.988e+04 1.869e-08
  0.92144     23.4 1.949e+04 1.724e-08
  0.93881     21.3 1.950e+04 1.096e-08
  0.95889     17.6 1.799e+04 6.278e-09
  0.97897     14.1 1.546e+04 4.120e-09
  0.99401     12.5 1.393e+04 3.183e-09
  1.00405     12.2 1.421e+04 3.483e-09
  1.01912     11.4 1.453e+04 3.561e-09
  1.03920      8.9 1.594e+04 4.488e-09
  1.05928      5.7 1.763e+04 7.321e-09
  1.07662      4.6 1.826e+04 1.105e-08
  1.08666      4.3 1.881e+04 1.441e-08
  1.09944      4.5 1.878e+04 1.485e-08
  1.11829      5.1 1.833e+04 1.307e-08
  1.12833      4.9 1.872e+04 1.565e-08
  1.13960      5.6 1.771e+04 9.718e-09
  1.15923      5.1 1.638e+04 4.970e-09
  1.16927      4.7 1.658e+04 6.251e-09
  1.17975      3.5 1.499e+04 3.246e-09
  1.19983      2.4 1.346e+04 1.802e-09
  1.21991      2.3 1.242e+04 1.154e-09
  1.23999      2.7 1.202e+04 8.872e-10
  1.27021      4.8 1.206e+04 8.626e-10
  1.31046      6.6 1.156e+04 6.013e-10
  1.33469      8.2 1.122e+04 5.186e-10
  1.35477      8.5 1.194e+04 9.164e-10
  1.39078     10.1 1.195e+04 9.529e-10
  1.43094     11.9 1.203e+04 1.017e-09
  1.47109     13.9 1.192e+04 1.000e-09
  1.49991     16.1 1.167e+04 9.089e-10
  1.51999     16.3 1.248e+04 1.484e-09
  1.55141     18.7 1.197e+04 1.035e-09
  1.59157     20.9 1.135e+04 6.310e-10
  1.63172     22.6 1.076e+04 4.230e-10
  1.66513     24.6 1.059e+04 3.973e-10
  1.68521     24.3 1.093e+04 4.589e-10
  1.71204     26.5 1.082e+04 4.459e-10
  1.75220     28.9 1.076e+04 4.493e-10
  1.77802     31.3 1.073e+04 4.458e-10
  1.79810     31.2 1.123e+04 6.899e-10
  1.83035     33.5 1.128e+04 7.213e-10
  1.85043     33.1 1.103e+04 5.888e-10
  1.87267     35.4 1.103e+04 5.792e-10
  1.91283     37.6 1.109e+04 5.851e-10
  1.95299     39.4 1.120e+04 6.057e-10
  1.98301     40.5 1.110e+04 5.733e-10
  2.00299     41.4 1.112e+04 5.885e-10
  2.01545     42.1 1.120e+04 6.413e-10
  2.02549     41.8 1.111e+04 6.230e-10
  2.04315     42.7 1.120e+04 7.006e-10
  2.06322     43.7 1.126e+04 7.765e-10
  2.08330     44.6 1.129e+04 8.245e-10
  2.09806     45.6 1.129e+04 8.304e-10
  2.10810     45.3 1.126e+04 8.164e-10
  2.12346     46.2 1.120e+04 7.914e-10
  2.14354     47.1 1.104e+04 7.133e-10
  2.16362     47.8 1.082e+04 6.188e-10
  2.18067     48.7 1.057e+04 5.134e-10
  2.19071     48.3 1.054e+04 4.843e-10
  2.20378     48.8 1.036e+04 4.129e-10
  2.23399     50.2 9.991e+03 2.869e-10
  2.27425     52.3 9.600e+03 1.952e-10
  2.31441     54.2 9.255e+03 1.419e-10
  2.34609     56.3 8.931e+03 1.116e-10
  2.36617     55.5 8.762e+03 8.846e-11
  2.39472     57.9 8.490e+03 8.283e-11
  2.43488     60.6 8.427e+03 8.197e-11
  2.47504     63.3 8.423e+03 8.251e-11
  2.51131     66.0 8.415e+03 8.585e-11
  2.53139     65.7 8.421e+03 8.563e-11
  2.55535     68.3 8.446e+03 9.544e-11
  2.59551     70.7 8.503e+03 1.133e-10
  2.63567     73.1 8.597e+03 1.407e-10
  2.67583     75.4 8.738e+03 1.760e-10
  2.69661     77.7 8.916e+03 2.179e-10
  2.71668     77.1 8.919e+03 2.220e-10
  2.75614     79.1 9.074e+03 2.636e-10
  2.79630     81.0 9.240e+03 3.023e-10
  2.83646     82.7 9.389e+03 3.396e-10
  2.86183     84.3 9.526e+03 3.766e-10
  2.88190     83.8 9.305e+03 3.218e-10
  2.91677     85.3 9.323e+03 3.314e-10
  2.95693     86.8 9.314e+03 3.385e-10
  2.99709     88.3 9.348e+03 3.557e-10
  3.02705     89.6 9.479e+03 3.884e-10
  3.04712     89.3 9.457e+03 3.866e-10
  3.06727     89.9 9.544e+03 4.201e-10
  3.08686     90.4 9.657e+03 4.699e-10
  3.09690     90.9 9.508e+03 4.052e-10
  3.10733     91.1 9.731e+03 4.857e-10
  3.11950     91.2 9.953e+03 5.893e-10
  3.12954     91.3 9.970e+03 6.196e-10
  3.14748     91.4 1.023e+04 7.491e-10
  3.16756     91.4 1.053e+04 9.024e-10
  3.18764     91.4 1.083e+04 1.057e-09
  3.20211     91.2 1.103e+04 1.127e-09
  3.21215     90.7 1.186e+04 1.303e-09
  3.22780     90.1 1.185e+04 1.286e-09
  3.24788     89.4 1.172e+04 1.182e-09
  3.26796     88.5 1.136e+04 9.702e-10
  3.28472     87.2 1.075e+04 7.356e-10
  3.29476     86.5 1.239e+04 1.271e-09
  3.30811     85.3 1.126e+04 9.964e-10
  3.32819     84.2 1.041e+04 8.448e-10
  3.34827     83.6 1.024e+04 8.100e-10
  3.36733     83.5 1.035e+04 8.379e-10
  3.37737     83.0 1.052e+04 1.027e-09
  3.38843     82.9 1.065e+04 1.054e-09
  3.40851     82.9 1.089e+04 1.123e-09
  3.42859     82.9 1.111e+04 1.219e-09
  3.44867     82.8 1.130e+04 1.323e-09
  3.45998     82.7 1.146e+04 1.422e-09
  3.47002     81.7 1.151e+04 1.440e-09
  3.48882     81.3 1.158e+04 1.437e-09
  3.50890     80.9 1.157e+04 1.398e-09
  3.52898     80.4 1.145e+04 1.287e-09
  3.54259     79.8 1.122e+04 1.137e-09
  3.55263     78.1 1.106e+04 1.039e-09
  3.56914     77.5 1.074e+04 8.987e-10
  3.58922     76.9 1.046e+04 7.924e-10
  3.60930     76.5 1.023e+04 7.151e-10
  3.62520     76.2 1.006e+04 6.536e-10
  3.63524     75.0 1.002e+04 6.447e-10
  3.64946     75.1 9.856e+03 5.836e-10
  3.66953     75.3 9.684e+03 5.169e-10
  3.68961     75.4 9.494e+03 4.474e-10
  3.70781     75.4 9.321e+03 3.872e-10
  3.71785     74.9 9.190e+03 3.624e-10
  3.72977     74.8 9.040e+03 3.233e-10
  3.74639     74.7 8.972e+03 3.111e-10
  3.75643     74.8 9.109e+03 3.366e-10
  3.76993     74.6 9.114e+03 3.371e-10
  3.79001     74.5 9.147e+03 3.416e-10
  3.80046     74.1 9.238e+03 3.564e-10
  3.81050     73.1 9.342e+03 3.637e-10
  3.83016     71.2 9.963e+03 4.328e-10
  3.85024     68.4 1.081e+04 6.166e-10
  3.87032     66.5 1.226e+04 1.019e-09
  3.88307     65.6 1.313e+04 1.529e-09
  3.89311     64.2 1.430e+04 2.591e-09
  3.91048     64.1 1.469e+04 3.507e-09
  3.93056     64.2 1.466e+04 3.812e-09
  3.95064     64.4 1.443e+04 3.547e-09
  3.96568     64.5 1.391e+04 2.801e-09
  3.97572     63.9 1.397e+04 2.816e-09
  4.00093     64.4 1.284e+04 1.608e-09
  4.03845     64.6 1.169e+04 9.116e-10
  4.05852     62.9 1.145e+04 6.842e-10
  4.08135     62.9 1.039e+04 4.113e-10
  4.12150     64.0 9.904e+03 3.373e-10
  4.16166     65.9 9.851e+03 3.350e-10
  4.20182     67.8 9.854e+03 3.393e-10
  4.22374     69.7 9.913e+03 3.568e-10
  4.24382     69.9 9.976e+03 3.484e-10
  4.28213     71.6 1.010e+04 3.644e-10
  4.30626     72.1 1.015e+04 3.871e-10
  4.31620     72.1 1.019e+04 3.866e-10
  4.33214     72.7 1.025e+04 4.038e-10
  4.35222     73.3 1.043e+04 4.195e-10
  4.37229     73.5 1.054e+04 4.255e-10
  4.38887     74.6 1.064e+04 4.422e-10
  4.40252     74.6 1.089e+04 4.839e-10
  4.41616     73.3 1.178e+04 8.575e-10
  4.44277     74.4 1.194e+04 9.612e-10
  4.48292     75.6 1.220e+04 1.157e-09
  4.52308     76.8 1.252e+04 1.386e-09
  4.55418     77.8 1.281e+04 1.564e-09
  4.57426     78.4 1.295e+04 1.771e-09
  4.60340     79.2 1.317e+04 1.947e-09
  4.64355     80.0 1.320e+04 1.924e-09
  4.68371     81.1 1.300e+04 1.673e-09
  4.71373     82.0 1.269e+04 1.461e-09
  4.72925     83.0 1.237e+04 1.220e-09
  4.73929     83.4 1.286e+04 1.513e-09
  4.75379     83.7 1.260e+04 1.209e-09
  4.77387     83.6 1.237e+04 1.005e-09
  4.79395     83.5 1.233e+04 9.708e-10
  4.81186     83.5 1.235e+04 9.764e-10
  4.82190     83.1 1.323e+04 1.473e-09
  4.83411     82.9 1.329e+04 1.525e-09
  4.85419     82.7 1.346e+04 1.695e-09
  4.87427     82.5 1.374e+04 2.017e-09
  4.89434     82.1 1.407e+04 2.492e-09
  4.90451     81.9 1.445e+04 3.105e-09
  4.91455     81.2 1.489e+04 3.696e-09
  4.93450     81.1 1.509e+04 4.111e-09
  4.95458     81.0 1.522e+04 4.456e-09
  4.97466     80.9 1.522e+04 4.276e-09
  4.98712     80.7 1.517e+04 3.927e-09
  4.99716     79.3 1.471e+04 3.120e-09
  5.01482     78.6 1.442e+04 2.725e-09
  5.03490     77.7 1.421e+04 2.541e-09
  5.05498     76.9 1.415e+04 2.535e-09
  5.06546     75.9 1.416e+04 2.583e-09
  5.07018     75.2 1.378e+04 2.309e-09
  5.07977     74.8 1.309e+04 1.782e-09
  5.09513     74.2 1.332e+04 1.939e-09
  5.11521     73.4 1.365e+04 2.202e-09
  5.13529     72.5 1.402e+04 2.515e-09
  5.15234     71.4 1.437e+04 2.808e-09
  5.16238     72.1 1.345e+04 1.852e-09
  5.17545     70.9 1.380e+04 2.064e-09
  5.19553     69.2 1.420e+04 2.355e-09
  5.21561     67.1 1.469e+04 2.808e-09
  5.23495     64.5 1.532e+04 3.526e-09
  5.24499     65.6 1.481e+04 2.866e-09
  5.25576     63.0 1.589e+04 4.195e-09
  5.27584     60.3 1.687e+04 5.734e-09
  5.29592     57.5 1.756e+04 7.074e-09
  5.31600     54.9 1.760e+04 7.166e-09
  5.32760     52.6 1.727e+04 6.528e-09
  5.33764     54.0 1.787e+04 7.755e-09
  5.35616     52.0 1.728e+04 6.611e-09
  5.37624     50.3 1.646e+04 4.909e-09
  5.39632     48.8 1.565e+04 3.265e-09
  5.41021     47.1 1.487e+04 1.998e-09
  5.42025     48.5 1.595e+04 3.423e-09
  5.43647     47.0 1.529e+04 2.093e-09
  5.45655     45.1 1.413e+04 1.243e-09
  5.47663     42.9 1.255e+04 9.404e-10
  5.49282     40.7 1.244e+04 9.813e-10
  5.50286     41.3 1.361e+04 1.422e-09
  5.51679     37.5 1.405e+04 1.738e-09
  5.53687     33.7 1.550e+04 3.210e-09
  5.55695     31.6 1.699e+04 6.717e-09
  5.57543     31.0 1.802e+04 1.137e-08
  5.58547     31.5 1.828e+04 1.122e-08
  5.59710     30.2 1.844e+04 1.182e-08
  5.61718     28.8 1.828e+04 1.090e-08
  5.63726     27.2 1.763e+04 7.964e-09
  5.65734     25.0 1.641e+04 4.922e-09
  5.66808     22.3 1.482e+04 3.024e-09
  5.67812     21.5 1.431e+04 2.484e-09
  5.69750     19.5 1.302e+04 1.795e-09
  5.71496     19.1 1.249e+04 1.509e-09
  5.72500     18.9 1.256e+04 1.539e-09
  5.73766     19.1 1.234e+04 1.376e-09
  5.75069     19.6 1.213e+04 1.218e-09
  5.76073     19.7 1.205e+04 1.168e-09
  5.77781     20.0 1.181e+04 1.032e-09
  5.79789     20.2 1.157e+04 9.057e-10
  5.81797     20.3 1.135e+04 8.167e-10
  5.83330     20.4 1.116e+04 7.458e-10
  5.84334     20.6 1.117e+04 7.693e-10
  5.85813     20.8 1.107e+04 7.353e-10
  5.88835     21.3 1.072e+04 5.663e-10
  5.91610     21.4 1.049e+04 5.124e-10
  5.93618     22.0 1.074e+04 6.005e-10
  5.96876     22.1 1.052e+04 5.221e-10
  6.00892     21.8 1.022e+04 4.011e-10
  6.04907     20.8 9.764e+03 2.749e-10
  6.08132     18.8 9.389e+03 1.974e-10
  6.10140     17.6 1.033e+04 2.761e-10
  6.12939     13.7 1.061e+04 2.846e-10
  6.15941     11.1 1.080e+04 2.936e-10
  6.17378      7.8 1.138e+04 4.428e-10
  6.18382      6.5 1.163e+04 6.219e-10
  6.19947      5.2 1.154e+04 9.417e-10
  6.21955      5.3 1.135e+04 1.130e-09
  6.23963      6.1 1.119e+04 1.098e-09
  6.25639      7.1 1.096e+04 9.152e-10
  6.26643      6.9 1.090e+04 7.321e-10
  6.27979      6.5 1.081e+04 4.588e-10
  6.29987      5.0 1.067e+04 2.826e-10
  6.33008      3.3 1.010e+04 2.522e-10
  6.37034      3.0 9.757e+03 2.557e-10
  6.41049      3.5 9.688e+03 2.918e-10
  6.43184      4.4 9.821e+03 3.436e-10
  6.45192      4.8 9.644e+03 3.038e-10
  6.49081      5.6 9.786e+03 3.366e-10
  6.53097      6.5 9.815e+03 3.639e-10
  6.57113      7.1 9.954e+03 4.232e-10
  6.59706      7.6 1.005e+04 4.695e-10
  6.61714      8.5 9.666e+03 3.482e-10
  6.65144      9.3 9.640e+03 3.423e-10
  6.69160     10.1 9.565e+03 3.135e-10
  6.73176     10.9 9.565e+03 2.854e-10
  6.76228     11.4 9.652e+03 2.923e-10
  6.78236     12.3 9.462e+03 2.494e-10
  6.81207     12.7 9.758e+03 3.123e-10
  6.85223     13.3 1.004e+04 4.102e-10
  6.89239     14.1 1.016e+04 4.715e-10
  6.92750     14.9 1.025e+04 4.798e-10
  6.94758     15.8 1.019e+04 4.575e-10
  6.97270     16.4 1.031e+04 4.750e-10
  7.01286     16.6 1.052e+04 5.236e-10
  7.03423     16.6 1.101e+04 6.909e-10
  7.05431     17.5 1.132e+04 8.863e-10
  7.09272     17.8 1.204e+04 1.245e-09
  7.11280     17.7 1.226e+04 1.350e-09
  7.12320     16.8 1.289e+04 1.787e-09
  7.14318     16.3 1.353e+04 2.516e-09
  7.16326     16.4 1.415e+04 3.534e-09
  7.18334     17.1 1.465e+04 4.352e-09
  7.19522     17.4 1.478e+04 4.416e-09
  7.20526     17.3 1.468e+04 4.363e-09
  7.22349     18.0 1.453e+04 4.042e-09
  7.24357     18.6 1.422e+04 3.260e-09
  7.26365     18.7 1.375e+04 2.376e-09
  7.27783     18.4 1.308e+04 1.677e-09
  7.28787     18.2 1.265e+04 1.400e-09
  7.30381     17.7 1.224e+04 1.229e-09
  7.33402     18.2 1.198e+04 1.168e-09
  7.37428     19.2 1.209e+04 1.242e-09
  7.40430     19.3 1.223e+04 1.325e-09
  7.42428     19.3 1.255e+04 1.495e-09
  7.44305     18.8 1.303e+04 1.806e-09
  7.45309     19.4 1.303e+04 1.820e-09
  7.46444     18.2 1.400e+04 2.526e-09
  7.48452     15.7 1.551e+04 4.029e-09
  7.50460     13.2 1.696e+04 6.634e-09
  7.52468     11.2 1.755e+04 8.376e-09
  7.53570      9.6 1.740e+04 8.092e-09
  7.54574     10.1 1.819e+04 1.127e-08
  7.56483      9.5 1.741e+04 8.831e-09
  7.58491      8.7 1.638e+04 5.415e-09
  7.60499      6.5 1.541e+04 3.024e-09
  7.61831      3.2 1.428e+04 1.856e-09
  7.62835      3.8 1.458e+04 2.087e-09
  7.64515      1.1 1.321e+04 1.699e-09
  7.66523      0.9 1.296e+04 1.664e-09
  7.68353      1.0 1.291e+04 1.645e-09
  7.69357      2.2 1.295e+04 1.655e-09
  7.70092      2.5 1.286e+04 1.587e-09
  7.71096      2.6 1.290e+04 1.733e-09
  7.72546      3.0 1.281e+04 1.612e-09
  7.74554      3.6 1.265e+04 1.392e-09
  7.77358      4.2 1.214e+04 8.854e-10
  7.79366      5.0 1.251e+04 9.620e-10
  7.81592      5.8 1.224e+04 6.195e-10
  7.85617      7.3 1.162e+04 3.924e-10
  7.89633      9.2 1.092e+04 3.590e-10
  7.93649     11.7 1.076e+04 3.681e-10
  7.95898     14.4 1.068e+04 3.988e-10
  7.97906     14.4 1.089e+04 4.895e-10
  8.01680     17.1 1.086e+04 4.843e-10
  8.05696     19.6 1.087e+04 4.670e-10
  8.09712     22.0 1.086e+04 4.489e-10
  8.12420     24.2 1.084e+04 4.255e-10
  8.14428     23.9 1.089e+04 3.923e-10
  8.16730     25.2 1.079e+04 3.938e-10
  8.18728     26.2 1.069e+04 3.830e-10
  8.20662     27.2 1.063e+04 3.812e-10
  8.21666     27.2 1.063e+04 3.656e-10
  8.22744     28.2 1.059e+04 3.672e-10
  8.24751     29.2 1.056e+04 3.713e-10
  8.26759     30.1 1.051e+04 3.784e-10
  8.28767     31.0 1.048e+04 3.882e-10
  8.29927     31.9 1.045e+04 3.968e-10
  8.30930     31.9 1.043e+04 3.816e-10
  8.32783     32.8 1.036e+04 3.852e-10
  8.34306     33.7 1.032e+04 3.879e-10
  8.35310     33.3 1.099e+04 6.173e-10
  8.37813     34.8 1.092e+04 6.255e-10
  8.41838     37.2 1.099e+04 6.717e-10
  8.45464     38.4 1.139e+04 8.049e-10
  8.47462     38.3 1.153e+04 8.030e-10
  8.48846     37.6 1.224e+04 1.058e-09
  8.50854     35.6 1.357e+04 1.865e-09
  8.52862     34.4 1.502e+04 3.761e-09
  8.54710     34.7 1.630e+04 7.008e-09
  8.55713     35.0 1.682e+04 8.711e-09
  8.56878     35.7 1.777e+04 1.209e-08
  8.58886     35.5 1.782e+04 1.208e-08
  8.60893     35.6 1.755e+04 1.058e-08
  8.62901     35.2 1.691e+04 7.771e-09
  8.63974     33.7 1.604e+04 5.398e-09
  8.64978     34.1 1.590e+04 5.075e-09
  8.66917     32.0 1.462e+04 3.535e-09
  8.68925     31.0 1.370e+04 2.990e-09
  8.70933     31.3 1.348e+04 2.835e-09
  8.72235     32.0 1.338e+04 2.724e-09
  8.73239     32.5 1.283e+04 2.163e-09
  8.74949     33.6 1.273e+04 2.044e-09
  8.76957     34.6 1.261e+04 1.880e-09
  8.78964     35.6 1.243e+04 1.641e-09
  8.80496     36.5 1.214e+04 1.358e-09
  8.81500     37.0 1.189e+04 1.239e-09
  8.82980     37.8 1.163e+04 1.050e-09
  8.84988     38.3 1.138e+04 9.026e-10
  8.86996     38.8 1.118e+04 8.264e-10
  8.88757     39.3 1.116e+04 8.229e-10
  8.89761     40.3 1.118e+04 8.299e-10
  8.91012     41.0 1.121e+04 8.431e-10
  8.93020     41.4 1.139e+04 9.113e-10
  8.95028     41.9 1.148e+04 9.678e-10
  8.97028     42.8 1.180e+04 1.179e-09
  8.99046     44.6 1.199e+04 1.250e-09
  9.02075     45.4 1.234e+04 1.494e-09
  9.06090     46.0 1.256e+04 1.612e-09
  9.10106     46.4 1.259e+04 1.572e-09
  9.13560     46.6 1.243e+04 1.366e-09
  9.15558     47.4 1.308e+04 1.892e-09
  9.17114     47.2 1.297e+04 1.770e-09
  9.19122     46.9 1.281e+04 1.635e-09
  9.21130     46.8 1.263e+04 1.511e-09
  9.22805     46.8 1.241e+04 1.380e-09
  9.23809     47.1 1.291e+04 1.742e-09
  9.25146     47.2 1.258e+04 1.523e-09
  9.27154     47.2 1.230e+04 1.327e-09
  9.29162     46.8 1.236e+04 1.328e-09
  9.31066     45.1 1.290e+04 1.461e-09
  9.32070     45.0 1.332e+04 1.735e-09
  9.33177     41.9 1.477e+04 2.387e-09
  9.35185     39.4 1.638e+04 4.180e-09
  9.37193     38.5 1.734e+04 6.896e-09
  9.39201     38.2 1.809e+04 9.420e-09
  9.40331     37.7 1.872e+04 1.012e-08
  9.41335     38.1 1.831e+04 8.886e-09
  9.43217     37.3 1.844e+04 8.698e-09
  9.45225     36.3 1.853e+04 8.073e-09
  9.47233     35.4 1.822e+04 7.116e-09
  9.48592     35.5 1.755e+04 6.003e-09
  9.49596     35.5 1.732e+04 5.142e-09
  9.51248     35.8 1.681e+04 4.468e-09
  9.53256     36.7 1.607e+04 3.689e-09
  9.55264     37.7 1.532e+04 2.905e-09
  9.56853     38.9 1.459e+04 2.252e-09
  9.57857     39.3 1.465e+04 2.259e-09
  9.59280     40.7 1.396e+04 1.769e-09
  9.61288     42.3 1.327e+04 1.377e-09
  9.63296     44.0 1.274e+04 1.094e-09
  9.65114     45.8 1.233e+04 8.858e-10
  9.66024     46.3 1.226e+04 8.844e-10
  9.66213     46.7 1.284e+04 1.150e-09
  9.67311     48.5 1.236e+04 9.217e-10
  9.69319     50.2 1.192e+04 7.520e-10
  9.71327     52.1 1.158e+04 6.436e-10
  9.73335     54.2 1.141e+04 5.953e-10
  9.74379     56.3 1.142e+04 5.877e-10
  9.75383     56.9 1.123e+04 5.722e-10
  9.77351     58.9 1.123e+04 5.670e-10
  9.79359     61.1 1.130e+04 5.752e-10
  9.81367     63.3 1.138e+04 6.055e-10
  9.82640     65.5 1.162e+04 6.586e-10
  9.83644     66.4 1.119e+04 5.699e-10
  9.85382     68.7 1.144e+04 6.247e-10
  9.87390     70.8 1.179e+04 7.075e-10
  9.89398     72.9 1.218e+04 8.245e-10
  9.90901     75.2 1.262e+04 9.786e-10
  9.91905     76.5 1.189e+04 7.413e-10
  9.93414     78.9 1.228e+04 8.699e-10
  9.95422     81.3 1.268e+04 1.028e-09
  9.97430     83.6 1.307e+04 1.208e-09
  9.99162     85.8 1.361e+04 1.420e-09
 10.00166     87.5 1.260e+04 9.988e-10
 10.01445     89.8 1.296e+04 1.132e-09
 10.03453     91.8 1.344e+04 1.273e-09
 10.05461     93.4 1.409e+04 1.426e-09
 10.07423     94.2 1.480e+04 1.596e-09
 10.08427     97.2 1.336e+04 1.087e-09
 10.09477     97.8 1.403e+04 1.202e-09
 10.11485     97.4 1.472e+04 1.350e-09
 10.13493     96.0 1.536e+04 1.511e-09
 10.15501     93.6 1.537e+04 1.701e-09
 10.16688     90.4 1.649e+04 1.629e-09
 10.17692     93.4 1.792e+04 1.218e-09
 10.19010     68.0 6.603e+04 8.547e-10
 10.20009     -3.6 7.976e+04 8.551e-09
 10.20809    -40.9 2.570e+04 1.214e-06
