# Columns:
#   distance along LOS (in CHIMPs)
#   peculiar velocity  (in km/s)
#   temperature (K)
#   HI number density
# pos=(238.263,45.7524,94.9126), angles=(1.25714,4.75967)
  0.00039    -33.7 9.321e+03 2.187e-10
  0.02134    -31.9 9.407e+03 2.483e-10
  0.04326    -30.0 9.528e+03 2.881e-10
  0.06382    -29.6 9.535e+03 3.031e-10
  0.10356    -27.8 9.674e+03 3.558e-10
  0.14468    -26.0 9.784e+03 4.016e-10
  0.16823    -24.3 9.837e+03 4.248e-10
  0.18879    -24.1 9.787e+03 4.169e-10
  0.22690    -22.5 9.741e+03 4.147e-10
  0.26801    -20.8 9.560e+03 3.682e-10
  0.29320    -19.1 9.356e+03 3.042e-10
  0.31376    -18.8 9.166e+03 2.525e-10
  0.35024    -17.2 8.934e+03 2.003e-10
  0.39135    -15.6 8.745e+03 1.713e-10
  0.41817    -14.0 8.636e+03 1.613e-10
  0.43873    -13.6 8.604e+03 1.542e-10
  0.47357    -11.8 8.555e+03 1.602e-10
  0.51468     -9.9 8.533e+03 1.676e-10
  0.54314     -8.0 8.495e+03 1.733e-10
  0.56370     -7.6 8.533e+03 1.838e-10
  0.59691     -5.8 8.519e+03 1.856e-10
  0.63802     -3.8 8.346e+03 1.812e-10
  0.66811     -1.7 8.178e+03 1.566e-10
  0.68867     -1.5 8.180e+03 1.589e-10
  0.72024      0.6 8.000e+03 1.271e-10
  0.76136      2.6 7.808e+03 1.003e-10
  0.79308      4.8 7.637e+03 8.022e-11
  0.81364      4.9 7.630e+03 8.079e-11
  0.84358      7.7 7.523e+03 7.026e-11
  0.88469      9.8 7.429e+03 5.808e-11
  0.91805     12.0 7.355e+03 5.221e-11
  0.93861     12.2 7.374e+03 5.609e-11
  0.96692     14.5 7.343e+03 5.462e-11
  1.00803     16.8 7.339e+03 5.458e-11
  1.04302     19.0 7.362e+03 5.845e-11
  1.06358     19.0 7.454e+03 6.963e-11
  1.09025     21.3 7.506e+03 7.597e-11
  1.13136     23.7 7.598e+03 8.146e-11
  1.16799     25.8 7.734e+03 8.600e-11
  1.18855     25.9 7.813e+03 1.006e-10
  1.21359     27.9 7.946e+03 1.042e-10
  1.25470     29.6 8.068e+03 1.174e-10
  1.29296     31.4 8.143e+03 1.457e-10
  1.31352     31.3 8.183e+03 1.593e-10
  1.33692     33.3 8.292e+03 2.037e-10
  1.37804     35.6 8.457e+03 2.472e-10
  1.41794     37.9 8.627e+03 2.666e-10
  1.43849     37.7 8.793e+03 3.368e-10
  1.46026     39.8 8.926e+03 3.467e-10
  1.50137     41.3 9.041e+03 3.422e-10
  1.54248     42.5 9.219e+03 3.833e-10
  1.56346     44.1 9.509e+03 4.983e-10
  1.58402     44.2 9.586e+03 5.043e-10
  1.62471     46.1 9.756e+03 5.685e-10
  1.66582     47.8 9.852e+03 5.637e-10
  1.68843     49.6 9.819e+03 4.775e-10
  1.69132     49.1 9.722e+03 4.006e-10
  1.70982     49.2 9.933e+03 4.651e-10
  1.74804     50.7 9.815e+03 4.113e-10
  1.78916     52.0 9.807e+03 3.699e-10
  1.81340     53.2 9.898e+03 3.950e-10
  1.83396     52.5 9.972e+03 4.098e-10
  1.87138     53.3 1.014e+04 5.114e-10
  1.91249     53.8 1.074e+04 7.369e-10
  1.93827     50.9 1.185e+04 1.167e-09
  1.95883     51.0 1.178e+04 1.093e-09
  1.98434     48.5 1.336e+04 2.440e-09
  2.00066     48.3 1.397e+04 3.325e-09
  2.01094     48.1 1.328e+04 2.365e-09
  2.02536     47.4 1.337e+04 2.507e-09
  2.04591     46.3 1.278e+04 2.435e-09
  2.06315     45.4 1.204e+04 2.004e-09
  2.08380     44.3 1.155e+04 1.656e-09
  2.11805     43.0 1.096e+04 1.344e-09
  2.14879     43.1 1.070e+04 9.933e-10
  2.16925     41.6 1.039e+04 8.305e-10
  2.18812     40.4 9.797e+03 6.478e-10
  2.20877     40.9 9.711e+03 5.740e-10
  2.24139     39.4 9.302e+03 4.292e-10
  2.28250     37.8 9.134e+03 3.745e-10
  2.31328     37.0 9.345e+03 4.385e-10
  2.33384     38.4 9.151e+03 3.866e-10
  2.36473     37.9 9.472e+03 4.623e-10
  2.40584     37.1 1.002e+04 5.565e-10
  2.43825     35.3 1.071e+04 6.689e-10
  2.45881     37.4 1.030e+04 5.135e-10
  2.47769     34.7 1.081e+04 6.467e-10
  2.49814     34.1 1.096e+04 7.068e-10
  2.51082     32.6 1.086e+04 8.491e-10
  2.52110     33.5 1.089e+04 8.288e-10
  2.53926     33.1 1.081e+04 9.129e-10
  2.55514     33.1 1.067e+04 9.601e-10
  2.56542     33.4 1.062e+04 9.818e-10
  2.57331     34.1 1.049e+04 7.898e-10
  2.58358     35.0 1.056e+04 8.906e-10
  2.60092     35.5 1.041e+04 5.833e-10
  2.62148     34.4 1.024e+04 3.557e-10
  2.65241     33.4 9.911e+03 2.376e-10
  2.68819     32.3 9.644e+03 1.808e-10
  2.70875     34.6 9.484e+03 1.735e-10
  2.73473     34.7 9.459e+03 1.615e-10
  2.77585     35.2 9.968e+03 2.367e-10
  2.81316     36.5 1.035e+04 3.908e-10
  2.83372     38.1 1.008e+04 2.818e-10
  2.85807     39.5 1.037e+04 4.091e-10
  2.89918     41.1 1.040e+04 4.365e-10
  2.93813     43.3 1.037e+04 3.662e-10
  2.95869     44.3 1.027e+04 4.126e-10
  2.98141     46.1 1.037e+04 2.795e-10
  3.02252     46.6 1.020e+04 1.958e-10
  3.06310     47.5 1.022e+04 1.847e-10
  3.08356     47.9 1.002e+04 1.832e-10
  3.09427     48.0 1.021e+04 2.185e-10
  3.11482     48.0 1.028e+04 3.011e-10
  3.13538     48.2 1.065e+04 4.473e-10
  3.14595     47.8 1.163e+04 7.921e-10
  3.15623     47.7 1.178e+04 8.074e-10
  3.17649     47.1 1.277e+04 1.615e-09
  3.19705     47.2 1.374e+04 3.146e-09
  3.20843     48.1 1.476e+04 5.317e-09
  3.21871     47.9 1.493e+04 5.693e-09
  3.23816     48.9 1.631e+04 8.930e-09
  3.25872     49.2 1.800e+04 1.279e-08
  3.27092     46.9 2.045e+04 1.973e-08
  3.28120     46.5 2.041e+04 1.950e-08
  3.29464     43.6 2.163e+04 2.632e-08
  3.30206     41.3 2.152e+04 3.592e-08
  3.30720     41.9 2.111e+04 3.074e-08
  3.31515     40.6 2.080e+04 3.872e-08
  3.32543     39.8 2.055e+04 4.509e-08
  3.33331     39.4 2.082e+04 4.869e-08
  3.33845     39.3 2.079e+04 3.442e-08
  3.34598     38.1 2.074e+04 3.497e-08
  3.35626     37.2 2.052e+04 3.519e-08
  3.36455     36.5 2.016e+04 3.164e-08
  3.36969     36.4 2.003e+04 2.918e-08
  3.37682     35.6 2.004e+04 2.387e-08
  3.38709     34.0 1.959e+04 1.753e-08
  3.39584     31.6 1.856e+04 1.182e-08
  3.40617     32.0 1.938e+04 1.472e-08
  3.42122     27.6 1.695e+04 7.650e-09
  3.43149     27.3 1.620e+04 5.705e-09
  3.44372     25.3 1.500e+04 4.729e-09
  3.45837     25.0 1.433e+04 4.231e-09
  3.46865     25.7 1.504e+04 5.807e-09
  3.48483     26.2 1.457e+04 5.289e-09
  3.50539     27.0 1.390e+04 4.452e-09
  3.52086     28.1 1.302e+04 3.154e-09
  3.53114     29.2 1.394e+04 4.325e-09
  3.54650     29.9 1.282e+04 2.477e-09
  3.56706     30.2 1.145e+04 1.240e-09
  3.58334     29.7 1.013e+04 6.104e-10
  3.59362     30.7 1.069e+04 7.694e-10
  3.60817     29.8 9.305e+03 3.894e-10
  3.62872     29.3 8.536e+03 2.571e-10
  3.64583     29.5 8.337e+03 2.339e-10
  3.65611     30.5 8.364e+03 2.397e-10
  3.68021     31.7 8.346e+03 2.390e-10
  3.70851     33.6 8.207e+03 2.304e-10
  3.72907     35.1 8.350e+03 2.576e-10
  3.76253     36.5 8.368e+03 2.822e-10
  3.79327     36.9 8.446e+03 3.220e-10
  3.81373     36.9 8.427e+03 3.320e-10
  3.83329     35.4 9.355e+03 4.714e-10
  3.84356     36.5 9.480e+03 5.571e-10
  3.85425     33.1 1.104e+04 9.591e-10
  3.86453     33.5 1.120e+04 9.174e-10
  3.87540     30.1 1.248e+04 1.864e-09
  3.89577     28.7 1.313e+04 3.100e-09
  3.90605     30.3 1.315e+04 3.094e-09
  3.91651     29.9 1.370e+04 3.970e-09
  3.93706     29.5 1.395e+04 4.191e-09
  3.95762     28.2 1.410e+04 3.817e-09
  3.96853     25.4 1.313e+04 2.231e-09
  3.97881     26.2 1.341e+04 2.469e-09
  3.99873     22.1 1.176e+04 1.564e-09
  4.01929     20.0 1.112e+04 1.286e-09
  4.03102     19.5 1.100e+04 1.207e-09
  4.04130     20.1 1.141e+04 1.493e-09
  4.06040     19.7 1.148e+04 1.501e-09
  4.08096     19.3 1.152e+04 1.476e-09
  4.09350     19.0 1.148e+04 1.416e-09
  4.10378     19.8 1.192e+04 1.757e-09
  4.12207     19.6 1.188e+04 1.690e-09
  4.14262     19.4 1.178e+04 1.576e-09
  4.15599     19.3 1.168e+04 1.444e-09
  4.16627     20.0 1.200e+04 1.565e-09
  4.18374     19.7 1.192e+04 1.437e-09
  4.20429     19.4 1.185e+04 1.348e-09
  4.21847     19.2 1.181e+04 1.303e-09
  4.22875     19.6 1.186e+04 1.293e-09
  4.25578     19.4 1.180e+04 1.214e-09
  4.28748     19.5 1.183e+04 1.211e-09
  4.30794     20.0 1.199e+04 1.298e-09
  4.32763     20.2 1.186e+04 1.181e-09
  4.34344     20.3 1.172e+04 1.066e-09
  4.35382     20.7 1.186e+04 1.138e-09
  4.36884     20.6 1.142e+04 8.744e-10
  4.38930     20.7 1.125e+04 7.765e-10
  4.40593     20.7 1.079e+04 5.856e-10
  4.41621     20.7 1.080e+04 5.991e-10
  4.43041     20.3 1.045e+04 4.938e-10
  4.45096     20.0 1.013e+04 4.257e-10
  4.46841     19.9 9.972e+03 3.945e-10
  4.47869     20.1 1.002e+04 4.249e-10
  4.49208     20.0 9.856e+03 3.896e-10
  4.51263     20.0 9.738e+03 3.641e-10
  4.54356     20.4 9.593e+03 3.325e-10
  4.58330     20.8 9.147e+03 2.486e-10
  4.60386     21.1 9.144e+03 2.359e-10
  4.62589     21.8 8.535e+03 1.436e-10
  4.66700     22.5 8.112e+03 9.332e-11
  4.70811     23.1 7.882e+03 7.503e-11
  4.74922     24.6 7.794e+03 7.180e-11
  4.79033     25.7 7.807e+03 7.185e-11
  4.83145     26.8 7.993e+03 8.314e-11
  4.85380     28.1 8.198e+03 1.089e-10
  4.87435     28.9 8.184e+03 1.098e-10
  4.91367     30.6 8.337e+03 1.375e-10
  4.95478     32.5 8.469e+03 1.547e-10
  4.97877     34.3 8.521e+03 1.585e-10
  4.99932     35.1 8.516e+03 1.638e-10
  5.03701     36.8 8.547e+03 1.586e-10
  5.07812     38.5 8.555e+03 1.484e-10
  5.10374     40.0 8.563e+03 1.452e-10
  5.12429     40.9 8.554e+03 1.524e-10
  5.15356     42.4 8.574e+03 1.531e-10
  5.17411     43.1 8.579e+03 1.561e-10
  5.20145     44.8 8.623e+03 1.613e-10
  5.22871     46.9 8.639e+03 1.632e-10
  5.24926     47.7 8.703e+03 1.872e-10
  5.28368     49.8 8.757e+03 1.910e-10
  5.32479     51.8 8.776e+03 1.902e-10
  5.35368     53.8 8.810e+03 1.945e-10
  5.37423     54.3 9.145e+03 2.699e-10
  5.40701     56.2 9.241e+03 3.002e-10
  5.44813     58.3 9.357e+03 3.364e-10
  5.47865     60.6 9.466e+03 3.647e-10
  5.48883     60.2 9.686e+03 4.295e-10
  5.49932     60.5 9.694e+03 4.326e-10
  5.51988     61.9 9.916e+03 4.742e-10
  5.54043     62.4 9.974e+03 4.906e-10
  5.55122     63.1 1.037e+04 5.892e-10
  5.56149     62.4 1.084e+04 7.672e-10
  5.58154     62.0 1.146e+04 9.752e-10
  5.59667     61.5 1.216e+04 1.380e-09
  5.60695     63.2 1.208e+04 1.283e-09
  5.61370     62.7 1.250e+04 1.715e-09
  5.62398     61.5 1.315e+04 2.429e-09
  5.64321     62.4 1.336e+04 3.080e-09
  5.66377     63.9 1.357e+04 3.498e-09
  5.67619     65.7 1.378e+04 3.622e-09
  5.68646     65.0 1.437e+04 4.143e-09
  5.70488     65.5 1.445e+04 3.073e-09
  5.72544     64.9 1.386e+04 2.171e-09
  5.73867     63.2 1.353e+04 1.584e-09
  5.74895     60.2 1.343e+04 1.445e-09
  5.76655     57.7 1.368e+04 1.489e-09
  5.78710     53.5 1.521e+04 2.283e-09
  5.80116     49.7 1.628e+04 4.182e-09
  5.81144     48.9 1.542e+04 3.790e-09
  5.82822     48.2 1.617e+04 5.935e-09
  5.84877     48.6 1.688e+04 7.679e-09
  5.86364     48.7 1.706e+04 7.778e-09
  5.87392     47.5 1.588e+04 4.782e-09
  5.88988     46.1 1.498e+04 3.036e-09
  5.91044     43.1 1.324e+04 1.581e-09
  5.92613     40.6 1.206e+04 9.912e-10
  5.93641     40.5 1.189e+04 9.893e-10
  5.95155     39.5 1.164e+04 8.736e-10
  5.97211     39.0 1.157e+04 8.414e-10
  5.98861     38.6 1.159e+04 8.700e-10
  5.99889     38.5 1.179e+04 9.963e-10
  6.01322     38.1 1.205e+04 1.176e-09
  6.02971     37.6 1.243e+04 1.434e-09
  6.03999     38.1 1.259e+04 1.528e-09
  6.05110     37.5 1.309e+04 1.890e-09
  6.06138     38.0 1.344e+04 2.276e-09
  6.07489     37.6 1.394e+04 2.695e-09
  6.09544     37.0 1.424e+04 2.922e-09
  6.11358     36.3 1.431e+04 2.947e-09
  6.12386     36.7 1.437e+04 2.955e-09
  6.13656     36.1 1.403e+04 2.520e-09
  6.15711     35.7 1.355e+04 1.986e-09
  6.17607     35.4 1.300e+04 1.479e-09
  6.18635     35.6 1.286e+04 1.405e-09
  6.19822     35.5 1.231e+04 1.055e-09
  6.21878     35.7 1.185e+04 8.092e-10
  6.23855     36.2 1.145e+04 6.325e-10
  6.24883     36.6 1.142e+04 6.310e-10
  6.25989     37.5 1.112e+04 5.116e-10
  6.28045     38.5 1.090e+04 4.238e-10
  6.30100     39.6 1.077e+04 3.674e-10
  6.32156     40.6 1.070e+04 3.516e-10
  6.34212     42.2 1.058e+04 3.185e-10
  6.36267     42.7 1.052e+04 3.123e-10
  6.37390     44.7 1.052e+04 3.100e-10
  6.39455     45.6 1.053e+04 3.307e-10
  6.43481     48.1 1.045e+04 3.179e-10
  6.47593     50.6 1.033e+04 3.066e-10
  6.49897     53.3 1.022e+04 2.975e-10
  6.51952     54.6 1.027e+04 3.190e-10
  6.55815     57.2 1.018e+04 3.089e-10
  6.58889     59.5 1.037e+04 3.504e-10
  6.60934     59.9 1.036e+04 3.494e-10
  6.62374     61.3 1.066e+04 4.159e-10
  6.63402     62.1 1.068e+04 4.280e-10
  6.65046     62.2 1.062e+04 4.535e-10
  6.67101     63.8 1.072e+04 5.361e-10
  6.68623     64.6 1.064e+04 5.627e-10
  6.69650     65.3 1.067e+04 5.872e-10
  6.71212     67.0 1.075e+04 6.387e-10
  6.73268     68.1 1.077e+04 6.318e-10
  6.74871     69.4 1.095e+04 6.153e-10
  6.75899     70.3 1.089e+04 6.737e-10
  6.77379     71.1 1.108e+04 6.243e-10
  6.79435     71.7 1.125e+04 6.178e-10
  6.81120     71.9 1.147e+04 6.448e-10
  6.82147     73.2 1.147e+04 6.807e-10
  6.83546     73.3 1.163e+04 7.650e-10
  6.85602     73.4 1.183e+04 8.925e-10
  6.87368     73.6 1.201e+04 1.064e-09
  6.88396     75.0 1.202e+04 1.083e-09
  6.89578     75.3 1.224e+04 1.276e-09
  6.90606     75.4 1.323e+04 2.151e-09
  6.91768     75.7 1.322e+04 2.299e-09
  6.93617     76.1 1.301e+04 2.285e-09
  6.94644     77.3 1.329e+04 2.488e-09
  6.95880     77.6 1.300e+04 2.420e-09
  6.97935     78.0 1.285e+04 2.245e-09
  6.99865     78.3 1.284e+04 2.006e-09
  7.00893     79.5 1.293e+04 2.194e-09
  7.02046     79.6 1.286e+04 1.904e-09
  7.04102     79.7 1.257e+04 1.641e-09
  7.06114     79.8 1.214e+04 1.403e-09
  7.07141     80.8 1.238e+04 1.523e-09
  7.08213     80.9 1.199e+04 1.277e-09
  7.10269     81.1 1.171e+04 1.081e-09
  7.12324     81.1 1.145e+04 9.578e-10
  7.13390     81.3 1.126e+04 9.090e-10
  7.14418     81.8 1.143e+04 1.010e-09
  7.16436     82.4 1.131e+04 1.005e-09
  7.18491     83.0 1.131e+04 1.036e-09
  7.19639     83.6 1.143e+04 1.106e-09
  7.20666     84.2 1.149e+04 1.156e-09
  7.22602     84.5 1.184e+04 1.193e-09
  7.24658     84.1 1.305e+04 1.507e-09
  7.25887     82.9 1.488e+04 2.360e-09
  7.26915     83.5 1.478e+04 2.165e-09
  7.28769     82.2 1.619e+04 3.930e-09
  7.30825     81.7 1.708e+04 7.116e-09
  7.32136     82.6 1.791e+04 1.213e-08
  7.33163     82.7 1.791e+04 1.179e-08
  7.34936     84.3 1.738e+04 9.657e-09
  7.36992     85.8 1.766e+04 1.202e-08
  7.38384     87.3 1.795e+04 1.299e-08
  7.39412     87.3 1.826e+04 1.350e-08
  7.41103     87.9 1.880e+04 1.343e-08
  7.43159     87.5 1.905e+04 1.239e-08
  7.44633     86.3 1.912e+04 1.143e-08
  7.45660     86.2 1.937e+04 1.252e-08
  7.47270     85.0 1.928e+04 1.175e-08
  7.49325     83.9 1.916e+04 1.183e-08
  7.50881     83.1 1.887e+04 1.196e-08
  7.51909     82.8 1.861e+04 1.091e-08
  7.53437     82.6 1.817e+04 1.036e-08
  7.55492     82.8 1.748e+04 9.001e-09
  7.57130     82.6 1.685e+04 6.580e-09
  7.58157     82.3 1.600e+04 5.199e-09
  7.59603     81.0 1.522e+04 4.035e-09
  7.61659     79.6 1.436e+04 3.537e-09
  7.63378     78.9 1.405e+04 3.545e-09
  7.64406     79.3 1.406e+04 3.528e-09
  7.65770     79.4 1.392e+04 3.815e-09
  7.67826     80.1 1.390e+04 4.316e-09
  7.69627     81.4 1.396e+04 4.574e-09
  7.70654     81.8 1.390e+04 4.340e-09
  7.71937     82.9 1.386e+04 3.969e-09
  7.73993     83.6 1.374e+04 3.210e-09
  7.75875     83.5 1.320e+04 2.216e-09
  7.76903     83.4 1.281e+04 1.755e-09
  7.77213     82.8 1.186e+04 1.146e-09
  7.78241     84.5 1.298e+04 2.033e-09
  7.80159     84.2 1.192e+04 1.358e-09
  7.82124     84.3 1.116e+04 9.470e-10
  7.83151     84.2 1.083e+04 7.494e-10
  7.84271     84.9 1.029e+04 5.558e-10
  7.86326     85.4 9.925e+03 3.887e-10
  7.88372     85.7 9.607e+03 3.354e-10
  7.91465     88.6 9.269e+03 2.868e-10
  7.95596     91.3 9.110e+03 2.668e-10
  7.99707     93.6 9.000e+03 2.609e-10
  8.01916     95.9 9.166e+03 3.161e-10
  8.03972     97.2 9.131e+03 3.112e-10
  8.07929     99.7 9.440e+03 3.716e-10
  8.11003    100.2 9.702e+03 4.870e-10
  8.13049    100.3 1.012e+04 5.876e-10
  8.14394     99.7 1.097e+04 7.816e-10
  8.15422     99.7 1.139e+04 8.865e-10
  8.17160     97.9 1.274e+04 1.462e-09
  8.19216     96.8 1.342e+04 2.340e-09
  8.20517     97.3 1.369e+04 3.312e-09
  8.20916     98.9 1.323e+04 2.325e-09
  8.21670     98.6 1.381e+04 3.188e-09
  8.23327     99.7 1.391e+04 3.869e-09
  8.25383    100.9 1.393e+04 3.759e-09
  8.26891    101.6 1.371e+04 3.000e-09
  8.27919    102.3 1.405e+04 3.501e-09
  8.29494    101.8 1.354e+04 2.420e-09
  8.31549    100.4 1.233e+04 1.406e-09
  8.33139     98.7 1.129e+04 8.335e-10
  8.34167     98.2 1.120e+04 7.254e-10
  8.35661     96.6 1.051e+04 4.854e-10
  8.37716     95.7 9.995e+03 3.750e-10
  8.39388     94.8 9.768e+03 3.308e-10
  8.40416     94.2 9.579e+03 3.258e-10
  8.41827     94.2 9.528e+03 3.190e-10
  8.44920     94.6 9.568e+03 3.494e-10
  8.49041     96.4 9.668e+03 3.879e-10
  8.51895     98.0 9.663e+03 4.506e-10
  8.52913     97.4 9.812e+03 4.924e-10
  8.54161     97.4 1.022e+04 4.645e-10
  8.56217     96.7 1.043e+04 5.176e-10
  8.58134     95.9 1.052e+04 5.659e-10
  8.59161     95.0 1.067e+04 6.126e-10
  8.60328     94.2 1.079e+04 7.588e-10
  8.62383     93.5 1.118e+04 8.936e-10
  8.63820     93.1 1.138e+04 1.073e-09
  8.64791     94.2 1.132e+04 1.000e-09
  8.65410     93.5 1.138e+04 1.079e-09
  8.66495     93.5 1.150e+04 1.140e-09
  8.68550     93.4 1.144e+04 1.105e-09
  8.70606     93.4 1.135e+04 9.757e-10
  8.71658     92.9 1.127e+04 7.610e-10
  8.72686     91.3 1.121e+04 6.713e-10
  8.74717     90.1 1.067e+04 5.636e-10
  8.76773     89.2 1.041e+04 4.853e-10
  8.77907     88.5 1.025e+04 4.295e-10
  8.78935     87.2 1.032e+04 4.727e-10
  8.80884     86.9 1.045e+04 4.986e-10
  8.82939     86.6 1.066e+04 5.318e-10
  8.84155     86.5 1.066e+04 6.012e-10
  8.85183     85.9 1.096e+04 7.466e-10
  8.87051     85.9 1.092e+04 7.815e-10
  8.89106     86.1 1.100e+04 8.224e-10
  8.90404     86.2 1.109e+04 8.585e-10
  8.91432     85.5 1.125e+04 9.453e-10
  8.93217     85.6 1.117e+04 9.527e-10
  8.95273     86.0 1.106e+04 9.419e-10
  8.96652     86.6 1.094e+04 9.118e-10
  8.97680     86.4 1.104e+04 8.899e-10
  8.99384     87.1 1.099e+04 7.629e-10
  9.01440     87.6 1.089e+04 6.221e-10
  9.02901     87.8 1.073e+04 5.109e-10
  9.03929     86.8 1.077e+04 5.133e-10
  9.05551     86.5 1.073e+04 4.289e-10
  9.07124     85.9 1.055e+04 3.631e-10
  9.08152     86.0 1.070e+04 3.673e-10
  9.09149     85.6 1.028e+04 3.408e-10
  9.10177     85.3 1.048e+04 4.277e-10
  9.11718     85.7 1.038e+04 4.038e-10
  9.13773     86.2 1.037e+04 3.948e-10
  9.15398     86.1 1.037e+04 3.770e-10
  9.16426     86.1 1.076e+04 4.232e-10
  9.17885     86.0 1.082e+04 3.756e-10
  9.19940     85.7 1.079e+04 3.617e-10
  9.21646     85.6 1.078e+04 3.510e-10
  9.22674     84.4 1.085e+04 3.753e-10
  9.24051     84.3 1.092e+04 3.728e-10
  9.26107     84.2 1.084e+04 4.063e-10
  9.27895     84.2 1.100e+04 4.165e-10
  9.28923     82.8 1.112e+04 4.346e-10
  9.30218     82.1 1.113e+04 4.698e-10
  9.32274     81.5 1.119e+04 4.940e-10
  9.34143     80.6 1.105e+04 5.386e-10
  9.35171     77.9 1.131e+04 6.347e-10
  9.36385     77.0 1.154e+04 7.618e-10
  9.38441     76.7 1.177e+04 9.272e-10
  9.40392     76.8 1.192e+04 1.022e-09
  9.41420     75.1 1.283e+04 1.639e-09
  9.42552     75.8 1.269e+04 1.514e-09
  9.44607     76.1 1.251e+04 1.280e-09
  9.46640     76.3 1.221e+04 1.056e-09
  9.47668     74.6 1.294e+04 1.354e-09
  9.48719     74.7 1.249e+04 1.140e-09
  9.50428     75.3 1.217e+04 1.077e-09
  9.51455     75.9 1.187e+04 8.995e-10
  9.52830     76.6 1.176e+04 8.718e-10
  9.53917     77.7 1.159e+04 9.179e-10
  9.54945     76.3 1.242e+04 1.388e-09
  9.56941     77.1 1.309e+04 1.448e-09
  9.58997     78.1 1.330e+04 1.808e-09
  9.60165     79.9 1.311e+04 2.302e-09
  9.61193     78.5 1.391e+04 3.481e-09
  9.63108     79.8 1.458e+04 3.618e-09
  9.65163     81.3 1.493e+04 4.134e-09
  9.66414     82.3 1.527e+04 4.572e-09
  9.67442     81.2 1.534e+04 4.679e-09
  9.69275     81.7 1.551e+04 4.699e-09
  9.71330     82.4 1.564e+04 4.854e-09
  9.72662     83.3 1.566e+04 5.177e-09
  9.73690     82.6 1.527e+04 4.164e-09
  9.75441     83.8 1.512e+04 3.973e-09
  9.77497     85.1 1.494e+04 3.621e-09
  9.78911     86.5 1.477e+04 3.073e-09
  9.79939     85.7 1.361e+04 1.383e-09
  9.81608     86.3 1.339e+04 1.179e-09
  9.83664     87.2 1.302e+04 8.111e-10
