# Columns:
#   distance along LOS (in CHIMPs)
#   peculiar velocity  (in km/s)
#   temperature (K)
#   HI number density
# pos=(65.8969,56.5265,74.9751), angles=(1.56703,3.37409)
  0.00919     83.2 1.068e+04 1.431e-10
  0.02119     82.0 1.052e+04 1.386e-10
  0.04406     80.1 1.037e+04 1.349e-10
  0.08420     78.2 1.039e+04 1.507e-10
  0.12434     76.5 1.058e+04 2.144e-10
  0.15435     75.5 1.079e+04 2.697e-10
  0.17433     74.5 1.105e+04 3.438e-10
  0.18605     73.5 1.129e+04 4.388e-10
  0.19608     72.4 1.167e+04 5.158e-10
  0.21447     69.5 1.242e+04 6.483e-10
  0.23454     64.2 1.374e+04 1.130e-09
  0.25461     59.0 1.472e+04 2.384e-09
  0.26857     55.7 1.533e+04 3.833e-09
  0.27861     54.3 1.492e+04 3.013e-09
  0.29476     51.4 1.490e+04 2.883e-09
  0.31483     48.4 1.460e+04 2.127e-09
  0.33490     44.3 1.377e+04 1.155e-09
  0.35110     39.6 1.217e+04 5.776e-10
  0.37127     38.7 1.144e+04 4.792e-10
  0.40534     35.1 1.005e+04 2.973e-10
  0.44549     33.5 9.937e+03 2.898e-10
  0.48563     31.8 1.023e+04 3.547e-10
  0.51635     29.9 1.120e+04 7.183e-10
  0.53642     30.0 1.122e+04 7.436e-10
  0.56592     29.0 1.213e+04 1.387e-09
  0.59593     28.2 1.272e+04 2.044e-09
  0.60871     28.0 1.294e+04 2.362e-09
  0.61875     28.4 1.269e+04 2.036e-09
  0.63597     28.1 1.283e+04 2.116e-09
  0.65604     27.1 1.307e+04 2.075e-09
  0.67611     25.5 1.339e+04 1.986e-09
  0.69124     23.8 1.344e+04 1.862e-09
  0.70128     24.5 1.303e+04 1.534e-09
  0.71626     23.1 1.301e+04 1.446e-09
  0.73633     21.8 1.283e+04 1.320e-09
  0.75640     20.3 1.253e+04 1.164e-09
  0.77377     18.1 1.240e+04 1.112e-09
  0.78380     18.7 1.262e+04 1.214e-09
  0.79654     15.1 1.303e+04 1.494e-09
  0.81661     12.4 1.345e+04 2.171e-09
  0.83668     11.4 1.336e+04 2.530e-09
  0.85629     11.2 1.312e+04 2.384e-09
  0.86633     12.1 1.342e+04 2.798e-09
  0.87683     10.7 1.409e+04 2.302e-09
  0.89690      5.8 1.548e+04 2.050e-09
  0.91697     -2.6 1.620e+04 2.608e-09
  0.93704     -8.0 1.512e+04 4.244e-09
  0.94886     -8.3 1.505e+04 6.526e-09
  0.95889     -7.8 1.507e+04 6.990e-09
  0.97718     -6.4 1.477e+04 7.613e-09
  0.99726     -4.3 1.464e+04 5.864e-09
  1.01733     -5.6 1.529e+04 3.219e-09
  1.02921    -11.5 1.483e+04 2.028e-09
  1.03323    -11.5 1.420e+04 1.790e-09
  1.04142    -12.0 1.404e+04 1.857e-09
  1.05747    -16.5 1.300e+04 1.631e-09
  1.07754    -17.9 1.267e+04 1.776e-09
  1.09761    -18.2 1.273e+04 1.847e-09
  1.11391    -18.6 1.257e+04 1.679e-09
  1.12395    -17.9 1.255e+04 1.678e-09
  1.13776    -18.7 1.242e+04 1.334e-09
  1.15783    -21.5 1.253e+04 1.097e-09
  1.17790    -25.3 1.286e+04 1.071e-09
  1.19644    -29.2 1.266e+04 1.212e-09
  1.20647    -27.4 1.220e+04 8.816e-10
  1.21804    -29.4 1.209e+04 1.178e-09
  1.23811    -30.0 1.189e+04 1.433e-09
  1.25818    -30.0 1.203e+04 1.529e-09
  1.27826    -30.3 1.222e+04 1.450e-09
  1.28900    -31.3 1.223e+04 1.123e-09
  1.29904    -30.2 1.188e+04 1.138e-09
  1.31840    -31.2 1.173e+04 9.370e-10
  1.33847    -32.1 1.137e+04 7.914e-10
  1.35854    -32.5 1.091e+04 6.714e-10
  1.37153    -32.4 1.053e+04 5.632e-10
  1.38156    -31.0 1.071e+04 6.323e-10
  1.39869    -30.9 1.042e+04 5.111e-10
  1.41876    -30.9 1.021e+04 4.091e-10
  1.43883    -31.0 1.004e+04 3.430e-10
  1.45405    -31.1 9.877e+03 3.147e-10
  1.46409    -30.7 9.904e+03 3.166e-10
  1.48910    -30.7 9.829e+03 3.113e-10
  1.52674    -30.4 9.969e+03 4.039e-10
  1.54681    -28.2 9.680e+03 2.929e-10
  1.56949    -27.8 1.003e+04 4.445e-10
  1.59950    -27.2 1.057e+04 6.216e-10
  1.61911    -27.1 1.067e+04 6.825e-10
  1.62914    -26.7 1.048e+04 6.259e-10
  1.63954    -26.1 1.077e+04 7.088e-10
  1.65961    -26.0 1.090e+04 7.516e-10
  1.67969    -25.8 1.107e+04 8.165e-10
  1.69976    -26.0 1.119e+04 8.838e-10
  1.71167    -26.2 1.137e+04 9.983e-10
  1.72170    -24.8 1.141e+04 9.219e-10
  1.73990    -25.6 1.175e+04 1.108e-09
  1.75997    -26.7 1.224e+04 1.458e-09
  1.78004    -28.0 1.271e+04 2.022e-09
  1.79420    -28.3 1.345e+04 2.883e-09
  1.80423    -29.2 1.379e+04 4.259e-09
  1.82019    -28.2 1.467e+04 5.929e-09
  1.84026    -27.1 1.545e+04 6.556e-09
  1.86033    -26.6 1.590e+04 6.416e-09
  1.87672    -27.1 1.589e+04 4.013e-09
  1.88676    -25.0 1.617e+04 6.150e-09
  1.90047    -28.7 1.494e+04 3.090e-09
  1.92054    -31.9 1.298e+04 2.005e-09
  1.94061    -32.8 1.236e+04 1.735e-09
  1.95925    -33.1 1.218e+04 1.636e-09
  1.96928    -32.7 1.216e+04 1.529e-09
  1.98076    -32.9 1.212e+04 1.513e-09
  2.00083    -33.1 1.215e+04 1.556e-09
  2.02090    -33.2 1.229e+04 1.679e-09
  2.04097    -33.1 1.244e+04 1.817e-09
  2.05181    -33.1 1.254e+04 1.885e-09
  2.06185    -32.9 1.280e+04 2.186e-09
  2.08111    -32.9 1.301e+04 2.358e-09
  2.10119    -32.9 1.314e+04 2.489e-09
  2.12126    -32.8 1.317e+04 2.344e-09
  2.13434    -32.8 1.324e+04 1.974e-09
  2.14437    -32.5 1.365e+04 2.640e-09
  2.16140    -32.8 1.373e+04 1.999e-09
  2.18147    -34.5 1.330e+04 1.361e-09
  2.20154    -37.2 1.215e+04 9.973e-10
  2.21686    -39.9 1.164e+04 9.222e-10
  2.22690    -40.4 1.178e+04 1.020e-09
  2.24169    -43.6 1.265e+04 1.209e-09
  2.26176    -46.7 1.374e+04 2.088e-09
  2.28183    -47.8 1.445e+04 3.523e-09
  2.29939    -47.9 1.503e+04 5.029e-09
  2.30943    -49.3 1.605e+04 5.491e-09
  2.32197    -49.2 1.617e+04 5.828e-09
  2.34204    -48.7 1.579e+04 4.986e-09
  2.36211    -48.4 1.470e+04 3.022e-09
  2.38192    -49.4 1.339e+04 1.634e-09
  2.39195    -51.8 1.291e+04 1.459e-09
  2.40226    -53.8 1.176e+04 1.016e-09
  2.42233    -54.3 1.134e+04 9.057e-10
  2.44240    -54.2 1.123e+04 8.868e-10
  2.46247    -53.6 1.126e+04 9.659e-10
  2.47448    -53.2 1.147e+04 1.131e-09
  2.48452    -53.3 1.146e+04 1.315e-09
  2.50261    -52.6 1.161e+04 1.454e-09
  2.52269    -51.9 1.177e+04 1.549e-09
  2.54276    -51.5 1.183e+04 1.575e-09
  2.55701    -51.2 1.184e+04 1.554e-09
  2.57718    -51.9 1.181e+04 1.411e-09
  2.61320    -51.8 1.149e+04 1.117e-09
  2.65335    -52.0 1.110e+04 8.222e-10
  2.69349    -52.4 1.057e+04 6.242e-10
  2.72226    -52.2 1.009e+04 5.197e-10
  2.74233    -52.4 1.009e+04 6.003e-10
  2.77377    -51.5 9.959e+03 5.141e-10
  2.81392    -50.9 1.001e+04 4.596e-10
  2.85406    -50.5 1.007e+04 4.521e-10
  2.88731    -50.0 1.025e+04 4.954e-10
  2.90738    -50.1 1.026e+04 5.700e-10
  2.93435    -49.0 1.033e+04 6.164e-10
  2.97449    -47.9 1.027e+04 6.126e-10
  3.01463    -47.1 1.022e+04 5.973e-10
  3.05236    -46.2 1.020e+04 6.314e-10
  3.07243    -45.7 1.019e+04 5.735e-10
  3.09492    -44.9 1.028e+04 6.363e-10
  3.13506    -44.2 1.059e+04 7.929e-10
  3.17520    -43.2 1.096e+04 9.788e-10
  3.21535    -42.4 1.125e+04 1.065e-09
  3.23749    -41.8 1.130e+04 1.062e-09
  3.25756    -41.2 1.130e+04 1.072e-09
  3.29563    -40.9 1.128e+04 1.036e-09
  3.33577    -40.9 1.131e+04 1.037e-09
  3.37592    -41.5 1.176e+04 1.305e-09
  3.40254    -41.8 1.237e+04 1.770e-09
  3.41248    -41.6 1.248e+04 1.972e-09
  3.42590    -41.6 1.274e+04 2.338e-09
  3.44597    -41.4 1.290e+04 2.589e-09
  3.46604    -41.1 1.292e+04 2.640e-09
  3.48487    -40.8 1.289e+04 2.564e-09
  3.49491    -39.8 1.284e+04 2.719e-09
  3.50619    -39.6 1.249e+04 2.083e-09
  3.52626    -40.7 1.221e+04 1.557e-09
  3.54633    -42.7 1.171e+04 1.179e-09
  3.56640    -44.5 1.121e+04 9.717e-10
  3.57743    -45.7 1.089e+04 8.668e-10
  3.58747    -44.8 1.089e+04 8.484e-10
  3.60654    -45.8 1.066e+04 7.911e-10
  3.62662    -46.6 1.050e+04 7.440e-10
  3.64669    -47.3 1.041e+04 7.178e-10
  3.65996    -47.9 1.036e+04 7.029e-10
  3.67000    -47.6 1.051e+04 7.478e-10
  3.69696    -48.7 1.034e+04 6.874e-10
  3.73265    -50.3 1.027e+04 6.737e-10
  3.75272    -48.8 1.041e+04 7.504e-10
  3.77735    -49.7 1.033e+04 7.419e-10
  3.81749    -50.2 1.060e+04 8.828e-10
  3.85763    -51.2 1.139e+04 1.123e-09
  3.88764    -53.1 1.232e+04 1.367e-09
  3.90754    -54.7 1.325e+04 1.761e-09
  3.92761    -56.7 1.471e+04 2.983e-09
  3.94776    -57.7 1.523e+04 3.867e-09
  3.96783    -58.5 1.530e+04 4.097e-09
  3.98790    -59.2 1.493e+04 3.892e-09
  4.00010    -59.9 1.419e+04 2.876e-09
  4.01014    -59.9 1.460e+04 3.380e-09
  4.02804    -61.9 1.359e+04 2.130e-09
  4.04812    -64.8 1.264e+04 1.450e-09
  4.06819    -67.3 1.199e+04 1.174e-09
  4.08263    -68.9 1.162e+04 1.086e-09
  4.09267    -69.7 1.204e+04 1.272e-09
  4.10833    -70.2 1.181e+04 1.233e-09
  4.12840    -70.4 1.158e+04 1.201e-09
  4.14847    -70.1 1.130e+04 1.126e-09
  4.16516    -69.4 1.103e+04 9.912e-10
  4.17519    -69.1 1.117e+04 1.093e-09
  4.18862    -68.4 1.078e+04 8.507e-10
  4.20869    -68.0 1.030e+04 6.179e-10
  4.22876    -67.9 9.856e+03 4.389e-10
  4.24768    -68.2 9.831e+03 3.708e-10
  4.25772    -69.7 1.086e+04 4.001e-10
  4.26890    -78.9 2.029e+04 4.293e-10
  4.28897    -89.5 2.205e+04 1.848e-09
  4.30904    -93.8 1.992e+04 9.607e-09
  4.32405    -95.2 1.942e+04 2.546e-08
  4.33404    -94.9 1.974e+04 4.407e-08
  4.34015    -94.0 1.999e+04 6.622e-08
  4.34517    -93.7 1.997e+04 5.539e-08
  4.35411    -92.8 1.995e+04 6.467e-08
  4.36414    -92.3 1.990e+04 6.690e-08
  4.37418    -91.8 1.973e+04 6.460e-08
  4.38141    -91.4 1.962e+04 4.219e-08
  4.38643    -90.7 2.048e+04 2.771e-08
  4.39425    -90.9 2.125e+04 1.277e-08
  4.40429    -94.9 2.167e+04 4.962e-09
  4.41432   -100.1 1.906e+04 2.215e-09
  4.42272   -103.5 1.538e+04 1.401e-09
  4.43281   -104.8 1.287e+04 9.772e-10
  4.44954   -105.5 1.047e+04 6.244e-10
  4.46962   -104.5 9.925e+03 4.970e-10
  4.48969   -103.2 9.754e+03 4.573e-10
  4.50530   -102.0 9.739e+03 4.245e-10
  4.51534   -101.8 9.506e+03 4.760e-10
  4.52983   -100.6 9.466e+03 4.560e-10
  4.54990    -99.5 9.453e+03 4.359e-10
  4.56997    -98.4 9.458e+03 4.167e-10
  4.58783    -97.5 9.502e+03 3.999e-10
  4.59786    -97.4 9.799e+03 4.160e-10
  4.61012    -96.5 9.848e+03 3.973e-10
  4.63019    -95.6 9.898e+03 3.836e-10
  4.65026    -94.9 9.920e+03 3.804e-10
  4.67033    -94.4 9.973e+03 3.815e-10
  4.69040    -94.3 1.061e+04 4.338e-10
  4.71047    -95.0 1.118e+04 5.292e-10
  4.73054    -96.3 1.188e+04 7.919e-10
  4.75062    -97.2 1.260e+04 1.314e-09
  4.76292    -97.4 1.326e+04 2.101e-09
  4.77295    -97.3 1.343e+04 2.388e-09
  4.79076    -97.1 1.399e+04 3.396e-09
  4.81083    -96.9 1.434e+04 4.152e-09
  4.83090    -96.9 1.442e+04 4.365e-09
  4.84544    -96.9 1.438e+04 4.347e-09
  4.85548    -96.1 1.452e+04 4.902e-09
  4.87104    -95.6 1.427e+04 4.581e-09
  4.89112    -95.1 1.384e+04 3.726e-09
  4.91119    -94.8 1.328e+04 2.829e-09
  4.92797    -94.5 1.261e+04 2.084e-09
  4.93800    -92.9 1.318e+04 2.722e-09
  4.95133    -92.5 1.254e+04 2.002e-09
  4.97140    -92.2 1.182e+04 1.479e-09
  4.99147    -92.1 1.118e+04 1.143e-09
  5.01050    -91.7 1.072e+04 9.473e-10
  5.02053    -89.6 1.116e+04 1.091e-09
  5.03162    -89.4 1.075e+04 9.208e-10
  5.05169    -89.2 1.057e+04 8.499e-10
  5.07176    -88.9 1.053e+04 8.345e-10
  5.09183    -89.2 1.073e+04 8.616e-10
  5.10306    -91.3 1.195e+04 1.218e-09
  5.11309    -89.0 1.179e+04 1.143e-09
  5.13197    -91.5 1.310e+04 1.863e-09
  5.15204    -93.7 1.401e+04 2.809e-09
  5.17212    -95.9 1.444e+04 3.456e-09
  5.18558    -98.3 1.449e+04 3.588e-09
  5.19562    -96.2 1.462e+04 3.696e-09
  5.21226    -98.8 1.409e+04 3.390e-09
  5.23233   -101.2 1.302e+04 2.236e-09
  5.25240   -104.0 1.170e+04 1.278e-09
  5.26811   -106.9 1.046e+04 7.515e-10
  5.27815   -105.5 1.057e+04 8.058e-10
  5.29254   -108.4 9.780e+03 5.491e-10
  5.31262   -110.8 9.477e+03 4.579e-10
  5.33269   -112.6 9.350e+03 4.320e-10
  5.35064   -113.8 9.283e+03 4.245e-10
  5.36067   -112.1 9.333e+03 4.290e-10
  5.37283   -118.1 1.205e+04 3.928e-10
  5.39290   -137.6 3.920e+04 3.634e-10
  5.41297   -154.9 3.512e+04 3.734e-09
  5.42798   -163.4 2.812e+04 2.156e-08
  5.43797   -166.4 2.438e+04 4.485e-08
  5.44310   -168.5 2.248e+04 6.320e-08
  5.44812   -169.3 2.185e+04 7.695e-08
  5.45804   -169.6 2.161e+04 7.818e-08
  5.46807   -169.5 2.139e+04 6.476e-08
  5.47811   -169.6 2.210e+04 3.812e-08
  5.48437   -172.2 2.344e+04 1.662e-08
  5.48938   -176.9 2.498e+04 7.432e-09
  5.49818   -185.3 2.162e+04 2.158e-09
  5.50822   -191.4 1.522e+04 1.149e-09
  5.51825   -193.1 1.294e+04 9.725e-10
  5.52568   -193.7 1.203e+04 8.744e-10
  5.53576   -196.8 1.034e+04 6.072e-10
  5.55347   -195.4 1.017e+04 5.537e-10
  5.57355   -194.2 1.015e+04 5.464e-10
  5.59362   -193.2 1.016e+04 5.460e-10
  5.60825   -192.1 1.017e+04 5.488e-10
  5.61829   -192.9 1.003e+04 5.062e-10
  5.63376   -191.9 1.004e+04 5.124e-10
  5.65383   -191.0 1.004e+04 5.134e-10
  5.67390   -190.1 1.000e+04 5.004e-10
  5.69078   -189.0 9.910e+03 4.597e-10
  5.70082   -189.9 9.830e+03 4.310e-10
  5.71405   -188.8 9.712e+03 3.935e-10
  5.73412   -187.8 9.628e+03 3.695e-10
  5.75419   -187.0 9.595e+03 3.604e-10
  5.77331   -186.3 9.588e+03 3.586e-10
  5.78334   -187.5 9.639e+03 3.813e-10
  5.79433   -186.7 9.677e+03 3.854e-10
  5.81440   -186.0 9.835e+03 4.136e-10
  5.83447   -185.2 1.004e+04 4.642e-10
  5.85455   -184.4 1.026e+04 5.264e-10
  5.86587   -183.7 1.046e+04 5.881e-10
  5.87591   -184.3 1.067e+04 7.094e-10
  5.89469   -183.7 1.079e+04 7.611e-10
  5.91476   -183.1 1.081e+04 7.759e-10
  5.93483   -182.4 1.078e+04 7.769e-10
  5.94840   -181.5 1.056e+04 7.170e-10
  5.95843   -181.7 1.078e+04 7.978e-10
  5.97497   -180.6 1.054e+04 6.652e-10
  5.99505   -179.4 1.028e+04 5.394e-10
  6.01512   -178.4 1.009e+04 4.478e-10
  6.03092   -177.6 9.995e+03 3.985e-10
  6.04096   -177.7 9.999e+03 3.993e-10
  6.06539   -177.0 9.932e+03 3.607e-10
  6.10361   -175.3 9.697e+03 2.884e-10
  6.12368   -175.5 9.828e+03 3.167e-10
  6.14578   -173.3 9.579e+03 2.449e-10
  6.18592   -171.1 9.375e+03 1.860e-10
  6.22606   -169.0 9.274e+03 1.450e-10
  6.26621   -167.0 9.280e+03 1.215e-10
  6.28873   -165.1 9.332e+03 1.132e-10
  6.30881   -164.6 9.529e+03 1.258e-10
  6.34649   -162.9 9.564e+03 1.232e-10
  6.38663   -161.7 9.739e+03 1.230e-10
  6.42678   -160.8 1.017e+04 1.411e-10
  6.45379   -160.0 1.042e+04 1.801e-10
  6.47386   -159.6 1.074e+04 2.010e-10
  6.50706   -159.1 1.087e+04 2.476e-10
  6.54721   -158.7 1.089e+04 2.793e-10
  6.58735   -158.5 1.089e+04 2.868e-10
  6.61884   -158.6 1.082e+04 2.810e-10
  6.63891   -159.1 1.114e+04 3.583e-10
  6.66763   -159.0 1.093e+04 2.976e-10
  6.70778   -158.9 1.073e+04 2.524e-10
  6.74792   -158.7 1.061e+04 2.406e-10
  6.78389   -158.5 1.055e+04 2.409e-10
  6.80397   -158.6 1.079e+04 3.257e-10
  6.82821   -158.1 1.078e+04 3.221e-10
  6.86835   -157.5 1.072e+04 3.196e-10
  6.90849   -156.8 1.047e+04 3.138e-10
  6.94863   -156.1 1.019e+04 2.894e-10
  6.96902   -155.5 1.000e+04 2.552e-10
  6.98909   -154.9 1.066e+04 2.947e-10
  7.02892   -154.6 1.049e+04 2.729e-10
  7.06906   -154.3 1.042e+04 2.690e-10
  7.10921   -154.2 1.035e+04 2.749e-10
  7.13407   -154.2 1.034e+04 3.017e-10
  7.14401   -153.6 1.074e+04 3.696e-10
  7.15919   -153.8 1.072e+04 3.923e-10
  7.17926   -154.0 1.072e+04 4.241e-10
  7.19933   -154.2 1.076e+04 4.688e-10
  7.21640   -154.5 1.083e+04 5.299e-10
  7.22644   -154.3 1.113e+04 5.953e-10
  7.23947   -154.6 1.126e+04 6.913e-10
  7.25955   -154.9 1.141e+04 8.141e-10
  7.27962   -155.2 1.158e+04 9.592e-10
  7.29893   -155.4 1.174e+04 1.108e-09
  7.30897   -155.7 1.188e+04 1.220e-09
  7.31976   -156.0 1.189e+04 1.275e-09
  7.33983   -156.2 1.189e+04 1.282e-09
  7.35990   -156.4 1.179e+04 1.265e-09
  7.37998   -156.3 1.161e+04 1.163e-09
  7.39149   -156.1 1.143e+04 1.016e-09
  7.40153   -156.2 1.132e+04 7.890e-10
  7.42012   -156.2 1.110e+04 6.237e-10
  7.44019   -156.3 1.083e+04 4.852e-10
  7.46026   -156.3 1.057e+04 3.916e-10
  7.47402   -156.3 1.038e+04 3.396e-10
  7.48415   -157.5 1.024e+04 2.476e-10
  7.51063   -157.4 9.855e+03 1.701e-10
  7.55078   -156.7 9.492e+03 1.173e-10
  7.59092   -155.9 9.280e+03 8.905e-11
  7.62923   -155.0 9.169e+03 7.470e-11
  7.64930   -155.4 9.109e+03 7.073e-11
  7.67121   -154.2 9.047e+03 6.523e-11
  7.71135   -152.9 8.969e+03 6.252e-11
  7.75149   -151.5 8.889e+03 6.103e-11
  7.79163   -149.9 8.821e+03 5.993e-11
  7.81436   -148.3 8.770e+03 5.861e-11
  7.83443   -148.2 8.663e+03 6.252e-11
  7.87192   -146.4 8.655e+03 6.072e-11
  7.91206   -144.6 8.661e+03 5.901e-11
  7.95221   -142.8 8.684e+03 5.705e-11
  7.97941   -141.0 8.725e+03 5.456e-11
  7.99948   -141.0 8.781e+03 6.222e-11
  8.03249   -139.2 8.817e+03 6.192e-11
  8.07264   -137.4 8.889e+03 6.007e-11
  8.11278   -135.5 8.915e+03 5.837e-11
  8.14446   -133.5 8.928e+03 5.768e-11
  8.16454   -133.6 8.801e+03 7.851e-11
  8.19306   -131.7 8.794e+03 7.826e-11
  8.23321   -130.1 8.805e+03 7.866e-11
  8.27335   -129.1 9.072e+03 8.758e-11
  8.30952   -128.4 9.461e+03 1.278e-10
  8.32959   -128.6 9.490e+03 1.498e-10
  8.35364   -128.2 9.870e+03 2.351e-10
  8.39378   -127.9 1.023e+04 3.244e-10
  8.43392   -127.8 1.051e+04 3.730e-10
  8.47406   -128.0 1.059e+04 3.819e-10
  8.49464   -128.0 1.063e+04 3.661e-10
  8.51471   -129.2 1.076e+04 4.268e-10
  8.55435   -128.8 1.072e+04 3.357e-10
  8.59449   -128.3 1.073e+04 2.677e-10
  8.63464   -127.8 1.076e+04 2.495e-10
  8.65970   -127.1 1.076e+04 2.493e-10
  8.67977   -129.0 1.097e+04 4.633e-10
  8.71492   -127.9 1.079e+04 4.624e-10
  8.75506   -126.5 1.053e+04 4.566e-10
  8.79521   -125.1 1.035e+04 4.209e-10
  8.82475   -123.8 1.019e+04 3.676e-10
  8.84482   -125.1 1.026e+04 3.752e-10
  8.87549   -123.9 1.005e+04 3.135e-10
  8.91564   -122.6 9.857e+03 2.658e-10
  8.95578   -121.3 9.778e+03 2.432e-10
  8.98980   -119.9 9.774e+03 2.391e-10
  9.00987   -121.0 9.673e+03 2.324e-10
  9.03606   -119.9 9.845e+03 2.504e-10
  9.07621   -119.2 1.027e+04 3.537e-10
  9.11635   -118.5 1.074e+04 5.409e-10
  9.15486   -117.9 1.114e+04 7.757e-10
  9.17493   -119.2 1.093e+04 6.953e-10
  9.19664   -119.0 1.104e+04 8.089e-10
  9.23678   -119.0 1.103e+04 8.276e-10
  9.27692   -118.9 1.071e+04 7.597e-10
  9.31706   -118.5 1.022e+04 5.530e-10
  9.33998   -118.1 9.715e+03 3.667e-10
  9.36005   -118.5 9.507e+03 3.214e-10
  9.39735   -117.8 9.116e+03 2.134e-10
  9.43749   -116.9 8.824e+03 1.503e-10
  9.47764   -115.7 8.618e+03 1.130e-10
  9.50503   -114.3 8.473e+03 8.995e-11
  9.52511   -114.1 8.402e+03 7.853e-11
  9.55792   -112.5 8.311e+03 6.414e-11
  9.59806   -110.7 8.241e+03 5.423e-11
  9.63821   -108.9 8.188e+03 4.739e-11
  9.67009   -107.0 8.152e+03 4.286e-11
  9.69016   -106.8 8.122e+03 3.927e-11
  9.71849   -104.9 8.120e+03 3.826e-11
  9.75864   -103.0 8.123e+03 3.809e-11
  9.79878   -101.3 8.138e+03 3.841e-11
  9.83514    -99.7 8.176e+03 4.028e-11
  9.85521    -99.8 8.402e+03 4.252e-11
  9.87906    -98.4 8.717e+03 4.720e-11
  9.91921    -97.2 9.061e+03 5.370e-11
  9.95935    -96.5 9.415e+03 6.675e-11
  9.99949    -96.5 9.822e+03 1.037e-10
 10.02027    -97.3 1.048e+04 2.294e-10
 10.04034    -98.7 1.101e+04 5.200e-10
 10.07978    -99.0 1.184e+04 1.141e-09
 10.10270    -98.8 1.197e+04 1.335e-09
 10.11263    -98.8 1.217e+04 1.608e-09
 10.12976    -98.3 1.249e+04 1.971e-09
 10.14983    -97.8 1.287e+04 2.354e-09
 10.16991    -97.3 1.314e+04 2.596e-09
 10.18512    -97.1 1.319e+04 2.612e-09
 10.19516    -97.5 1.266e+04 1.897e-09
 10.21005    -97.4 1.239e+04 1.654e-09
 10.23012    -97.3 1.190e+04 1.301e-09
 10.25019    -97.3 1.135e+04 9.608e-10
 10.26765    -97.2 1.082e+04 6.768e-10
 10.27769    -97.3 1.039e+04 5.085e-10
 10.29033    -97.0 1.015e+04 3.773e-10
 10.31041    -96.8 9.959e+03 3.066e-10
 10.33048    -96.5 9.895e+03 2.811e-10
 10.35028    -96.1 9.876e+03 2.601e-10
 10.37044    -96.2 9.582e+03 2.085e-10
 10.40092    -95.0 9.487e+03 1.921e-10
 10.44107    -93.7 9.509e+03 1.932e-10
 10.48121    -92.7 9.706e+03 2.276e-10
 10.51543    -91.5 9.906e+03 2.826e-10
 10.53550    -91.8 9.981e+03 3.367e-10
 10.56149    -90.7 1.023e+04 4.078e-10
 10.60164    -89.8 1.036e+04 4.288e-10
 10.64178    -89.2 1.043e+04 4.205e-10
 10.68048    -89.2 1.066e+04 3.793e-10
 10.70055    -90.3 1.076e+04 3.983e-10
 10.72207    -91.5 1.109e+04 3.896e-10
 10.76221    -93.5 1.184e+04 4.646e-10
 10.80235    -95.4 1.230e+04 6.363e-10
 10.84249    -97.7 1.274e+04 9.685e-10
 10.86561    -99.9 1.309e+04 1.342e-09
 10.88568   -101.5 1.336e+04 1.514e-09
 10.92278   -103.9 1.344e+04 1.637e-09
