# Columns:
#   distance along LOS (in CHIMPs)
#   peculiar velocity  (in km/s)
#   temperature (K)
#   HI number density
# pos=(48.6429,157.984,233.054), angles=(0.00874831,4.92341)
  0.00567    -72.9 1.086e+04 6.333e-10
  0.02111    -74.8 1.130e+04 8.511e-10
  0.04064    -76.2 1.182e+04 1.236e-09
  0.06018    -76.9 1.211e+04 1.552e-09
  0.07971    -77.1 1.224e+04 1.728e-09
  0.09924    -77.2 1.227e+04 1.763e-09
  0.11877    -77.4 1.212e+04 1.580e-09
  0.13830    -78.1 1.197e+04 1.333e-09
  0.15784    -79.6 1.205e+04 1.211e-09
  0.17737    -81.9 1.245e+04 1.169e-09
  0.19690    -83.9 1.290e+04 1.439e-09
  0.21643    -85.0 1.337e+04 1.902e-09
  0.23596    -85.2 1.365e+04 2.471e-09
  0.25550    -84.9 1.377e+04 2.942e-09
  0.27503    -83.8 1.380e+04 3.136e-09
  0.29456    -82.9 1.372e+04 3.189e-09
  0.31409    -81.9 1.348e+04 2.866e-09
  0.33362    -81.2 1.318e+04 2.281e-09
  0.35316    -80.8 1.285e+04 1.776e-09
  0.37269    -80.6 1.247e+04 1.411e-09
  0.39222    -80.5 1.210e+04 1.191e-09
  0.41175    -80.2 1.184e+04 1.090e-09
  0.43128    -79.7 1.178e+04 1.066e-09
  0.45082    -79.0 1.184e+04 1.088e-09
  0.47035    -78.4 1.208e+04 1.166e-09
  0.48988    -78.2 1.252e+04 1.329e-09
  0.50941    -78.3 1.313e+04 1.629e-09
  0.52894    -78.7 1.382e+04 2.152e-09
  0.54848    -78.9 1.444e+04 2.950e-09
  0.56801    -78.7 1.480e+04 3.933e-09
  0.58754    -78.3 1.504e+04 4.698e-09
  0.60707    -77.8 1.517e+04 4.935e-09
  0.62660    -77.5 1.514e+04 4.994e-09
  0.64614    -76.9 1.478e+04 4.557e-09
  0.66567    -76.4 1.424e+04 3.559e-09
  0.68520    -76.3 1.361e+04 2.537e-09
  0.70473    -77.0 1.283e+04 1.737e-09
  0.72426    -77.8 1.189e+04 1.218e-09
  0.74380    -78.2 1.103e+04 9.010e-10
  0.76333    -78.3 1.047e+04 7.188e-10
  0.78286    -78.2 1.017e+04 6.069e-10
  0.80239    -78.1 9.952e+03 5.327e-10
  0.83179    -77.9 9.914e+03 4.971e-10
  0.87095    -77.2 9.540e+03 4.053e-10
  0.91001    -76.4 9.153e+03 3.266e-10
  0.94908    -75.3 8.797e+03 2.584e-10
  0.98814    -73.9 8.618e+03 2.077e-10
  1.02721    -72.7 8.521e+03 1.756e-10
  1.06627    -71.6 8.514e+03 1.667e-10
  1.10533    -70.5 8.686e+03 1.898e-10
  1.14440    -69.3 8.973e+03 2.523e-10
  1.18346    -67.9 9.208e+03 3.352e-10
  1.22253    -66.2 9.335e+03 3.816e-10
  1.26159    -64.6 9.376e+03 3.909e-10
  1.30065    -62.8 9.248e+03 3.350e-10
  1.33972    -61.2 8.977e+03 2.438e-10
  1.37878    -59.6 8.682e+03 1.565e-10
  1.41785    -58.2 8.421e+03 9.880e-11
  1.45691    -56.8 8.242e+03 6.751e-11
  1.49597    -55.3 8.157e+03 5.732e-11
  1.53504    -53.6 8.142e+03 5.533e-11
  1.57410    -51.9 8.213e+03 5.612e-11
  1.61317    -50.4 8.355e+03 6.735e-11
  1.65223    -48.8 8.457e+03 8.743e-11
  1.69129    -46.8 8.550e+03 1.111e-10
  1.73036    -44.8 8.639e+03 1.285e-10
  1.76942    -42.8 8.667e+03 1.335e-10
  1.80849    -40.9 8.709e+03 1.294e-10
  1.84755    -39.1 8.738e+03 1.179e-10
  1.88661    -37.5 8.798e+03 1.104e-10
  1.92568    -36.2 9.034e+03 1.094e-10
  1.96474    -34.8 9.120e+03 1.242e-10
  2.00381    -33.2 9.153e+03 1.452e-10
  2.04287    -31.3 9.094e+03 1.624e-10
  2.08193    -29.4 9.043e+03 1.668e-10
  2.12100    -27.1 8.883e+03 1.684e-10
  2.16006    -24.9 8.876e+03 1.467e-10
  2.19913    -23.0 8.898e+03 1.392e-10
  2.23819    -21.3 9.026e+03 1.421e-10
  2.27725    -19.9 9.258e+03 1.841e-10
  2.31632    -18.2 9.471e+03 2.672e-10
  2.35538    -16.1 9.764e+03 3.615e-10
  2.39445    -13.9 1.002e+04 4.366e-10
  2.43351    -12.1 1.012e+04 4.644e-10
  2.47257    -10.6 1.011e+04 4.629e-10
  2.51164     -9.4 1.024e+04 4.445e-10
  2.55070     -9.1 1.077e+04 5.078e-10
  2.58977     -9.9 1.141e+04 7.069e-10
  2.62883    -10.4 1.205e+04 1.183e-09
  2.65803    -10.7 1.225e+04 1.379e-09
  2.67746    -10.6 1.260e+04 1.482e-09
  2.69700    -11.7 1.311e+04 1.532e-09
  2.71653    -13.4 1.360e+04 1.782e-09
  2.73606    -15.4 1.357e+04 2.195e-09
  2.75559    -17.5 1.392e+04 3.105e-09
  2.77512    -19.8 1.532e+04 4.697e-09
  2.79466    -21.7 1.707e+04 7.055e-09
  2.81419    -23.3 1.830e+04 8.987e-09
  2.83372    -25.4 1.872e+04 9.412e-09
  2.85325    -28.3 1.808e+04 8.077e-09
  2.87278    -32.1 1.635e+04 5.191e-09
  2.89232    -35.0 1.516e+04 3.878e-09
  2.91185    -36.3 1.412e+04 3.105e-09
  2.93138    -36.6 1.337e+04 2.570e-09
  2.95091    -36.6 1.282e+04 2.007e-09
  2.97044    -36.8 1.226e+04 1.569e-09
  2.98998    -37.8 1.186e+04 1.306e-09
  3.00951    -38.6 1.159e+04 1.204e-09
  3.02904    -39.1 1.153e+04 1.191e-09
  3.04857    -39.3 1.160e+04 1.277e-09
  3.06810    -39.2 1.182e+04 1.429e-09
  3.08764    -38.9 1.206e+04 1.571e-09
  3.10717    -38.9 1.224e+04 1.664e-09
  3.13656    -39.7 1.231e+04 1.680e-09
  3.17573    -40.2 1.199e+04 1.437e-09
  3.21479    -41.5 1.162e+04 1.190e-09
  3.25385    -43.4 1.138e+04 1.080e-09
  3.29292    -44.7 1.133e+04 1.060e-09
  3.32212    -45.5 1.111e+04 1.044e-09
  3.34155    -45.3 1.100e+04 9.769e-10
  3.36108    -45.4 1.080e+04 8.183e-10
  3.38062    -45.7 1.053e+04 6.503e-10
  3.40015    -46.1 1.015e+04 4.996e-10
  3.41968    -46.4 9.761e+03 3.874e-10
  3.44908    -46.7 9.486e+03 3.027e-10
  3.48824    -46.9 9.344e+03 2.747e-10
  3.52730    -46.0 9.047e+03 2.367e-10
  3.56637    -44.8 8.944e+03 2.195e-10
  3.60543    -43.4 9.011e+03 2.196e-10
  3.64449    -42.3 9.170e+03 2.327e-10
  3.68356    -41.1 9.271e+03 2.643e-10
  3.72262    -40.0 9.350e+03 3.166e-10
  3.76169    -38.6 9.436e+03 3.537e-10
  3.80075    -37.0 9.539e+03 3.728e-10
  3.83981    -35.5 9.606e+03 3.721e-10
  3.87888    -34.2 9.567e+03 3.261e-10
  3.91794    -32.9 9.392e+03 2.614e-10
  3.95701    -31.8 9.216e+03 2.120e-10
  3.99607    -30.9 9.121e+03 1.914e-10
  4.03513    -29.9 9.103e+03 1.886e-10
  4.07420    -28.9 9.145e+03 1.994e-10
  4.11326    -27.8 9.224e+03 2.187e-10
  4.15233    -26.8 9.366e+03 2.307e-10
  4.19139    -26.4 9.550e+03 2.345e-10
  4.23045    -26.8 9.863e+03 2.335e-10
  4.25779    -28.6 1.022e+04 3.007e-10
  4.27732    -30.3 1.020e+04 3.115e-10
  4.30858    -30.9 1.039e+04 4.370e-10
  4.34765    -31.2 1.059e+04 4.861e-10
  4.38671    -32.4 1.059e+04 3.991e-10
  4.42577    -34.4 1.027e+04 2.774e-10
  4.46484    -35.9 1.008e+04 2.434e-10
  4.50390    -36.6 1.006e+04 2.292e-10
  4.54297    -37.4 1.006e+04 2.108e-10
  4.58203    -38.3 1.005e+04 2.018e-10
  4.62109    -38.8 1.003e+04 2.108e-10
  4.66016    -38.9 1.006e+04 2.366e-10
  4.69922    -38.7 1.006e+04 2.380e-10
  4.73829    -38.7 1.011e+04 2.154e-10
  4.77735    -43.7 1.174e+04 2.278e-10
  4.80655    -49.6 1.241e+04 3.151e-10
  4.82598    -54.8 1.424e+04 1.021e-09
  4.84552    -57.6 1.613e+04 3.215e-09
  4.86505    -58.6 1.773e+04 7.929e-09
  4.88458    -59.1 1.873e+04 1.232e-08
  4.90411    -59.8 1.896e+04 1.342e-08
  4.92364    -60.7 1.849e+04 1.034e-08
  4.94318    -62.4 1.722e+04 5.896e-09
  4.96271    -64.8 1.537e+04 3.515e-09
  4.98224    -66.0 1.401e+04 2.608e-09
  5.00177    -66.2 1.357e+04 2.288e-09
  5.02130    -66.1 1.346e+04 2.182e-09
  5.04084    -66.0 1.361e+04 2.162e-09
  5.06037    -66.5 1.414e+04 2.295e-09
  5.07990    -67.4 1.475e+04 2.617e-09
  5.09943    -68.6 1.517e+04 3.222e-09
  5.11896    -69.5 1.538e+04 4.068e-09
  5.13850    -69.7 1.557e+04 5.034e-09
  5.15803    -69.6 1.578e+04 5.835e-09
  5.17756    -69.3 1.583e+04 6.219e-09
  5.19709    -69.1 1.591e+04 6.066e-09
  5.21662    -69.0 1.576e+04 4.860e-09
  5.23616    -69.5 1.535e+04 3.529e-09
  5.25569    -71.0 1.465e+04 2.634e-09
  5.27522    -72.3 1.395e+04 2.172e-09
  5.29475    -73.0 1.336e+04 2.014e-09
  5.31428    -73.0 1.316e+04 2.030e-09
  5.33382    -72.7 1.304e+04 2.094e-09
  5.35335    -72.2 1.297e+04 2.106e-09
  5.37288    -72.1 1.276e+04 1.958e-09
  5.40228    -72.6 1.242e+04 1.667e-09
  5.44144    -72.9 1.186e+04 1.332e-09
  5.48050    -73.2 1.159e+04 1.206e-09
  5.51957    -73.9 1.152e+04 1.179e-09
  5.55863    -74.8 1.166e+04 1.263e-09
  5.58783    -75.1 1.197e+04 1.497e-09
  5.60726    -75.9 1.206e+04 1.558e-09
  5.62680    -77.1 1.207e+04 1.608e-09
  5.64633    -78.0 1.204e+04 1.615e-09
  5.66586    -78.7 1.181e+04 1.530e-09
  5.68539    -79.3 1.150e+04 1.329e-09
  5.70492    -80.1 1.109e+04 1.055e-09
  5.72446    -81.0 1.057e+04 7.683e-10
  5.74399    -82.1 9.909e+03 5.229e-10
  5.76352    -83.3 9.266e+03 3.633e-10
  5.78305    -84.4 8.953e+03 2.964e-10
  5.80258    -85.2 8.907e+03 2.837e-10
  5.82212    -86.5 8.934e+03 2.834e-10
  5.84165    -88.5 9.395e+03 3.305e-10
  5.86118    -90.8 1.019e+04 5.502e-10
  5.88071    -91.9 1.091e+04 9.361e-10
  5.90024    -92.2 1.151e+04 1.391e-09
  5.91978    -92.2 1.193e+04 1.742e-09
  5.93931    -92.4 1.207e+04 1.847e-09
  5.95884    -92.7 1.206e+04 1.836e-09
  5.97837    -92.9 1.173e+04 1.541e-09
  5.99790    -93.3 1.121e+04 1.155e-09
  6.01744    -94.2 1.069e+04 8.801e-10
  6.03697    -95.1 1.029e+04 7.200e-10
  6.05650    -95.8 1.005e+04 6.410e-10
  6.07603    -96.2 9.973e+03 6.139e-10
  6.09556    -96.5 9.959e+03 6.089e-10
  6.11510    -97.0 1.004e+04 6.252e-10
  6.13463    -97.8 1.026e+04 6.692e-10
  6.15416    -99.0 1.056e+04 7.313e-10
  6.18356   -101.1 1.100e+04 8.395e-10
  6.21285   -101.9 1.120e+04 1.029e-09
  6.23229   -103.1 1.144e+04 1.138e-09
  6.25182   -106.3 1.242e+04 1.438e-09
  6.27135   -113.0 1.571e+04 2.523e-09
  6.29088   -120.2 1.857e+04 6.001e-09
  6.31042   -125.8 1.978e+04 1.293e-08
  6.32502   -128.7 2.030e+04 1.881e-08
  6.33473   -130.1 2.050e+04 2.161e-08
  6.34450   -132.4 2.051e+04 2.576e-08
  6.35427   -134.0 2.044e+04 2.659e-08
  6.36403   -135.2 1.997e+04 2.624e-08
  6.37380   -135.8 1.928e+04 2.065e-08
  6.38356   -137.0 1.865e+04 1.363e-08
  6.39333   -138.9 1.775e+04 8.277e-09
  6.40310   -141.4 1.650e+04 5.128e-09
  6.41286   -143.4 1.538e+04 3.662e-09
  6.42756   -145.0 1.456e+04 2.764e-09
  6.44714   -147.6 1.295e+04 1.473e-09
  6.46667   -150.1 1.106e+04 7.584e-10
  6.48620   -151.6 1.009e+04 5.154e-10
  6.50574   -151.8 9.757e+03 4.489e-10
  6.52527   -151.8 9.610e+03 4.185e-10
  6.54184   -151.0 9.487e+03 3.905e-10
  6.55161   -150.5 9.572e+03 4.157e-10
  6.56433   -149.7 9.523e+03 3.956e-10
  6.58386   -149.0 9.479e+03 3.731e-10
  6.60340   -148.4 9.445e+03 3.540e-10
  6.62293   -147.9 9.450e+03 3.464e-10
  6.64246   -147.7 9.477e+03 3.457e-10
  6.66199   -147.8 9.719e+03 3.589e-10
  6.68152   -148.5 1.018e+04 4.202e-10
  6.70106   -149.5 1.083e+04 5.722e-10
  6.72059   -150.3 1.145e+04 8.249e-10
  6.74012   -150.7 1.193e+04 1.145e-09
  6.75965   -150.8 1.224e+04 1.448e-09
  6.77918   -150.9 1.237e+04 1.642e-09
  6.79872   -151.0 1.237e+04 1.704e-09
  6.81825   -151.0 1.233e+04 1.713e-09
  6.83778   -150.9 1.208e+04 1.604e-09
  6.85731   -150.9 1.179e+04 1.413e-09
  6.87684   -150.9 1.149e+04 1.227e-09
  6.89638   -150.9 1.116e+04 1.059e-09
  6.91591   -150.7 1.081e+04 9.087e-10
  6.93544   -150.2 1.050e+04 7.845e-10
  6.95497   -149.7 1.023e+04 6.876e-10
  6.97450   -149.1 1.001e+04 6.102e-10
  6.99404   -148.2 9.829e+03 5.464e-10
  7.01357   -147.3 9.710e+03 4.943e-10
  7.03310   -146.5 9.649e+03 4.563e-10
  7.05263   -145.7 9.629e+03 4.356e-10
  7.08203   -144.7 9.621e+03 4.103e-10
  7.12119   -142.9 9.638e+03 3.975e-10
  7.15039   -141.5 9.699e+03 3.959e-10
  7.16982   -140.7 9.713e+03 3.918e-10
  7.18936   -139.9 9.726e+03 3.887e-10
  7.20889   -139.2 9.725e+03 3.853e-10
  7.22842   -138.4 9.729e+03 3.840e-10
  7.24795   -137.7 9.721e+03 3.838e-10
  7.26748   -136.9 9.776e+03 3.858e-10
  7.28702   -136.2 9.836e+03 3.955e-10
  7.30655   -135.3 9.902e+03 4.095e-10
  7.32608   -134.6 9.975e+03 4.244e-10
  7.34561   -134.0 1.009e+04 4.435e-10
  7.36514   -133.9 1.030e+04 4.774e-10
  7.38468   -134.1 1.074e+04 5.671e-10
  7.40421   -134.9 1.144e+04 7.817e-10
  7.42374   -135.6 1.228e+04 1.212e-09
  7.44327   -136.0 1.310e+04 1.915e-09
  7.46280   -136.1 1.381e+04 2.796e-09
  7.48234   -136.1 1.429e+04 3.545e-09
  7.50187   -136.3 1.447e+04 3.818e-09
  7.52140   -136.5 1.447e+04 3.816e-09
  7.54093   -136.4 1.412e+04 3.100e-09
  7.56046   -136.6 1.349e+04 2.121e-09
  7.58000   -137.3 1.282e+04 1.462e-09
  7.59953   -138.2 1.216e+04 1.085e-09
  7.61906   -138.7 1.166e+04 9.057e-10
  7.63859   -138.8 1.146e+04 8.495e-10
  7.65812   -138.6 1.142e+04 8.403e-10
  7.67766   -138.2 1.147e+04 8.493e-10
  7.69719   -137.7 1.158e+04 9.051e-10
  7.71672   -137.0 1.169e+04 9.580e-10
  7.73625   -136.4 1.176e+04 9.896e-10
  7.75578   -135.9 1.177e+04 9.999e-10
  7.77532   -135.3 1.175e+04 1.004e-09
  7.79485   -134.7 1.172e+04 1.023e-09
  7.81438   -134.1 1.177e+04 1.056e-09
  7.83391   -133.5 1.181e+04 1.094e-09
  7.85344   -133.0 1.184e+04 1.123e-09
  7.87298   -132.5 1.184e+04 1.133e-09
  7.89251   -132.0 1.182e+04 1.133e-09
  7.91204   -131.4 1.174e+04 1.111e-09
  7.93157   -130.6 1.164e+04 1.070e-09
  7.95110   -129.8 1.152e+04 1.013e-09
  7.97064   -128.7 1.138e+04 9.388e-10
  7.99017   -127.7 1.134e+04 8.661e-10
  8.00970   -127.3 1.142e+04 8.350e-10
  8.02923   -129.1 1.558e+04 7.104e-10
  8.04876   -136.4 3.108e+04 1.013e-09
  8.06830   -143.7 3.299e+04 3.965e-09
  8.08290   -147.9 3.064e+04 9.484e-09
  8.09261   -150.4 2.630e+04 2.272e-08
  8.10238   -151.9 2.377e+04 5.112e-08
  8.11214   -152.9 2.242e+04 1.099e-07
  8.12191   -153.2 2.183e+04 2.343e-07
  8.13168   -153.0 2.151e+04 4.641e-07
  8.14144   -152.9 2.126e+04 7.493e-07
  8.15121   -153.8 2.122e+04 9.055e-07
  8.16097   -156.6 2.121e+04 8.913e-07
  8.17074   -159.4 2.146e+04 5.261e-07
  8.18051   -160.6 2.244e+04 2.090e-07
  8.19027   -160.7 2.413e+04 9.212e-08
  8.20004   -160.7 2.661e+04 3.964e-08
  8.20980   -161.7 2.943e+04 1.470e-08
  8.21957   -166.2 2.846e+04 4.953e-09
  8.22934   -172.0 2.000e+04 2.415e-09
  8.23910   -175.1 1.509e+04 2.005e-09
  8.24887   -175.5 1.437e+04 1.997e-09
  8.26357   -175.3 1.432e+04 2.127e-09
  8.28315   -174.2 1.416e+04 2.062e-09
  8.30268   -173.3 1.402e+04 1.962e-09
  8.32221   -172.6 1.377e+04 1.867e-09
  8.34174   -171.9 1.360e+04 1.839e-09
  8.36128   -171.2 1.350e+04 1.855e-09
  8.38081   -170.5 1.353e+04 1.873e-09
  8.40034   -169.7 1.350e+04 1.885e-09
  8.41987   -169.0 1.349e+04 1.884e-09
  8.43940   -168.3 1.349e+04 1.880e-09
  8.45894   -167.6 1.345e+04 1.862e-09
  8.47847   -166.9 1.335e+04 1.805e-09
  8.49800   -166.2 1.321e+04 1.714e-09
  8.51753   -165.4 1.303e+04 1.609e-09
  8.53706   -164.6 1.288e+04 1.519e-09
  8.55660   -163.8 1.277e+04 1.466e-09
  8.57613   -162.9 1.274e+04 1.453e-09
  8.59566   -161.9 1.275e+04 1.460e-09
  8.61519   -161.1 1.286e+04 1.536e-09
  8.63472   -160.2 1.300e+04 1.665e-09
  8.65426   -159.3 1.317e+04 1.829e-09
  8.67379   -158.5 1.334e+04 2.016e-09
  8.69332   -157.6 1.347e+04 2.191e-09
  8.71285   -156.8 1.350e+04 2.312e-09
  8.73238   -155.9 1.349e+04 2.358e-09
  8.75192   -155.0 1.344e+04 2.366e-09
  8.77145   -154.1 1.324e+04 2.310e-09
  8.79098   -153.1 1.302e+04 2.165e-09
  8.81051   -152.1 1.278e+04 1.982e-09
  8.82609   -151.1 1.254e+04 1.788e-09
  8.83586   -150.3 1.230e+04 1.622e-09
  8.84958   -149.2 1.206e+04 1.479e-09
  8.86911   -148.1 1.183e+04 1.347e-09
  8.88864   -147.0 1.164e+04 1.234e-09
  8.90817   -145.8 1.147e+04 1.141e-09
  8.92770   -144.6 1.132e+04 1.061e-09
  8.94724   -143.4 1.119e+04 9.909e-10
  8.96677   -142.2 1.106e+04 9.320e-10
  8.99616   -140.8 1.092e+04 8.711e-10
  9.03532   -137.9 1.059e+04 7.847e-10
  9.07439   -135.5 1.039e+04 7.223e-10
  9.11345   -133.0 1.007e+04 6.513e-10
  9.13343   -130.3 9.726e+03 5.595e-10
  9.15296   -131.2 9.429e+03 4.498e-10
  9.19158   -129.0 9.231e+03 3.995e-10
  9.23064   -126.8 9.097e+03 3.733e-10
  9.26971   -124.8 9.021e+03 3.634e-10
  9.30877   -122.9 8.991e+03 3.618e-10
  9.34784   -121.3 8.976e+03 3.627e-10
  9.38690   -119.8 8.966e+03 3.698e-10
  9.42596   -118.7 8.997e+03 3.777e-10
  9.46503   -117.7 9.050e+03 3.948e-10
  9.50409   -116.9 9.097e+03 4.127e-10
  9.54316   -115.9 9.078e+03 4.257e-10
  9.58222   -114.8 9.000e+03 4.498e-10
  9.62128   -114.1 9.405e+03 5.092e-10
  9.66035   -114.2 1.080e+04 6.414e-10
  9.68955   -116.6 1.277e+04 1.104e-09
  9.70898   -118.1 1.365e+04 1.554e-09
  9.72852   -120.5 1.440e+04 2.453e-09
  9.74805   -122.5 1.524e+04 4.018e-09
  9.76758   -124.6 1.649e+04 6.629e-09
  9.78711   -126.5 1.810e+04 1.047e-08
  9.80664   -128.6 1.957e+04 1.589e-08
  9.82618   -131.3 2.070e+04 1.887e-08
  9.84078   -135.4 2.061e+04 1.677e-08
  9.85049   -136.9 2.044e+04 1.559e-08
  9.86026   -139.1 1.958e+04 1.287e-08
  9.87002   -140.2 1.859e+04 1.029e-08
  9.87979   -142.3 1.664e+04 6.711e-09
  9.88956   -143.3 1.539e+04 4.758e-09
  9.90425   -143.8 1.456e+04 3.574e-09
  9.92384   -145.2 1.357e+04 2.288e-09
  9.94337   -146.8 1.205e+04 1.190e-09
  9.96290   -148.0 1.074e+04 6.930e-10
  9.98243   -148.6 1.010e+04 5.021e-10
 10.00196   -148.6 9.884e+03 4.202e-10
 10.02150   -148.1 9.734e+03 3.695e-10
 10.05089   -147.4 9.631e+03 3.340e-10
 10.09005   -147.1 9.567e+03 3.193e-10
 10.12912   -146.4 9.479e+03 3.078e-10
 10.16818   -145.4 9.472e+03 3.079e-10
 10.20724   -144.6 9.591e+03 3.313e-10
 10.24631   -143.9 9.728e+03 3.656e-10
 10.28537   -143.2 9.800e+03 3.848e-10
 10.32444   -142.4 9.808e+03 3.870e-10
 10.36350   -141.4 9.724e+03 3.560e-10
 10.40256   -140.2 9.526e+03 2.934e-10
 10.44163   -139.0 9.328e+03 2.392e-10
 10.48069   -137.8 9.206e+03 2.084e-10
 10.51976   -136.5 9.142e+03 1.961e-10
 10.55882   -135.1 9.127e+03 1.930e-10
 10.59788   -134.5 9.960e+03 2.353e-10
 10.62708   -133.2 9.451e+03 2.020e-10
 10.64652   -133.9 1.116e+04 2.931e-10
 10.66605   -134.5 1.267e+04 4.639e-10
 10.68558   -134.9 1.366e+04 7.912e-10
 10.70512   -135.1 1.404e+04 1.277e-09
 10.72465   -134.9 1.417e+04 1.876e-09
 10.74418   -134.4 1.416e+04 2.501e-09
 10.76371   -133.6 1.414e+04 2.941e-09
 10.78324   -132.8 1.400e+04 3.227e-09
 10.80278   -132.1 1.387e+04 3.286e-09
 10.82231   -131.5 1.369e+04 3.202e-09
 10.84184   -131.0 1.356e+04 3.023e-09
 10.86137   -130.6 1.342e+04 2.901e-09
 10.88090   -130.3 1.322e+04 2.758e-09
 10.90044   -130.1 1.312e+04 2.605e-09
 10.91997   -129.8 1.310e+04 2.485e-09
 10.93950   -129.4 1.314e+04 2.386e-09
 10.95903   -129.1 1.323e+04 2.281e-09
 10.97856   -128.8 1.336e+04 2.141e-09
 10.99810   -128.7 1.350e+04 1.947e-09
 11.01763   -128.7 1.355e+04 1.722e-09
 11.03716   -128.9 1.341e+04 1.496e-09
 11.05669   -129.5 1.297e+04 1.293e-09
 11.07622   -130.1 1.237e+04 1.144e-09
 11.09576   -130.5 1.185e+04 1.058e-09
 11.11034   -130.6 1.151e+04 1.002e-09
 11.12010   -130.7 1.183e+04 1.173e-09
 11.13482   -130.7 1.138e+04 1.046e-09
 11.15435   -130.0 1.101e+04 9.121e-10
 11.17388   -129.3 1.067e+04 7.530e-10
 11.19342   -128.5 1.031e+04 5.802e-10
 11.21295   -128.0 9.975e+03 4.362e-10
 11.23248   -127.7 9.750e+03 3.569e-10
 11.26187   -127.4 9.620e+03 3.171e-10
 11.30104   -126.6 9.357e+03 2.743e-10
 11.34010   -124.9 9.098e+03 2.446e-10
 11.37916   -122.9 8.987e+03 2.313e-10
 11.41823   -120.6 8.985e+03 2.293e-10
 11.45729   -118.1 9.078e+03 2.353e-10
 11.48649   -116.6 9.183e+03 2.464e-10
 11.50593   -116.4 9.240e+03 2.633e-10
 11.52546   -116.5 9.668e+03 3.646e-10
 11.54499   -117.3 1.062e+04 6.066e-10
 11.56452   -117.9 1.189e+04 1.112e-09
 11.58406   -118.3 1.319e+04 1.996e-09
 11.60359   -118.5 1.439e+04 3.287e-09
 11.62312   -118.9 1.545e+04 4.780e-09
 11.64265   -119.6 1.634e+04 6.053e-09
 11.66218   -121.1 1.701e+04 6.614e-09
 11.68172   -123.5 1.724e+04 6.677e-09
 11.70125   -126.4 1.688e+04 5.502e-09
 11.72078   -129.4 1.601e+04 4.420e-09
 11.74031   -131.8 1.503e+04 3.618e-09
 11.75984   -133.3 1.426e+04 3.039e-09
 11.77938   -134.1 1.367e+04 2.562e-09
 11.79891   -134.7 1.322e+04 2.139e-09
 11.81844   -135.3 1.274e+04 1.760e-09
 11.83797   -136.0 1.224e+04 1.456e-09
 11.85750   -136.6 1.176e+04 1.244e-09
 11.87704   -136.8 1.141e+04 1.118e-09
 11.89657   -136.9 1.116e+04 1.048e-09
 11.91610   -136.8 1.096e+04 9.893e-10
 11.93563   -136.2 1.071e+04 9.032e-10
 11.95516   -135.4 1.042e+04 7.792e-10
 11.97469   -134.6 1.010e+04 6.348e-10
 11.99423   -134.0 9.779e+03 5.059e-10
 12.01376   -133.7 9.538e+03 4.204e-10
 12.04315   -133.5 9.317e+03 3.512e-10
 12.08232   -132.0 8.839e+03 2.497e-10
 12.12138   -129.8 8.310e+03 1.695e-10
 12.16044   -127.6 7.900e+03 1.176e-10
