# Columns:
#   distance along LOS (in CHIMPs)
#   peculiar velocity  (in km/s)
#   temperature (K)
#   HI number density
# pos=(149.699,213.734,63.1037), angles=(1.58416,2.94913)
  0.00668    145.2 1.046e+04 4.456e-10
  0.02268    146.3 1.055e+04 4.597e-10
  0.05191    147.1 1.052e+04 4.482e-10
  0.09171    148.0 1.036e+04 3.915e-10
  0.13151    149.1 1.010e+04 2.936e-10
  0.17132    150.4 9.806e+03 1.990e-10
  0.20440    151.8 9.542e+03 1.309e-10
  0.22430    152.8 9.677e+03 1.443e-10
  0.25092    154.2 9.498e+03 9.724e-11
  0.29072    155.7 9.377e+03 7.276e-11
  0.33052    157.3 9.267e+03 6.278e-11
  0.37032    159.0 9.184e+03 5.931e-11
  0.40602    161.0 9.124e+03 5.717e-11
  0.42593    161.8 9.299e+03 6.389e-11
  0.44992    163.8 9.224e+03 5.889e-11
  0.48972    165.9 9.161e+03 5.297e-11
  0.52952    168.1 9.098e+03 4.715e-11
  0.56932    170.3 9.026e+03 4.311e-11
  0.60765    172.5 9.005e+03 4.225e-11
  0.62755    173.2 9.124e+03 4.322e-11
  0.64893    175.5 9.123e+03 4.323e-11
  0.68873    177.7 9.135e+03 4.370e-11
  0.72853    179.9 9.188e+03 4.590e-11
  0.76833    182.1 9.246e+03 5.072e-11
  0.80813    184.2 9.306e+03 5.743e-11
  0.82917    186.3 9.365e+03 6.512e-11
  0.84907    186.8 9.442e+03 8.017e-11
  0.88773    188.9 9.489e+03 8.958e-11
  0.92753    190.9 9.522e+03 9.676e-11
  0.96733    193.0 9.557e+03 1.007e-10
  1.00713    195.2 9.591e+03 1.024e-10
  1.03079    197.3 9.631e+03 1.036e-10
  1.05069    197.5 9.693e+03 1.133e-10
  1.08674    199.6 9.726e+03 1.123e-10
  1.12654    201.7 9.768e+03 1.125e-10
  1.16634    203.7 9.819e+03 1.147e-10
  1.19981    205.7 9.860e+03 1.190e-10
  1.21971    205.8 9.871e+03 1.349e-10
  1.23241    207.7 9.889e+03 1.406e-10
  1.25231    207.7 9.859e+03 1.256e-10
  1.28574    209.4 9.848e+03 1.321e-10
  1.32554    211.0 9.846e+03 1.413e-10
  1.36534    212.6 9.856e+03 1.531e-10
  1.40514    214.1 9.861e+03 1.652e-10
  1.43403    215.6 9.866e+03 1.789e-10
  1.45393    215.7 9.901e+03 1.925e-10
  1.48474    217.2 9.933e+03 2.114e-10
  1.52454    218.7 9.955e+03 2.271e-10
  1.56435    220.2 9.975e+03 2.403e-10
  1.60415    221.7 9.998e+03 2.533e-10
  1.63565    223.0 1.004e+04 2.704e-10
  1.65555    223.0 1.002e+04 2.760e-10
  1.68375    224.3 1.007e+04 2.959e-10
  1.72355    225.2 1.015e+04 3.258e-10
  1.76335    225.8 1.021e+04 3.539e-10
  1.79310    226.1 1.028e+04 3.933e-10
  1.81291    226.3 1.049e+04 4.728e-10
  1.83281    226.2 1.076e+04 5.872e-10
  1.84703    226.1 1.105e+04 7.130e-10
  1.85698    225.9 1.101e+04 6.830e-10
  1.87261    225.5 1.134e+04 8.248e-10
  1.89251    224.8 1.164e+04 9.809e-10
  1.91241    224.0 1.189e+04 1.141e-09
  1.93231    223.1 1.210e+04 1.291e-09
  1.94784    222.3 1.227e+04 1.402e-09
  1.95779    222.2 1.243e+04 1.530e-09
  1.97211    221.2 1.249e+04 1.544e-09
  1.99201    220.2 1.248e+04 1.532e-09
  2.01191    219.1 1.239e+04 1.461e-09
  2.03181    218.3 1.214e+04 1.295e-09
  2.04865    217.5 1.173e+04 1.079e-09
  2.05860    217.8 1.166e+04 1.058e-09
  2.07161    216.9 1.129e+04 8.872e-10
  2.09151    215.5 1.131e+04 8.761e-10
  2.11141    213.1 1.171e+04 9.235e-10
  2.13131    210.0 1.259e+04 1.061e-09
  2.14619    209.1 1.283e+04 1.080e-09
  2.15434    207.3 1.393e+04 1.213e-09
  2.15931    207.9 1.343e+04 1.100e-09
  2.16604    202.2 1.753e+04 1.747e-09
  2.17599    192.8 2.305e+04 5.692e-09
  2.18594    184.5 2.443e+04 1.880e-08
  2.19589    179.4 2.355e+04 4.080e-08
  2.20474    176.7 2.237e+04 5.119e-08
  2.20972    177.1 2.225e+04 4.513e-08
  2.21579    175.4 2.212e+04 4.396e-08
  2.22574    173.9 2.198e+04 3.601e-08
  2.23569    172.1 2.227e+04 2.366e-08
  2.25022    167.4 2.400e+04 9.195e-09
  2.26022    168.5 2.321e+04 9.340e-09
  2.27062    159.8 2.466e+04 2.537e-09
  2.29052    146.6 1.886e+04 8.118e-10
  2.31042    136.9 1.151e+04 8.714e-10
  2.33032    133.8 1.141e+04 8.796e-10
  2.35022    132.5 1.167e+04 1.009e-09
  2.36103    129.3 1.314e+04 1.399e-09
  2.37098    132.9 1.211e+04 1.186e-09
  2.39002    129.1 1.340e+04 1.596e-09
  2.40992    121.8 1.646e+04 3.215e-09
  2.42982    114.5 1.939e+04 7.879e-09
  2.44972    109.0 2.059e+04 1.546e-08
  2.46184    104.8 2.045e+04 1.794e-08
  2.47179    107.9 2.041e+04 1.469e-08
  2.48952    103.8 2.010e+04 1.447e-08
  2.50942    101.2 1.891e+04 1.097e-08
  2.52932     99.2 1.713e+04 5.642e-09
  2.54922     96.1 1.482e+04 2.230e-09
  2.56265     91.5 1.256e+04 1.167e-09
  2.57260     92.4 1.323e+04 1.583e-09
  2.58902     88.1 1.271e+04 1.438e-09
  2.60892     84.8 1.277e+04 1.567e-09
  2.62882     82.4 1.310e+04 2.140e-09
  2.64872     81.0 1.369e+04 3.153e-09
  2.66346     79.7 1.429e+04 4.120e-09
  2.67156     80.7 1.378e+04 3.315e-09
  2.67673     80.5 1.401e+04 3.607e-09
  2.68852     78.2 1.483e+04 4.009e-09
  2.70340     73.3 1.729e+04 5.163e-09
  2.71330     67.6 1.979e+04 7.198e-09
  2.71874     60.5 1.987e+04 1.076e-08
  2.72372     60.8 1.969e+04 9.631e-09
  2.73320     59.9 1.923e+04 1.068e-08
  2.74818     55.1 1.886e+04 1.123e-08
  2.76427     52.5 1.708e+04 9.339e-09
  2.77422     52.9 1.624e+04 7.355e-09
  2.78803     52.5 1.514e+04 5.042e-09
  2.80793     51.1 1.471e+04 2.492e-09
  2.82783     46.4 1.436e+04 1.072e-09
  2.84773     40.6 1.232e+04 6.532e-10
  2.86508     37.8 1.096e+04 6.276e-10
  2.87503     40.5 1.122e+04 5.507e-10
  2.88753     38.9 1.076e+04 5.531e-10
  2.90743     38.4 1.077e+04 5.877e-10
  2.92733     38.1 1.093e+04 6.687e-10
  2.94723     37.9 1.112e+04 7.554e-10
  2.96589     37.8 1.126e+04 8.252e-10
  2.97584     39.0 1.107e+04 7.311e-10
  2.98703     38.9 1.111e+04 7.776e-10
  3.00693     38.5 1.112e+04 7.739e-10
  3.03688     37.7 1.085e+04 6.617e-10
  3.06690     37.6 1.014e+04 4.269e-10
  3.08680     39.8 1.031e+04 4.886e-10
  3.11658     39.3 9.677e+03 2.850e-10
  3.15638     38.7 9.133e+03 1.604e-10
  3.19618     38.2 8.670e+03 1.144e-10
  3.23598     38.5 8.540e+03 1.112e-10
  3.26852     38.9 8.592e+03 1.161e-10
  3.28842     40.3 8.481e+03 1.085e-10
  3.31558     40.6 8.579e+03 1.185e-10
  3.35538     40.8 8.755e+03 1.592e-10
  3.39519     41.0 8.941e+03 2.240e-10
  3.43499     41.2 9.109e+03 2.724e-10
  3.47014     41.2 9.320e+03 2.938e-10
  3.49004     43.4 8.986e+03 2.319e-10
  3.51459     43.2 9.179e+03 2.505e-10
  3.55439     42.4 9.596e+03 2.968e-10
  3.58080     41.1 1.003e+04 3.840e-10
  3.59066     42.0 9.772e+03 3.403e-10
  3.60394     41.2 1.004e+04 4.344e-10
  3.62385     40.3 1.024e+04 5.751e-10
  3.64375     39.7 1.040e+04 7.314e-10
  3.66365     39.6 1.052e+04 8.562e-10
  3.68152     39.6 1.073e+04 9.108e-10
  3.69147     41.1 1.048e+04 8.699e-10
  3.70345     41.1 1.064e+04 8.713e-10
  3.72335     40.7 1.077e+04 8.438e-10
  3.74325     40.0 1.092e+04 7.661e-10
  3.76315     39.0 1.064e+04 6.678e-10
  3.78233     38.5 1.007e+04 5.571e-10
  3.79228     40.3 1.035e+04 5.778e-10
  3.80295     39.8 9.869e+03 5.086e-10
  3.83290     39.2 9.445e+03 4.100e-10
  3.87280     39.9 9.321e+03 3.650e-10
  3.89328     41.0 9.116e+03 3.116e-10
  3.91318     43.0 9.380e+03 3.758e-10
  3.95240     44.0 9.350e+03 3.513e-10
  3.99220     45.3 9.229e+03 3.259e-10
  4.03200     46.5 9.267e+03 3.376e-10
  4.07180     47.4 9.466e+03 3.986e-10
  4.09490     48.5 9.904e+03 5.414e-10
  4.11480     50.0 1.013e+04 5.827e-10
  4.13413     50.8 1.094e+04 9.209e-10
  4.15403     49.6 1.079e+04 7.963e-10
  4.19120     49.9 1.137e+04 1.092e-09
  4.22096     49.8 1.203e+04 1.484e-09
  4.24076     49.5 1.254e+04 1.877e-09
  4.26066     49.0 1.289e+04 2.189e-09
  4.28056     48.2 1.306e+04 2.317e-09
  4.29633     47.2 1.299e+04 2.270e-09
  4.30628     47.6 1.286e+04 2.069e-09
  4.32036     46.3 1.264e+04 1.935e-09
  4.34026     45.2 1.241e+04 1.685e-09
  4.36016     40.8 1.413e+04 2.056e-09
  4.38006     31.8 1.772e+04 4.404e-09
  4.39714     28.0 1.641e+04 6.706e-09
  4.40709     30.5 1.653e+04 5.185e-09
  4.41986     30.1 1.561e+04 5.579e-09
  4.43976     30.3 1.537e+04 4.780e-09
  4.45966     29.0 1.623e+04 3.109e-09
  4.47956     24.7 1.582e+04 1.573e-09
  4.49795     20.0 1.285e+04 1.068e-09
  4.50790     24.3 1.438e+04 1.033e-09
  4.51936     21.1 1.194e+04 9.602e-10
  4.53927     20.4 1.210e+04 1.104e-09
  4.55917     20.1 1.258e+04 1.313e-09
  4.57907     19.6 1.285e+04 1.580e-09
  4.59876     19.6 1.264e+04 1.806e-09
  4.60871     20.6 1.282e+04 2.163e-09
  4.61887     21.3 1.313e+04 2.334e-09
  4.63877     21.3 1.374e+04 2.096e-09
  4.65867     20.7 1.383e+04 1.718e-09
  4.67857     19.0 1.347e+04 1.277e-09
  4.69847     17.7 1.260e+04 1.147e-09
  4.70952     17.1 1.265e+04 9.451e-10
  4.71947     18.3 1.283e+04 9.181e-10
  4.73827     17.7 1.230e+04 8.915e-10
  4.75817     17.9 1.217e+04 8.294e-10
  4.77807     18.7 1.221e+04 6.718e-10
  4.79797     19.4 1.196e+04 5.766e-10
  4.81033     19.8 1.231e+04 4.081e-10
  4.82028     21.1 1.243e+04 4.959e-10
  4.83777     21.1 1.213e+04 4.201e-10
  4.85767     21.2 1.217e+04 3.197e-10
  4.87757     21.2 1.194e+04 2.950e-10
  4.89747     22.0 1.182e+04 2.984e-10
  4.91114     22.2 1.180e+04 3.108e-10
  4.92109     23.5 1.185e+04 3.605e-10
  4.93727     23.7 1.209e+04 4.000e-10
  4.95717     23.7 1.218e+04 5.038e-10
  4.97707     23.5 1.260e+04 6.199e-10
  4.99698     23.6 1.233e+04 8.682e-10
  5.01195     24.0 1.232e+04 1.086e-09
  5.02190     24.4 1.277e+04 1.286e-09
  5.03678     24.8 1.280e+04 1.555e-09
  5.05668     25.5 1.251e+04 1.714e-09
  5.07658     26.2 1.264e+04 1.457e-09
  5.09648     25.6 1.272e+04 1.212e-09
  5.11276     24.5 1.246e+04 9.275e-10
  5.12271     25.4 1.281e+04 1.121e-09
  5.13628     23.8 1.217e+04 9.191e-10
  5.15618     23.0 1.161e+04 8.229e-10
  5.17608     22.9 1.149e+04 7.795e-10
  5.19598     23.0 1.138e+04 7.247e-10
  5.21357     23.1 1.119e+04 6.719e-10
  5.22352     22.5 1.137e+04 7.942e-10
  5.23578     22.8 1.121e+04 7.463e-10
  5.25568     23.1 1.135e+04 6.612e-10
  5.27558     23.4 1.105e+04 6.668e-10
  5.29548     23.7 1.114e+04 5.794e-10
  5.31438     24.3 1.090e+04 5.890e-10
  5.32433     23.8 1.116e+04 6.855e-10
  5.33528     24.2 1.125e+04 6.435e-10
  5.35518     24.6 1.130e+04 6.521e-10
  5.37508     24.9 1.140e+04 6.883e-10
  5.39498     25.1 1.150e+04 7.478e-10
  5.41488     25.4 1.157e+04 8.228e-10
  5.42514     25.9 1.166e+04 9.344e-10
  5.43509     25.9 1.174e+04 9.611e-10
  5.45469     26.4 1.189e+04 1.023e-09
  5.47459     26.7 1.199e+04 1.069e-09
  5.49449     27.1 1.199e+04 1.059e-09
  5.51439     27.0 1.199e+04 1.058e-09
  5.52605     27.6 1.206e+04 1.143e-09
  5.54605     27.1 1.205e+04 1.196e-09
  5.58423     28.3 1.202e+04 1.181e-09
  5.62403     29.3 1.187e+04 1.058e-09
  5.66384     29.9 1.158e+04 8.386e-10
  5.70364     30.2 1.126e+04 6.921e-10
  5.72777     31.0 1.073e+04 5.791e-10
  5.73762     31.3 1.075e+04 5.376e-10
  5.75319     31.2 1.069e+04 5.295e-10
  5.78314     33.0 1.024e+04 4.014e-10
  5.82304     34.7 9.926e+03 2.677e-10
  5.86284     35.8 9.666e+03 1.924e-10
  5.90264     37.4 9.525e+03 1.868e-10
  5.92939     38.8 9.619e+03 2.137e-10
  5.94929     39.6 9.777e+03 2.489e-10
  5.98224     40.9 1.006e+04 3.552e-10
  6.02204     42.2 1.052e+04 5.376e-10
  6.06184     43.2 1.107e+04 7.799e-10
  6.10164     43.7 1.147e+04 9.949e-10
  6.13101     43.7 1.147e+04 9.781e-10
  6.15091     43.9 1.129e+04 8.715e-10
  6.18125     44.0 1.072e+04 6.709e-10
  6.22105     43.6 1.021e+04 4.724e-10
  6.26085     43.4 1.014e+04 3.850e-10
  6.30065     43.5 9.968e+03 3.269e-10
  6.33263     43.9 9.847e+03 3.180e-10
  6.35253     44.3 9.904e+03 3.191e-10
  6.38025     44.9 9.891e+03 3.363e-10
  6.42005     46.2 9.859e+03 3.562e-10
  6.44330     47.5 9.803e+03 3.532e-10
  6.45315     47.5 9.766e+03 3.465e-10
  6.46961     48.0 9.785e+03 3.367e-10
  6.48951     48.5 9.788e+03 3.121e-10
  6.50941     48.4 9.815e+03 2.916e-10
  6.52931     47.7 9.953e+03 2.937e-10
  6.54401     46.7 1.046e+04 3.362e-10
  6.55396     45.8 1.095e+04 4.104e-10
  6.56911     44.9 1.143e+04 6.085e-10
  6.58901     44.5 1.189e+04 9.271e-10
  6.60891     44.5 1.238e+04 1.373e-09
  6.62881     44.5 1.296e+04 1.967e-09
  6.64482     44.9 1.346e+04 2.600e-09
  6.65477     44.7 1.397e+04 3.307e-09
  6.66861     45.1 1.428e+04 3.742e-09
  6.68851     45.5 1.434e+04 3.804e-09
  6.70841     45.6 1.418e+04 3.546e-09
  6.72831     45.9 1.378e+04 2.949e-09
  6.74563     46.0 1.325e+04 2.211e-09
  6.75558     45.5 1.294e+04 1.790e-09
  6.76811     45.3 1.229e+04 1.132e-09
  6.78801     44.6 1.167e+04 7.573e-10
  6.80791     44.4 1.088e+04 5.160e-10
  6.82782     43.6 1.064e+04 4.280e-10
  6.84644     44.4 1.014e+04 3.432e-10
  6.85639     43.4 1.008e+04 3.448e-10
  6.86762     43.8 1.004e+04 3.363e-10
  6.89756     45.8 9.815e+03 3.149e-10
  6.93746     47.8 9.633e+03 3.072e-10
  6.97726     50.2 9.826e+03 3.657e-10
  7.01706     52.8 9.829e+03 3.683e-10
  7.04682     54.2 9.765e+03 3.627e-10
  7.05801     54.8 9.780e+03 3.693e-10
  7.05964     55.3 9.860e+03 4.080e-10
  7.06825     55.0 9.882e+03 4.191e-10
  7.08652     56.2 9.985e+03 4.635e-10
  7.10642     57.2 1.013e+04 5.208e-10
  7.12632     58.2 1.028e+04 5.817e-10
  7.14622     59.1 1.046e+04 6.540e-10
  7.15882     59.7 1.072e+04 7.460e-10
  7.16877     60.6 1.077e+04 7.509e-10
  7.18602     60.9 1.101e+04 8.543e-10
  7.20592     61.0 1.136e+04 1.008e-09
  7.22582     60.6 1.188e+04 1.252e-09
  7.24572     59.8 1.247e+04 1.634e-09
  7.25963     59.2 1.294e+04 2.079e-09
  7.26958     59.9 1.307e+04 2.234e-09
  7.28553     59.8 1.349e+04 2.797e-09
  7.30543     59.8 1.357e+04 2.872e-09
  7.32533     59.9 1.345e+04 2.727e-09
  7.34523     60.0 1.315e+04 2.280e-09
  7.36044     59.4 1.280e+04 1.755e-09
  7.37039     60.7 1.280e+04 1.752e-09
  7.38503     59.3 1.239e+04 1.261e-09
  7.40493     57.5 1.193e+04 9.986e-10
  7.42483     56.3 1.175e+04 9.762e-10
  7.44473     55.5 1.181e+04 1.016e-09
  7.46125     54.9 1.209e+04 1.152e-09
  7.47120     55.1 1.205e+04 1.081e-09
  7.48453     54.4 1.241e+04 1.292e-09
  7.50443     53.7 1.268e+04 1.550e-09
  7.52433     53.6 1.288e+04 1.802e-09
  7.54423     53.6 1.310e+04 2.048e-09
  7.56206     53.7 1.319e+04 2.123e-09
  7.57201     53.7 1.298e+04 1.927e-09
  7.58403     53.9 1.293e+04 1.885e-09
  7.60393     54.3 1.274e+04 1.733e-09
  7.62383     54.5 1.254e+04 1.541e-09
  7.64373     54.7 1.228e+04 1.330e-09
  7.66287     54.6 1.205e+04 1.156e-09
  7.67282     54.7 1.190e+04 1.069e-09
  7.68353     54.7 1.178e+04 9.804e-10
  7.70343     54.9 1.172e+04 9.559e-10
  7.72333     55.2 1.175e+04 9.653e-10
  7.74324     55.1 1.190e+04 1.015e-09
  7.76314     54.6 1.220e+04 1.203e-09
  7.77363     53.1 1.308e+04 1.695e-09
  7.78359     52.1 1.368e+04 2.030e-09
  7.80294     50.4 1.506e+04 3.465e-09
  7.82284     49.5 1.628e+04 5.511e-09
  7.84274     49.1 1.730e+04 7.974e-09
  7.86264     48.4 1.837e+04 1.082e-08
  7.87445     46.9 1.918e+04 1.278e-08
  7.88440     46.1 1.935e+04 1.309e-08
  7.90244     44.0 1.916e+04 1.277e-08
  7.92234     42.3 1.846e+04 1.111e-08
  7.94224     41.3 1.745e+04 8.624e-09
  7.96214     41.1 1.653e+04 6.298e-09
  7.97526     40.7 1.585e+04 4.546e-09
  7.98521     39.3 1.575e+04 3.311e-09
  8.00194     38.0 1.513e+04 2.476e-09
  8.02184     36.5 1.427e+04 1.969e-09
  8.04174     35.7 1.349e+04 1.734e-09
  8.06164     35.6 1.304e+04 1.675e-09
  8.07607     36.1 1.283e+04 1.690e-09
  8.08602     34.9 1.260e+04 1.609e-09
  8.10144     35.9 1.256e+04 1.606e-09
  8.12134     36.9 1.244e+04 1.544e-09
  8.14124     37.8 1.226e+04 1.408e-09
  8.16114     38.3 1.215e+04 1.281e-09
  8.17688     38.4 1.211e+04 1.190e-09
  8.18683     36.5 1.210e+04 1.037e-09
  8.20095     36.3 1.204e+04 1.036e-09
  8.22085     36.3 1.193e+04 1.066e-09
  8.24075     36.6 1.180e+04 1.089e-09
  8.26065     37.1 1.172e+04 1.083e-09
  8.27769     37.6 1.159e+04 1.048e-09
  8.28764     36.3 1.140e+04 9.588e-10
  8.30045     36.7 1.135e+04 9.198e-10
  8.32035     36.4 1.142e+04 9.253e-10
  8.34025     35.4 1.174e+04 9.798e-10
  8.36015     34.1 1.227e+04 1.122e-09
  8.37850     33.2 1.283e+04 1.401e-09
  8.38845     29.5 1.407e+04 2.418e-09
  8.39995     30.2 1.458e+04 3.010e-09
  8.41985     30.1 1.610e+04 4.251e-09
  8.43975     28.1 1.906e+04 6.492e-09
  8.45965     25.5 2.173e+04 1.042e-08
  8.47931     24.6 2.294e+04 1.540e-08
  8.48921     21.4 2.416e+04 2.154e-08
  8.49438     21.1 2.420e+04 2.525e-08
  8.50433     21.3 2.367e+04 2.937e-08
  8.51428     21.6 2.328e+04 3.114e-08
  8.52038     22.0 2.278e+04 3.054e-08
  8.52536     22.6 2.283e+04 3.465e-08
  8.53418     23.3 2.221e+04 3.330e-08
  8.53957     24.2 2.193e+04 3.133e-08
  8.54454     23.3 2.175e+04 3.107e-08
  8.55408     23.8 2.288e+04 3.076e-08
  8.56403     24.2 2.388e+04 3.058e-08
  8.57398     23.9 2.455e+04 3.020e-08
  8.58393     22.3 2.609e+04 3.183e-08
  8.58997     19.2 2.840e+04 3.654e-08
  8.59495      9.9 3.893e+04 7.150e-08
  8.60383      6.8 3.692e+04 1.040e-07
  8.61378      5.7 3.367e+04 1.577e-07
  8.62373      6.0 3.041e+04 2.379e-07
  8.63368      7.1 2.833e+04 3.633e-07
  8.64038      8.5 2.742e+04 4.814e-07
  8.64284      4.1 2.304e+04 1.536e-06
  8.64607      4.8 2.297e+04 1.586e-06
  8.65105      5.4 2.335e+04 1.490e-06
  8.65602      6.1 2.344e+04 1.437e-06
  8.66100      6.4 2.400e+04 1.330e-06
  8.66553      6.7 2.420e+04 1.241e-06
  8.66802      5.9 2.354e+04 2.033e-06
  8.67095      5.9 2.462e+04 1.550e-06
  8.67592      5.8 2.516e+04 1.286e-06
  8.68090      4.6 2.594e+04 1.056e-06
  8.68587      3.9 2.636e+04 9.159e-07
  8.69073      0.5 2.702e+04 7.491e-07
  8.69322      2.9 2.746e+04 6.802e-07
  8.69582     -0.4 3.142e+04 4.210e-07
  8.70080      8.7 3.266e+04 1.100e-06
  8.70577      2.5 2.617e+04 3.809e-06
  8.71075    -38.0 3.387e+04 1.729e-06
  8.71572    -65.2 2.323e+04 5.998e-06
  8.71842    -70.1 2.192e+04 8.557e-06
  8.71965    -82.4 1.441e+04 4.191e-04
  8.72192    -83.7 1.419e+04 4.482e-04
  8.72566    -82.7 1.363e+04 4.837e-04
  8.73065    -78.5 1.738e+04 2.825e-05
  8.73562    -72.1 2.188e+04 5.780e-06
  8.74060    -65.4 2.847e+04 8.601e-07
  8.74363    -63.2 3.035e+04 4.600e-07
  8.74611    -65.4 2.560e+04 1.275e-06
  8.75306    -64.3 2.681e+04 7.499e-07
  8.76303    -61.0 2.933e+04 2.616e-07
  8.77299    -58.3 2.966e+04 1.564e-07
  8.78294    -56.2 3.062e+04 1.087e-07
  8.79159    -54.2 3.134e+04 7.948e-08
  8.79657    -55.4 3.212e+04 9.280e-08
  8.80284    -53.6 3.187e+04 7.316e-08
  8.81279    -52.3 3.167e+04 5.701e-08
  8.82274    -51.2 3.113e+04 4.454e-08
  8.83269    -50.3 3.046e+04 3.485e-08
  8.84200    -49.4 2.967e+04 2.759e-08
  8.84697    -49.2 2.998e+04 3.372e-08
  8.85259    -48.1 2.933e+04 2.593e-08
  8.86254    -47.4 2.865e+04 1.982e-08
  8.87249    -46.8 2.796e+04 1.733e-08
  8.88244    -46.1 2.701e+04 1.469e-08
  8.89245    -45.5 2.521e+04 1.007e-08
  8.90245    -44.0 2.586e+04 1.427e-08
  8.91736    -42.3 2.416e+04 1.058e-08
  8.93726    -41.0 2.294e+04 7.894e-09
  8.95716    -39.6 2.185e+04 6.530e-09
  8.97706    -38.0 2.108e+04 5.827e-09
  8.99331    -36.4 2.050e+04 5.370e-09
  9.00326    -33.4 2.219e+04 7.192e-09
  9.01686    -31.6 2.203e+04 6.573e-09
  9.03676    -29.9 2.166e+04 5.772e-09
  9.05666    -28.0 2.106e+04 4.834e-09
  9.07656    -26.3 2.010e+04 3.797e-09
  9.09412    -25.0 1.857e+04 2.866e-09
  9.10407    -20.5 2.385e+04 4.008e-09
  9.11637    -19.2 2.218e+04 2.741e-09
  9.13627    -18.4 1.961e+04 2.049e-09
  9.15617    -18.9 1.762e+04 1.660e-09
  9.17607    -23.3 2.397e+04 1.370e-09
  9.19493    -30.1 3.785e+04 1.642e-09
  9.20488    -23.3 3.287e+04 1.392e-09
  9.21587    -29.4 3.954e+04 1.619e-09
  9.23074    -34.7 2.726e+04 5.471e-09
  9.24065    -39.9 2.594e+04 6.859e-09
  9.24899    -51.7 2.642e+04 8.986e-09
  9.25358    -47.8 1.632e+04 6.552e-09
  9.25519    -47.0 1.610e+04 5.843e-09
  9.26055    -52.3 1.751e+04 8.636e-09
  9.27050    -58.2 2.087e+04 1.218e-08
  9.28045    -61.4 2.257e+04 1.691e-08
  9.29040    -63.7 2.378e+04 2.186e-08
  9.30035    -65.1 2.455e+04 2.673e-08
  9.30559    -66.5 2.491e+04 3.157e-08
  9.31057    -67.4 2.429e+04 2.978e-08
  9.32025    -68.6 2.428e+04 3.537e-08
  9.33020    -69.4 2.435e+04 4.233e-08
