# Columns:
#   distance along LOS (in CHIMPs)
#   peculiar velocity  (in km/s)
#   temperature (K)
#   HI number density
# pos=(132.497,94.3428,74.2955), angles=(1.85114,4.71851)
  0.00774    -66.7 1.044e+04 3.091e-10
  0.02077    -65.4 1.091e+04 5.147e-10
  0.04110    -64.6 1.111e+04 6.188e-10
  0.07065    -63.1 1.189e+04 1.056e-09
  0.09082    -64.0 1.216e+04 1.220e-09
  0.10669    -63.0 1.269e+04 1.635e-09
  0.12707    -62.5 1.302e+04 1.937e-09
  0.14740    -62.1 1.331e+04 2.224e-09
  0.16231    -61.7 1.353e+04 2.516e-09
  0.17257    -61.6 1.282e+04 1.619e-09
  0.19841    -60.8 1.294e+04 1.741e-09
  0.23906    -60.1 1.248e+04 1.453e-09
  0.27971    -59.3 1.157e+04 9.069e-10
  0.30423    -58.6 1.066e+04 5.380e-10
  0.32455    -57.7 1.048e+04 4.909e-10
  0.36101    -56.9 9.913e+03 3.532e-10
  0.40166    -56.1 9.537e+03 3.003e-10
  0.43579    -55.0 9.317e+03 2.844e-10
  0.45612    -54.4 9.439e+03 3.210e-10
  0.48296    -53.3 9.298e+03 3.111e-10
  0.52361    -52.3 9.133e+03 2.965e-10
  0.56426    -51.1 8.979e+03 2.802e-10
  0.58768    -49.8 8.862e+03 2.658e-10
  0.60801    -49.2 8.873e+03 2.791e-10
  0.64556    -47.8 8.669e+03 2.425e-10
  0.68621    -46.7 8.501e+03 2.145e-10
  0.71925    -45.6 8.430e+03 2.031e-10
  0.73958    -45.3 8.421e+03 2.042e-10
  0.76751    -44.5 8.452e+03 2.076e-10
  0.80816    -44.2 8.851e+03 2.774e-10
  0.84881    -43.9 9.461e+03 4.298e-10
  0.87104    -43.3 9.893e+03 5.993e-10
  0.88111    -42.9 9.875e+03 5.901e-10
  0.89943    -42.7 1.025e+04 7.338e-10
  0.91975    -42.4 1.065e+04 9.097e-10
  0.93673    -42.3 1.090e+04 1.022e-09
  0.94689    -42.0 1.072e+04 9.421e-10
  0.96040    -41.9 1.089e+04 1.016e-09
  0.98073    -41.9 1.099e+04 1.049e-09
  1.00105    -42.1 1.100e+04 1.047e-09
  1.01267    -42.6 1.092e+04 9.832e-10
  1.02293    -42.2 1.077e+04 8.953e-10
  1.05206    -43.9 1.083e+04 8.765e-10
  1.09271    -49.3 1.191e+04 1.015e-09
  1.12310    -54.7 1.310e+04 1.629e-09
  1.14333    -58.3 1.371e+04 2.512e-09
  1.15440    -61.2 1.398e+04 3.250e-09
  1.16456    -61.3 1.442e+04 3.598e-09
  1.18398    -65.0 1.484e+04 4.031e-09
  1.20430    -72.3 1.706e+04 4.049e-09
  1.22018    -86.3 2.626e+04 4.061e-09
  1.23035    -83.2 2.080e+04 4.358e-09
  1.23982    -98.7 3.075e+04 5.389e-09
  1.24994   -105.0 3.181e+04 9.064e-09
  1.25806   -111.0 2.914e+04 2.663e-08
  1.26314   -109.0 3.122e+04 1.451e-08
  1.27026   -113.3 2.774e+04 4.053e-08
  1.28042   -116.4 2.485e+04 7.981e-08
  1.29059   -117.9 2.306e+04 1.098e-07
  1.29603   -118.2 2.254e+04 1.186e-07
  1.30111   -117.7 2.297e+04 8.310e-08
  1.31091   -117.8 2.237e+04 8.970e-08
  1.32107   -117.5 2.144e+04 9.113e-08
  1.32892   -117.5 2.151e+04 7.963e-08
  1.33400   -117.6 2.194e+04 7.774e-08
  1.34140   -117.7 2.195e+04 7.321e-08
  1.35156   -118.2 2.208e+04 6.482e-08
  1.36173   -119.1 2.171e+04 5.394e-08
  1.36690   -119.7 2.121e+04 4.173e-08
  1.37198   -119.5 2.144e+04 4.924e-08
  1.38205   -119.7 2.092e+04 4.034e-08
  1.39221   -120.0 2.052e+04 3.304e-08
  1.39979   -120.3 2.009e+04 2.692e-08
  1.40487   -119.8 2.044e+04 3.275e-08
  1.41254   -119.9 1.983e+04 2.734e-08
  1.42270   -119.9 1.927e+04 2.288e-08
  1.43268   -119.8 1.878e+04 1.945e-08
  1.43776   -119.2 1.903e+04 2.171e-08
  1.44303   -119.0 1.863e+04 1.885e-08
  1.45319   -118.8 1.829e+04 1.666e-08
  1.46335   -118.6 1.798e+04 1.477e-08
  1.47065   -118.3 1.773e+04 1.309e-08
  1.47573   -117.8 1.806e+04 1.445e-08
  1.48368   -117.4 1.783e+04 1.298e-08
  1.49384   -117.0 1.767e+04 1.158e-08
  1.50354   -116.8 1.745e+04 1.004e-08
  1.50862   -116.2 1.782e+04 1.110e-08
  1.51416   -116.1 1.748e+04 9.513e-09
  1.52433   -116.3 1.689e+04 7.863e-09
  1.53449   -116.4 1.614e+04 6.443e-09
  1.54152   -116.3 1.553e+04 5.510e-09
  1.54660   -115.5 1.622e+04 6.011e-09
  1.55481   -115.5 1.586e+04 5.288e-09
  1.56937   -115.5 1.579e+04 4.825e-09
  1.57959   -113.8 1.687e+04 5.029e-09
  1.59048   -113.6 1.623e+04 4.035e-09
  1.61081   -113.4 1.465e+04 2.935e-09
  1.63113   -113.2 1.391e+04 2.441e-09
  1.64537   -112.9 1.347e+04 2.110e-09
  1.65553   -111.6 1.367e+04 1.718e-09
  1.67178   -111.1 1.327e+04 1.440e-09
  1.69211   -110.5 1.284e+04 1.203e-09
  1.71115   -109.9 1.240e+04 9.994e-10
  1.72131   -109.0 1.224e+04 8.262e-10
  1.73276   -108.6 1.181e+04 7.118e-10
  1.75308   -108.2 1.147e+04 6.337e-10
  1.77341   -107.9 1.130e+04 5.992e-10
  1.78710   -107.7 1.128e+04 5.922e-10
  1.79726   -106.8 1.106e+04 5.032e-10
  1.81406   -106.9 1.104e+04 5.070e-10
  1.83438   -107.2 1.112e+04 5.670e-10
  1.85288   -107.4 1.135e+04 6.705e-10
  1.86304   -106.7 1.111e+04 5.601e-10
  1.87503   -107.0 1.133e+04 6.673e-10
  1.89536   -107.2 1.150e+04 7.861e-10
  1.91568   -107.4 1.161e+04 8.945e-10
  1.92882   -107.4 1.165e+04 9.665e-10
  1.93899   -106.9 1.139e+04 8.678e-10
  1.95633   -106.9 1.145e+04 9.052e-10
  1.97666   -106.8 1.145e+04 9.113e-10
  1.99461   -106.6 1.142e+04 8.820e-10
  2.00477   -106.3 1.150e+04 8.657e-10
  2.01731   -106.0 1.145e+04 8.439e-10
  2.03763   -105.6 1.143e+04 8.116e-10
  2.05796   -105.2 1.140e+04 7.840e-10
  2.07055   -104.8 1.138e+04 7.633e-10
  2.08072   -104.4 1.144e+04 8.199e-10
  2.09861   -103.9 1.138e+04 7.869e-10
  2.11893   -103.5 1.129e+04 7.458e-10
  2.13634   -103.1 1.118e+04 7.007e-10
  2.14650   -102.6 1.111e+04 6.743e-10
  2.15958   -102.1 1.096e+04 6.026e-10
  2.17991   -101.7 1.081e+04 5.469e-10
  2.20023   -101.2 1.067e+04 5.065e-10
  2.21228   -100.7 1.052e+04 4.702e-10
  2.22244   -100.2 1.041e+04 4.123e-10
  2.24088    -99.5 1.033e+04 3.939e-10
  2.26800    -98.8 1.031e+04 3.835e-10
  2.28842    -98.2 1.028e+04 3.555e-10
  2.31222    -96.9 1.024e+04 3.545e-10
  2.35287    -95.6 1.017e+04 3.359e-10
  2.39352    -94.4 1.009e+04 3.053e-10
  2.41999    -93.1 1.000e+04 2.820e-10
  2.44031    -92.1 1.004e+04 3.021e-10
  2.47482    -90.9 1.000e+04 2.956e-10
  2.51547    -89.7 1.001e+04 2.993e-10
  2.55155    -88.5 1.016e+04 3.413e-10
  2.57188    -87.7 1.004e+04 3.286e-10
  2.58651    -87.3 1.023e+04 3.937e-10
  2.60673    -86.8 1.033e+04 4.364e-10
  2.62706    -86.4 1.048e+04 4.859e-10
  2.63746    -86.0 1.066e+04 5.398e-10
  2.64763    -85.5 1.066e+04 5.239e-10
  2.66771    -85.1 1.088e+04 5.830e-10
  2.68804    -84.7 1.106e+04 6.401e-10
  2.70325    -84.3 1.117e+04 6.848e-10
  2.71341    -83.9 1.116e+04 6.505e-10
  2.72869    -83.5 1.117e+04 6.601e-10
  2.74901    -83.0 1.113e+04 6.585e-10
  2.76903    -82.3 1.098e+04 6.276e-10
  2.77919    -82.1 1.092e+04 5.693e-10
  2.78966    -81.4 1.078e+04 5.282e-10
  2.80999    -80.7 1.067e+04 4.955e-10
  2.83031    -80.0 1.061e+04 4.793e-10
  2.84498    -79.3 1.060e+04 4.764e-10
  2.85514    -79.1 1.054e+04 4.263e-10
  2.87096    -78.4 1.055e+04 4.265e-10
  2.89129    -77.9 1.069e+04 4.374e-10
  2.91076    -77.4 1.087e+04 4.824e-10
  2.92092    -77.2 1.075e+04 4.072e-10
  2.93194    -76.8 1.094e+04 4.613e-10
  2.95226    -76.7 1.119e+04 5.486e-10
  2.97259    -76.7 1.150e+04 6.847e-10
  2.98670    -76.7 1.187e+04 8.778e-10
  2.99687    -76.3 1.157e+04 6.366e-10
  3.01324    -76.3 1.188e+04 7.999e-10
  3.03356    -76.3 1.217e+04 1.004e-09
  3.05249    -76.2 1.242e+04 1.236e-09
  3.06265    -75.8 1.199e+04 8.736e-10
  3.07421    -75.6 1.213e+04 1.045e-09
  3.09454    -75.2 1.224e+04 1.225e-09
  3.11486    -74.9 1.233e+04 1.380e-09
  3.12843    -74.4 1.240e+04 1.498e-09
  3.13859    -73.8 1.205e+04 1.223e-09
  3.15551    -73.4 1.214e+04 1.348e-09
  3.17584    -73.0 1.224e+04 1.443e-09
  3.19421    -72.7 1.233e+04 1.516e-09
  3.20438    -71.9 1.216e+04 1.385e-09
  3.21649    -71.5 1.229e+04 1.499e-09
  3.23681    -71.2 1.237e+04 1.588e-09
  3.25714    -70.8 1.244e+04 1.650e-09
  3.27016    -70.5 1.245e+04 1.670e-09
  3.28032    -69.8 1.264e+04 1.831e-09
  3.29779    -69.7 1.272e+04 1.910e-09
  3.31811    -69.6 1.278e+04 1.957e-09
  3.33594    -69.7 1.282e+04 1.989e-09
  3.34610    -69.2 1.321e+04 2.362e-09
  3.35876    -69.7 1.323e+04 2.398e-09
  3.37909    -70.3 1.323e+04 2.409e-09
  3.39871    -70.8 1.319e+04 2.416e-09
  3.40887    -70.0 1.320e+04 2.408e-09
  3.41189    -70.6 1.322e+04 2.441e-09
  3.42205    -70.4 1.347e+04 2.751e-09
  3.44006    -70.9 1.336e+04 2.678e-09
  3.46039    -71.3 1.316e+04 2.501e-09
  3.47767    -71.7 1.287e+04 2.219e-09
  3.48783    -71.5 1.284e+04 2.207e-09
  3.50104    -71.9 1.240e+04 1.818e-09
  3.52136    -72.2 1.193e+04 1.488e-09
  3.54169    -72.6 1.149e+04 1.228e-09
  3.55362    -72.9 1.112e+04 1.028e-09
  3.56378    -72.8 1.105e+04 9.987e-10
  3.58234    -72.9 1.083e+04 8.577e-10
  3.60266    -72.9 1.062e+04 7.328e-10
  3.61940    -72.8 1.041e+04 6.209e-10
  3.62956    -72.8 1.059e+04 6.794e-10
  3.64331    -72.7 1.042e+04 5.967e-10
  3.66364    -72.4 1.024e+04 5.239e-10
  3.68396    -72.0 1.004e+04 4.614e-10
  3.69534    -71.4 9.867e+03 4.153e-10
  3.70551    -71.6 1.016e+04 5.222e-10
  3.72461    -71.0 9.979e+03 4.735e-10
  3.74494    -70.1 9.829e+03 4.336e-10
  3.76113    -69.3 9.729e+03 4.051e-10
  3.77129    -69.3 9.910e+03 4.946e-10
  3.78559    -68.4 9.763e+03 4.479e-10
  3.80592    -67.5 9.652e+03 4.114e-10
  3.82624    -66.6 9.591e+03 3.881e-10
  3.83717    -65.5 9.581e+03 3.637e-10
  3.84733    -65.5 9.605e+03 4.049e-10
  3.86689    -64.9 9.556e+03 3.880e-10
  3.88722    -63.9 9.539e+03 3.712e-10
  3.90285    -63.4 9.506e+03 3.615e-10
  3.91302    -63.3 9.523e+03 3.764e-10
  3.92787    -62.4 9.515e+03 3.645e-10
  3.94819    -61.7 9.521e+03 3.592e-10
  3.96852    -60.8 9.534e+03 3.573e-10
  3.97880    -60.2 9.622e+03 3.599e-10
  3.98896    -60.3 9.640e+03 3.801e-10
  4.00917    -59.7 9.785e+03 3.976e-10
  4.02949    -59.4 9.982e+03 4.344e-10
  4.04458    -59.3 1.025e+04 5.101e-10
  4.05474    -59.9 1.038e+04 5.934e-10
  4.07014    -60.1 1.078e+04 7.814e-10
  4.09047    -60.5 1.132e+04 1.119e-09
  4.11037    -60.7 1.203e+04 1.690e-09
  4.12053    -60.9 1.219e+04 1.911e-09
  4.13112    -60.6 1.287e+04 2.643e-09
  4.15144    -60.2 1.350e+04 3.382e-09
  4.17177    -59.9 1.397e+04 3.914e-09
  4.18631    -59.7 1.414e+04 4.077e-09
  4.19647    -60.0 1.370e+04 3.155e-09
  4.21242    -60.2 1.362e+04 2.763e-09
  4.23274    -60.6 1.326e+04 2.231e-09
  4.25209    -61.1 1.269e+04 1.765e-09
  4.26226    -62.1 1.185e+04 1.232e-09
  4.27339    -62.3 1.147e+04 1.054e-09
  4.29372    -62.0 1.128e+04 9.557e-10
  4.31404    -61.5 1.127e+04 9.177e-10
  4.32804    -61.0 1.130e+04 9.107e-10
  4.33820    -61.7 1.081e+04 6.816e-10
  4.35469    -61.7 1.085e+04 6.785e-10
  4.37502    -63.2 1.159e+04 7.450e-10
  4.39382    -66.7 1.432e+04 1.497e-09
  4.40398    -67.2 1.342e+04 8.693e-10
  4.41567    -70.1 1.517e+04 2.061e-09
  4.43599    -71.4 1.602e+04 4.251e-09
  4.45632    -71.9 1.649e+04 6.775e-09
  4.46977    -72.4 1.671e+04 8.284e-09
  4.47993    -72.8 1.608e+04 7.587e-09
  4.49697    -73.1 1.617e+04 7.890e-09
  4.51729    -73.2 1.586e+04 7.201e-09
  4.53555    -73.2 1.503e+04 5.120e-09
  4.54571    -73.0 1.482e+04 4.949e-09
  4.55794    -72.9 1.385e+04 3.269e-09
  4.57827    -72.9 1.303e+04 2.229e-09
  4.59859    -72.9 1.241e+04 1.637e-09
  4.62918    -72.5 1.190e+04 1.251e-09
  4.66731    -69.9 1.144e+04 9.743e-10
  4.68764    -69.1 1.114e+04 9.206e-10
  4.71058    -66.3 1.094e+04 7.618e-10
  4.75123    -63.5 1.077e+04 6.487e-10
  4.79188    -60.6 1.069e+04 5.888e-10
  4.81920    -57.7 1.069e+04 5.717e-10
  4.83953    -56.8 1.060e+04 5.553e-10
  4.87318    -54.0 1.071e+04 5.623e-10
  4.91383    -51.4 1.104e+04 6.313e-10
  4.95077    -49.0 1.155e+04 8.231e-10
  4.97109    -48.2 1.131e+04 7.375e-10
  4.99513    -46.0 1.201e+04 1.023e-09
  5.02552    -45.0 1.258e+04 1.270e-09
  5.03668    -44.1 1.293e+04 1.569e-09
  5.04684    -43.4 1.259e+04 1.253e-09
  5.06607    -42.8 1.261e+04 1.315e-09
  5.08640    -42.0 1.280e+04 1.567e-09
  5.10246    -41.2 1.284e+04 1.740e-09
  5.12288    -39.9 1.218e+04 1.055e-09
  5.15773    -38.6 1.200e+04 1.066e-09
  5.19838    -37.3 1.160e+04 9.643e-10
  5.23422    -35.6 1.121e+04 7.897e-10
  5.25455    -34.1 1.054e+04 4.187e-10
  5.27968    -31.9 1.043e+04 3.681e-10
  5.32033    -29.7 1.055e+04 3.111e-10
  5.36098    -27.7 1.077e+04 2.703e-10
  5.38611    -25.9 1.086e+04 2.537e-10
  5.40644    -24.5 1.088e+04 1.932e-10
  5.44228    -22.9 1.104e+04 2.309e-10
  5.48293    -21.2 1.091e+04 3.562e-10
  5.51768    -19.2 1.102e+04 5.661e-10
  5.53800    -17.6 1.143e+04 7.209e-10
  5.55397    -16.3 1.155e+04 9.568e-10
  5.57420    -16.3 1.159e+04 1.004e-09
  5.59343    -15.5 1.182e+04 1.181e-09
  5.60359    -15.0 1.214e+04 1.455e-09
  5.61485    -14.0 1.224e+04 1.562e-09
  5.63517    -12.8 1.229e+04 1.596e-09
  5.65550    -11.6 1.234e+04 1.505e-09
  5.66937    -10.5 1.245e+04 1.270e-09
  5.67954     -9.9 1.269e+04 1.398e-09
  5.69615     -9.5 1.271e+04 1.069e-09
  5.71647     -9.6 1.256e+04 8.327e-10
  5.73516     -9.8 1.224e+04 6.708e-10
  5.74532     -9.6 1.222e+04 6.816e-10
  5.75712     -9.8 1.165e+04 5.483e-10
  5.77745     -9.8 1.104e+04 4.447e-10
  5.79777     -9.6 1.062e+04 3.769e-10
  5.81110     -9.1 1.034e+04 3.306e-10
  5.82126     -8.4 1.040e+04 3.482e-10
  5.83842     -7.9 1.025e+04 3.056e-10
  5.85875     -7.4 1.024e+04 2.780e-10
  5.87688     -7.2 1.029e+04 2.705e-10
  5.88705     -6.7 1.050e+04 2.841e-10
  5.89940     -6.8 1.101e+04 2.908e-10
  5.91972     -7.6 1.198e+04 3.576e-10
  5.94005     -8.3 1.260e+04 5.091e-10
  5.95283     -8.5 1.267e+04 7.788e-10
  5.96299     -7.8 1.265e+04 7.971e-10
  5.98070     -7.5 1.252e+04 1.193e-09
  6.00103     -6.7 1.256e+04 1.700e-09
  6.01861     -6.1 1.302e+04 2.296e-09
  6.02877     -5.0 1.296e+04 2.301e-09
  6.04168     -4.7 1.373e+04 2.922e-09
  6.06200     -5.4 1.488e+04 3.836e-09
  6.08233     -6.7 1.597e+04 5.403e-09
  6.09456     -7.7 1.667e+04 7.691e-09
  6.10472     -6.1 1.596e+04 5.206e-09
  6.12298     -6.9 1.619e+04 6.419e-09
  6.14330     -7.2 1.626e+04 7.411e-09
  6.16034     -7.5 1.628e+04 7.777e-09
  6.17050     -6.5 1.543e+04 4.999e-09
  6.18395     -6.8 1.531e+04 5.031e-09
  6.20428     -7.1 1.487e+04 4.421e-09
  6.22460     -7.4 1.431e+04 3.561e-09
  6.23629     -7.5 1.371e+04 2.719e-09
  6.24645     -6.4 1.353e+04 2.280e-09
  6.26525     -6.7 1.297e+04 1.752e-09
  6.28558     -7.3 1.225e+04 1.351e-09
  6.30207     -6.9 1.205e+04 1.275e-09
  6.31223     -5.7 1.199e+04 1.211e-09
  6.33649     -5.6 1.121e+04 9.188e-10
  6.36805     -4.5 1.044e+04 6.253e-10
  6.38837     -2.6 1.060e+04 6.447e-10
  6.41789     -1.8 1.020e+04 4.773e-10
  6.45854     -1.2 1.009e+04 4.267e-10
  6.49919     -1.0 1.000e+04 4.229e-10
  6.51994     -0.3 9.901e+03 4.421e-10
  6.53000      0.2 9.890e+03 4.580e-10
  6.54980      0.5 9.885e+03 4.577e-10
  6.58039      1.9 9.936e+03 4.647e-10
  6.62114      2.4 9.858e+03 4.042e-10
  6.65150      2.4 9.716e+03 3.596e-10
  6.67183      3.6 9.874e+03 3.880e-10
  6.70244      3.4 9.829e+03 3.847e-10
  6.72715      3.3 9.936e+03 4.400e-10
  6.74748      1.9 9.978e+03 4.652e-10
  6.77348      2.1 9.995e+03 5.227e-10
  6.79304      1.7 1.027e+04 5.614e-10
  6.80320      2.0 1.042e+04 6.089e-10
  6.81403      1.4 1.066e+04 6.659e-10
  6.83435      0.6 1.081e+04 7.283e-10
  6.85468     -0.1 1.087e+04 7.859e-10
  6.86898     -0.5 1.089e+04 8.344e-10
  6.87914     -0.3 1.101e+04 9.351e-10
  6.89533     -0.5 1.099e+04 9.625e-10
  6.91565     -0.6 1.099e+04 9.729e-10
  6.93476     -0.6 1.100e+04 9.616e-10
  6.94493     -0.2 1.107e+04 9.955e-10
  6.95630     -0.3 1.109e+04 9.414e-10
  6.97663     -0.7 1.113e+04 9.312e-10
  6.99695     -4.0 1.197e+04 1.037e-09
  7.01071    -11.7 1.513e+04 2.390e-09
  7.02087    -14.6 1.663e+04 3.504e-09
  7.03247    -17.8 1.783e+04 7.386e-09
  7.04259    -18.9 1.843e+04 8.837e-09
  7.04858    -21.4 1.990e+04 1.717e-08
  7.05366    -23.0 2.065e+04 2.371e-08
  7.06291    -24.0 2.140e+04 3.560e-08
  7.07308    -24.6 2.191e+04 4.238e-08
  7.08147    -25.7 2.207e+04 4.296e-08
  7.08656    -26.5 2.230e+04 5.055e-08
  7.09340    -28.1 2.264e+04 2.766e-08
  7.10356    -33.0 2.213e+04 1.096e-08
  7.11886    -41.9 1.823e+04 3.511e-09
  7.13923    -50.1 1.373e+04 1.486e-09
  7.15244    -57.1 1.099e+04 7.201e-10
  7.16260    -61.4 1.185e+04 6.561e-10
  7.17988    -63.9 1.236e+04 6.168e-10
  7.20021    -66.1 1.470e+04 7.959e-10
  7.21822    -68.1 1.648e+04 1.382e-09
  7.22838    -71.5 1.798e+04 2.889e-09
  7.24086    -72.3 1.802e+04 4.655e-09
  7.26118    -72.9 1.834e+04 6.884e-09
  7.28151    -73.8 1.899e+04 9.575e-09
  7.29416    -75.0 1.986e+04 1.245e-08
  7.30433    -77.8 2.134e+04 1.543e-08
  7.31703    -76.9 2.055e+04 1.504e-08
  7.32696    -77.4 2.082e+04 1.609e-08
  7.33204    -79.0 2.181e+04 1.772e-08
  7.33730    -79.8 2.256e+04 1.986e-08
  7.34747    -81.0 2.354e+04 2.296e-08
  7.35763    -82.2 2.448e+04 2.713e-08
  7.36493    -83.4 2.510e+04 3.107e-08
  7.37001    -86.6 2.636e+04 4.165e-08
  7.37795    -87.5 2.611e+04 4.403e-08
  7.38812    -88.2 2.558e+04 4.213e-08
  7.39782    -88.9 2.535e+04 3.760e-08
  7.40290    -91.7 2.405e+04 3.563e-08
  7.40844    -92.5 2.333e+04 3.047e-08
  7.41860    -93.3 2.247e+04 2.648e-08
  7.42877    -94.3 2.159e+04 2.321e-08
  7.43579    -95.2 2.069e+04 2.067e-08
  7.44088    -97.6 1.993e+04 1.798e-08
  7.44909    -98.2 1.980e+04 1.652e-08
  7.45925    -98.6 2.001e+04 1.564e-08
  7.46869    -99.0 2.030e+04 1.531e-08
  7.47377   -100.6 2.058e+04 1.316e-08
  7.47958   -100.6 2.089e+04 1.336e-08
  7.48974   -100.6 2.118e+04 1.407e-08
  7.50163   -100.6 2.182e+04 1.546e-08
  7.51184   -103.3 2.151e+04 1.184e-08
  7.52541   -103.6 2.132e+04 1.296e-08
  7.54573   -103.8 2.089e+04 1.445e-08
  7.56606   -104.1 2.068e+04 1.741e-08
  7.57757   -104.0 2.032e+04 1.729e-08
  7.58773   -104.6 1.979e+04 9.624e-09
  7.60671   -104.2 2.043e+04 1.206e-08
  7.62703   -103.6 2.091e+04 1.557e-08
  7.64340   -102.9 2.119e+04 1.923e-08
  7.65357   -104.9 2.336e+04 6.620e-09
  7.66768   -103.8 2.361e+04 8.499e-09
  7.68801   -102.8 2.365e+04 1.021e-08
  7.70833   -101.4 2.379e+04 1.195e-08
  7.71935    -99.9 2.397e+04 1.429e-08
  7.72951   -102.7 2.568e+04 4.512e-09
  7.74898   -101.1 2.622e+04 5.089e-09
  7.76931    -99.8 2.674e+04 5.328e-09
  7.78513    -98.5 2.706e+04 5.370e-09
  7.79529   -102.1 2.183e+04 1.540e-09
  7.80996   -101.0 2.177e+04 1.478e-09
  7.83028   -100.2 2.087e+04 1.453e-09
  7.85061    -99.6 1.943e+04 1.421e-09
  7.86108    -99.1 1.800e+04 1.376e-09
  7.87124   -101.6 1.168e+04 1.059e-09
  7.89126   -101.0 1.154e+04 1.049e-09
  7.91158   -100.4 1.136e+04 1.022e-09
  7.92686   -100.0 1.117e+04 9.659e-10
  7.93702   -100.2 1.112e+04 9.886e-10
  7.95223    -99.9 1.095e+04 9.357e-10
  7.97256    -99.6 1.076e+04 8.805e-10
  7.99264    -99.3 1.057e+04 8.227e-10
  8.00280    -99.2 1.094e+04 9.949e-10
  8.01321    -98.7 1.080e+04 9.515e-10
  8.03353    -98.2 1.066e+04 9.100e-10
  8.05386    -97.6 1.054e+04 8.756e-10
  8.06859    -97.0 1.048e+04 8.600e-10
  8.07875    -96.9 1.077e+04 1.013e-09
  8.09451    -96.5 1.075e+04 1.007e-09
  8.11483    -96.4 1.077e+04 1.010e-09
  8.13437    -97.2 1.120e+04 1.154e-09
  8.14453    -98.1 1.175e+04 1.397e-09
  8.15549    -99.6 1.294e+04 2.220e-09
  8.17581   -100.0 1.400e+04 3.614e-09
  8.19614   -100.1 1.477e+04 5.178e-09
  8.21032   -100.3 1.506e+04 5.964e-09
  8.22048   -100.4 1.506e+04 6.033e-09
  8.23679   -100.9 1.502e+04 6.065e-09
  8.25711   -100.9 1.441e+04 5.067e-09
  8.27610   -100.8 1.347e+04 3.464e-09
  8.28626   -101.1 1.317e+04 3.108e-09
  8.29776   -101.9 1.223e+04 2.124e-09
  8.31809   -102.7 1.142e+04 1.526e-09
  8.33841   -103.3 1.084e+04 1.215e-09
  8.35204   -103.6 1.053e+04 1.052e-09
  8.36221   -103.9 1.073e+04 1.162e-09
  8.37906   -103.9 1.069e+04 1.141e-09
  8.39939   -103.7 1.071e+04 1.145e-09
  8.41783   -103.5 1.086e+04 1.205e-09
  8.42799   -104.1 1.134e+04 1.506e-09
  8.44004   -104.0 1.156e+04 1.643e-09
  8.46036   -103.9 1.174e+04 1.742e-09
  8.48069   -103.7 1.185e+04 1.792e-09
  8.49377   -103.5 1.189e+04 1.805e-09
  8.50393   -104.2 1.237e+04 2.283e-09
  8.52134   -103.9 1.237e+04 2.267e-09
  8.54166   -103.5 1.225e+04 2.104e-09
  8.55955   -103.0 1.205e+04 1.869e-09
  8.56972   -104.1 1.240e+04 2.115e-09
  8.58231   -103.9 1.215e+04 1.797e-09
