# Columns:
#   distance along LOS (in CHIMPs)
#   peculiar velocity  (in km/s)
#   temperature (K)
#   HI number density
# pos=(13.8435,57.573,135.97), angles=(0.107555,2.71953)
  0.00257    188.0 1.125e+04 6.255e-10
  0.02479    186.5 1.130e+04 6.270e-10
  0.05416    185.4 1.125e+04 6.149e-10
  0.07371    184.7 1.116e+04 5.879e-10
  0.09335    184.2 1.103e+04 5.466e-10
  0.11300    184.0 1.087e+04 4.972e-10
  0.13264    183.8 1.071e+04 4.522e-10
  0.14593    183.7 1.069e+04 4.358e-10
  0.15575    183.4 1.091e+04 4.931e-10
  0.17193    183.2 1.097e+04 5.017e-10
  0.18333    182.6 1.126e+04 5.505e-10
  0.19315    183.4 1.099e+04 4.948e-10
  0.21122    182.6 1.149e+04 6.070e-10
  0.23087    181.5 1.222e+04 8.760e-10
  0.25051    180.7 1.293e+04 1.373e-09
  0.27016    180.6 1.357e+04 2.151e-09
  0.28980    180.8 1.406e+04 3.100e-09
  0.30945    181.3 1.448e+04 3.988e-09
  0.32909    181.9 1.472e+04 4.544e-09
  0.34388    182.4 1.468e+04 4.517e-09
  0.35370    181.9 1.470e+04 4.675e-09
  0.36838    182.6 1.426e+04 3.932e-09
  0.38803    183.3 1.371e+04 3.035e-09
  0.40767    183.9 1.312e+04 2.260e-09
  0.42732    184.1 1.256e+04 1.715e-09
  0.44696    184.5 1.213e+04 1.397e-09
  0.46661    185.3 1.191e+04 1.252e-09
  0.48625    186.3 1.188e+04 1.248e-09
  0.50589    187.5 1.190e+04 1.258e-09
  0.52554    189.0 1.198e+04 1.299e-09
  0.54183    190.5 1.213e+04 1.385e-09
  0.55165    190.0 1.229e+04 1.412e-09
  0.56483    191.2 1.273e+04 1.624e-09
  0.58447    192.4 1.319e+04 1.935e-09
  0.60412    193.6 1.365e+04 2.327e-09
  0.62150    194.9 1.412e+04 2.786e-09
  0.63132    195.0 1.397e+04 2.632e-09
  0.64341    196.2 1.443e+04 3.151e-09
  0.66305    197.4 1.487e+04 3.717e-09
  0.68270    198.6 1.528e+04 4.320e-09
  0.70234    199.8 1.565e+04 4.980e-09
  0.72199    201.1 1.607e+04 5.729e-09
  0.73977    202.5 1.636e+04 6.319e-09
  0.74955    202.1 1.661e+04 6.801e-09
  0.75627    202.6 1.681e+04 7.164e-09
  0.76609    203.0 1.714e+04 7.715e-09
  0.77591    203.3 1.758e+04 8.479e-09
  0.78573    203.6 1.810e+04 9.470e-09
  0.79556    203.8 1.865e+04 1.070e-08
  0.80538    204.0 1.921e+04 1.214e-08
  0.81520    204.1 1.972e+04 1.378e-08
  0.82502    204.2 2.015e+04 1.559e-08
  0.83485    204.3 2.047e+04 1.753e-08
  0.84356    204.5 2.075e+04 1.965e-08
  0.84847    203.4 2.057e+04 1.940e-08
  0.85031    203.7 2.053e+04 2.074e-08
  0.85522    204.4 2.172e+04 1.669e-08
  0.86431    204.7 2.187e+04 1.765e-08
  0.87414    204.9 2.195e+04 1.847e-08
  0.88396    205.0 2.195e+04 1.846e-08
  0.89378    205.1 2.193e+04 1.807e-08
  0.90360    205.2 2.166e+04 1.719e-08
  0.91343    205.2 2.122e+04 1.569e-08
  0.92325    205.1 2.077e+04 1.338e-08
  0.93307    204.9 2.023e+04 1.067e-08
  0.94253    204.6 1.935e+04 8.054e-09
  0.94744    202.2 1.654e+04 4.865e-09
  0.95272    201.7 1.601e+04 3.726e-09
  0.96254    201.3 1.554e+04 2.868e-09
  0.97732    200.5 1.497e+04 2.052e-09
  0.99701    199.5 1.446e+04 1.472e-09
  1.01666    198.3 1.421e+04 1.370e-09
  1.03630    197.1 1.429e+04 1.432e-09
  1.05595    195.8 1.494e+04 1.743e-09
  1.06949    195.0 1.584e+04 2.356e-09
  1.07436    192.5 1.612e+04 2.554e-09
  1.08041    192.4 1.671e+04 2.919e-09
  1.09023    191.6 1.815e+04 3.850e-09
  1.10005    189.8 1.980e+04 6.088e-09
  1.10987    187.8 2.073e+04 1.066e-08
  1.11970    186.5 2.083e+04 1.945e-08
  1.12952    186.3 2.081e+04 3.589e-08
  1.13934    186.3 2.097e+04 6.299e-08
  1.14539    186.2 2.138e+04 9.008e-08
  1.15030    186.9 2.149e+04 1.006e-07
  1.15899    186.0 2.164e+04 1.014e-07
  1.16881    184.9 2.158e+04 9.393e-08
  1.17863    184.3 2.126e+04 7.076e-08
  1.18845    184.3 2.077e+04 4.132e-08
  1.19827    184.0 2.018e+04 2.130e-08
  1.21306    183.6 1.851e+04 4.921e-09
  1.23275    179.2 1.419e+04 9.288e-10
  1.25240    175.4 1.240e+04 6.415e-10
  1.27204    175.0 1.179e+04 5.805e-10
  1.29169    175.7 1.152e+04 5.469e-10
  1.31133    177.5 1.136e+04 5.228e-10
  1.33097    179.7 1.127e+04 5.079e-10
  1.34344    181.6 1.125e+04 4.965e-10
  1.35326    181.5 1.113e+04 3.398e-10
  1.37026    183.2 1.112e+04 3.322e-10
  1.38991    184.8 1.111e+04 3.202e-10
  1.40955    186.3 1.111e+04 3.103e-10
  1.42920    187.7 1.113e+04 3.089e-10
  1.44884    189.1 1.112e+04 3.088e-10
  1.47841    191.4 1.128e+04 3.840e-10
  1.50786    194.2 1.110e+04 3.546e-10
  1.52750    193.8 1.040e+04 2.259e-10
  1.55708    196.6 1.036e+04 2.344e-10
  1.59637    199.2 1.039e+04 2.483e-10
  1.63566    201.8 1.047e+04 2.703e-10
  1.67495    204.2 1.059e+04 2.984e-10
  1.71424    206.4 1.072e+04 3.305e-10
  1.73952    208.4 1.084e+04 3.660e-10
  1.75917    208.3 1.084e+04 3.615e-10
  1.79282    210.0 1.106e+04 4.409e-10
  1.83211    211.3 1.129e+04 5.336e-10
  1.87140    211.8 1.145e+04 6.083e-10
  1.91069    211.7 1.152e+04 6.434e-10
  1.94998    211.4 1.160e+04 6.523e-10
  1.98927    210.9 1.180e+04 6.607e-10
  2.01864    209.8 1.196e+04 6.737e-10
  2.03819    208.6 1.210e+04 6.884e-10
  2.05783    206.9 1.211e+04 6.812e-10
  2.07748    205.3 1.206e+04 6.647e-10
  2.09712    203.8 1.188e+04 6.292e-10
  2.11677    202.7 1.163e+04 5.701e-10
  2.13522    201.4 1.142e+04 4.712e-10
  2.15497    199.4 1.109e+04 3.300e-10
  2.18572    198.9 1.087e+04 2.748e-10
  2.22501    198.4 1.097e+04 2.624e-10
  2.26430    197.7 1.100e+04 2.696e-10
  2.30359    196.8 1.106e+04 2.942e-10
  2.34288    195.3 1.120e+04 3.748e-10
  2.38217    193.5 1.149e+04 5.353e-10
  2.40384    191.8 1.163e+04 6.488e-10
  2.42349    193.5 1.146e+04 5.711e-10
  2.46074    191.9 1.146e+04 5.850e-10
  2.50003    190.8 1.135e+04 5.520e-10
  2.53131    190.2 1.108e+04 4.629e-10
  2.55096    189.4 1.095e+04 4.041e-10
  2.57861    189.5 1.068e+04 3.478e-10
  2.61790    189.7 1.061e+04 3.369e-10
  2.65719    190.4 1.062e+04 3.396e-10
  2.69648    191.3 1.065e+04 3.465e-10
  2.73577    192.3 1.067e+04 3.487e-10
  2.77506    193.4 1.065e+04 3.436e-10
  2.81435    194.6 1.058e+04 3.338e-10
  2.85364    196.0 1.050e+04 3.173e-10
  2.89293    197.5 1.041e+04 2.958e-10
  2.92721    199.0 1.032e+04 2.742e-10
  2.94685    199.1 1.022e+04 2.331e-10
  2.97151    200.8 1.012e+04 2.135e-10
  3.01080    202.7 1.003e+04 1.965e-10
  3.05009    204.7 9.956e+03 1.816e-10
  3.08938    206.7 9.945e+03 1.714e-10
  3.12867    208.8 9.963e+03 1.698e-10
  3.16796    210.9 9.990e+03 1.705e-10
  3.20725    212.9 1.007e+04 1.752e-10
  3.24653    214.6 1.015e+04 1.846e-10
  3.28018    216.2 1.022e+04 1.949e-10
  3.29983    216.1 1.041e+04 2.558e-10
  3.32310    217.7 1.041e+04 2.683e-10
  3.34275    218.0 1.053e+04 2.698e-10
  3.36440    219.7 1.061e+04 2.889e-10
  3.40369    221.2 1.067e+04 3.058e-10
  3.44298    222.8 1.073e+04 3.245e-10
  3.47235    223.0 1.071e+04 3.278e-10
  3.49190    223.4 1.070e+04 3.286e-10
  3.51154    223.8 1.072e+04 3.396e-10
  3.53067    224.2 1.078e+04 3.668e-10
  3.54050    224.3 1.083e+04 3.818e-10
  3.55083    224.8 1.092e+04 4.282e-10
  3.57048    225.3 1.103e+04 4.738e-10
  3.59012    225.4 1.109e+04 4.910e-10
  3.60977    225.4 1.109e+04 4.891e-10
  3.62941    225.2 1.106e+04 4.693e-10
  3.64906    224.9 1.098e+04 4.282e-10
  3.66870    224.6 1.083e+04 3.782e-10
  3.68835    224.5 1.066e+04 3.365e-10
  3.71791    224.6 1.059e+04 3.189e-10
  3.73864    224.7 1.036e+04 3.033e-10
  3.75828    225.3 1.022e+04 2.909e-10
  3.79659    226.2 1.013e+04 2.884e-10
  3.83588    227.2 1.009e+04 2.872e-10
  3.87517    228.2 1.003e+04 2.829e-10
  3.91446    229.1 9.955e+03 2.751e-10
  3.95375    230.1 9.973e+03 2.696e-10
  3.99304    231.2 1.000e+04 2.724e-10
  4.03233    232.2 1.009e+04 2.838e-10
  4.07161    232.8 1.019e+04 3.021e-10
  4.11090    233.1 1.037e+04 3.396e-10
  4.13453    233.3 1.062e+04 4.040e-10
  4.14426    233.0 1.099e+04 5.106e-10
  4.15982    232.9 1.129e+04 5.998e-10
  4.17597    232.7 1.162e+04 7.165e-10
  4.18580    231.8 1.196e+04 9.603e-10
  4.19911    231.7 1.229e+04 1.210e-09
  4.21876    231.7 1.268e+04 1.555e-09
  4.23840    231.7 1.314e+04 2.053e-09
  4.25804    231.7 1.374e+04 2.779e-09
  4.27769    231.7 1.450e+04 3.884e-09
  4.29733    231.9 1.539e+04 5.523e-09
  4.31698    232.2 1.631e+04 7.619e-09
  4.33228    232.1 1.710e+04 9.296e-09
  4.34211    232.2 1.740e+04 1.012e-08
  4.35627    231.4 1.761e+04 1.027e-08
  4.37591    230.0 1.750e+04 9.846e-09
  4.39556    229.5 1.695e+04 8.185e-09
  4.41520    229.6 1.601e+04 5.832e-09
  4.43485    229.7 1.477e+04 3.720e-09
  4.45449    229.5 1.351e+04 2.371e-09
  4.47414    229.1 1.256e+04 1.657e-09
  4.49378    229.0 1.248e+04 1.476e-09
  4.51343    229.2 1.247e+04 1.420e-09
  4.53033    230.2 1.244e+04 1.384e-09
  4.54015    228.9 1.289e+04 1.708e-09
  4.55272    229.6 1.289e+04 1.699e-09
  4.57236    230.2 1.295e+04 1.744e-09
  4.59201    230.6 1.283e+04 1.614e-09
  4.62157    230.7 1.286e+04 1.537e-09
  4.66096    231.3 1.207e+04 9.815e-10
  4.70025    232.5 1.113e+04 5.612e-10
  4.73954    234.0 1.020e+04 3.233e-10
  4.77883    235.6 9.558e+03 2.179e-10
  4.81812    237.5 9.398e+03 1.917e-10
  4.85741    239.8 9.339e+03 1.871e-10
  4.89670    242.2 9.318e+03 1.854e-10
  4.92632    244.7 9.300e+03 1.823e-10
  4.94597    244.4 9.294e+03 1.845e-10
  4.97527    246.8 9.250e+03 1.761e-10
  5.01456    249.2 9.171e+03 1.598e-10
  5.05251    251.4 9.069e+03 1.365e-10
  5.07216    251.5 9.282e+03 1.830e-10
  5.09314    253.7 9.139e+03 1.530e-10
  5.13243    256.0 8.979e+03 1.213e-10
  5.17172    258.4 8.818e+03 9.367e-11
  5.21101    260.7 8.656e+03 7.295e-11
  5.25030    263.0 8.475e+03 6.049e-11
  5.28959    265.4 8.337e+03 5.735e-11
  5.32221    268.0 8.331e+03 5.728e-11
  5.34186    267.6 8.305e+03 5.435e-11
  5.36817    270.2 8.294e+03 5.533e-11
  5.40746    272.8 8.289e+03 5.909e-11
  5.44675    275.3 8.314e+03 6.688e-11
  5.48604    277.8 8.377e+03 8.096e-11
  5.52533    280.3 8.524e+03 1.035e-10
  5.56462    282.7 8.754e+03 1.365e-10
  5.60391    285.0 9.046e+03 1.816e-10
  5.64320    287.1 9.363e+03 2.369e-10
  5.68249    288.8 9.647e+03 2.923e-10
  5.71811    290.1 9.844e+03 3.270e-10
  5.73775    289.8 9.721e+03 2.835e-10
  5.76106    290.8 9.726e+03 2.818e-10
  5.80035    291.8 9.731e+03 2.777e-10
  5.83964    292.7 9.769e+03 2.738e-10
  5.87893    293.5 9.846e+03 2.778e-10
  5.91822    294.0 1.009e+04 3.005e-10
  5.94850    294.7 1.038e+04 3.427e-10
  5.96814    295.1 1.058e+04 4.089e-10
  5.99680    296.2 1.084e+04 4.698e-10
  6.02617    295.7 1.098e+04 5.053e-10
  6.04572    295.6 1.103e+04 5.545e-10
  6.06536    295.6 1.102e+04 5.906e-10
  6.08501    295.9 1.095e+04 6.097e-10
  6.10465    296.3 1.088e+04 6.193e-10
  6.12363    297.0 1.083e+04 6.341e-10
  6.13345    296.4 1.105e+04 7.964e-10
  6.14394    297.2 1.106e+04 8.029e-10
  6.16359    297.6 1.114e+04 8.463e-10
  6.18323    297.6 1.141e+04 9.618e-10
  6.20288    297.5 1.192e+04 1.188e-09
  6.22252    297.4 1.266e+04 1.591e-09
  6.24217    297.0 1.355e+04 2.201e-09
  6.26181    296.1 1.444e+04 2.907e-09
  6.28146    294.4 1.531e+04 3.291e-09
  6.30110    291.8 1.564e+04 3.264e-09
  6.32075    288.7 1.582e+04 3.051e-09
  6.33140    285.4 1.620e+04 2.259e-09
  6.34122    282.2 2.239e+04 2.808e-09
  6.36003    278.9 2.373e+04 2.451e-09
  6.37968    274.0 2.618e+04 2.457e-09
  6.39436    261.3 3.362e+04 4.577e-09
  6.40111    257.3 3.486e+04 6.762e-09
  6.40602    256.3 3.206e+04 2.396e-08
  6.41396    252.9 2.853e+04 5.809e-08
  6.42378    250.8 2.617e+04 8.381e-08
  6.43027    249.2 2.584e+04 8.246e-08
  6.43519    249.3 2.273e+04 2.814e-07
  6.44343    248.1 2.246e+04 2.585e-07
  6.45325    247.2 2.252e+04 1.846e-07
  6.46307    246.4 2.299e+04 1.050e-07
  6.47289    245.4 2.392e+04 5.250e-08
  6.48272    244.1 2.518e+04 2.766e-08
  6.49254    242.5 2.668e+04 1.812e-08
  6.50236    241.2 2.686e+04 1.396e-08
  6.51714    238.2 2.554e+04 1.187e-08
  6.52935    236.7 2.424e+04 8.517e-09
  6.53917    235.2 2.638e+04 3.499e-09
  6.55648    232.7 1.898e+04 2.771e-09
  6.57613    231.8 1.428e+04 2.289e-09
  6.59577    231.9 1.262e+04 1.896e-09
  6.61542    233.2 1.264e+04 1.640e-09
  6.63506    234.9 1.267e+04 1.530e-09
  6.65471    236.6 1.261e+04 1.448e-09
  6.67435    238.1 1.253e+04 1.349e-09
  6.69400    239.5 1.245e+04 1.232e-09
  6.71364    240.6 1.239e+04 1.115e-09
  6.72729    241.5 1.238e+04 1.013e-09
  6.73712    240.6 1.075e+04 6.024e-10
  6.75293    241.2 1.055e+04 5.271e-10
  6.77257    241.8 1.054e+04 4.769e-10
  6.79222    242.5 1.062e+04 4.653e-10
  6.81186    243.3 1.067e+04 4.647e-10
  6.83151    244.3 1.083e+04 4.759e-10
  6.84429    245.3 1.100e+04 5.269e-10
  6.85411    244.3 1.032e+04 3.883e-10
  6.87080    245.7 1.044e+04 4.571e-10
  6.89044    247.1 1.076e+04 5.552e-10
  6.91009    248.6 1.121e+04 6.719e-10
  6.92524    250.3 1.168e+04 8.023e-10
  6.93506    250.3 1.103e+04 5.972e-10
  6.94938    252.1 1.143e+04 7.011e-10
  6.96902    254.0 1.183e+04 8.025e-10
  6.98867    256.0 1.224e+04 9.023e-10
  7.00831    257.9 1.273e+04 1.019e-09
  7.02796    259.9 1.337e+04 1.186e-09
  7.04760    261.6 1.434e+04 1.465e-09
  7.06725    263.2 1.563e+04 1.936e-09
  7.08689    264.6 1.708e+04 2.674e-09
  7.10654    266.2 1.878e+04 3.756e-09
  7.12319    268.4 2.013e+04 4.844e-09
  7.13296    267.4 1.949e+04 4.247e-09
  7.14082    268.4 2.009e+04 4.748e-09
  7.15064    269.4 2.065e+04 5.234e-09
  7.16046    270.4 2.128e+04 5.791e-09
  7.17028    271.4 2.218e+04 6.557e-09
  7.18011    272.5 2.341e+04 7.512e-09
  7.18993    273.7 2.472e+04 8.610e-09
  7.19975    275.1 2.591e+04 9.790e-09
  7.20957    276.8 2.685e+04 1.084e-08
  7.21940    278.9 2.752e+04 1.148e-08
  7.22697    281.4 2.785e+04 1.149e-08
  7.23189    277.4 2.750e+04 1.183e-08
  7.23904    279.7 2.756e+04 1.163e-08
  7.24886    282.1 2.770e+04 1.103e-08
  7.25869    284.5 2.798e+04 1.000e-08
  7.26851    286.7 2.820e+04 8.730e-09
  7.27833    288.5 2.874e+04 7.123e-09
  7.28727    289.3 2.833e+04 5.755e-09
  7.29218    293.5 2.919e+04 4.435e-09
  7.29797    292.5 5.172e+04 2.199e-09
  7.30780    284.9 1.647e+05 3.588e-10
  7.31762    282.7 2.913e+05 1.340e-10
  7.32595    285.2 3.184e+05 1.054e-10
  7.33086    274.9 4.174e+04 1.095e-09
  7.33726    263.1 4.355e+04 8.001e-10
  7.34709    252.1 4.130e+04 6.398e-10
  7.35691    242.8 4.048e+04 5.602e-10
  7.36673    231.9 4.194e+04 5.370e-10
  7.37655    206.2 9.015e+04 3.130e-10
  7.38638     93.8 2.292e+05 4.226e-10
  7.39372     71.5 1.628e+05 1.656e-09
  7.39861     41.9 6.761e+04 5.211e-08
  7.40167     25.6 3.406e+04 7.250e-07
  7.40413      8.9 2.167e+04 2.698e-06
  7.40843     10.3 1.960e+04 2.194e-06
  7.41334     12.9 1.966e+04 1.343e-06
  7.41825     15.2 2.138e+04 8.681e-07
  7.42316     17.4 2.199e+04 7.853e-07
  7.42733     19.2 2.238e+04 7.618e-07
  7.42978     22.7 2.196e+04 7.683e-07
  7.43298     26.5 2.286e+04 6.548e-07
  7.43789     30.5 2.351e+04 6.084e-07
  7.44281     33.6 2.814e+04 4.109e-07
  7.44772     35.6 3.048e+04 3.618e-07
  7.45263     40.7 3.194e+04 3.438e-07
  7.45754     44.3 3.573e+04 2.461e-07
  7.46493     51.9 3.196e+04 3.881e-07
  7.47478     49.6 9.924e+04 2.690e-09
  7.48460     42.9 1.999e+05 1.204e-10
  7.49938     -6.1 9.595e+04 1.095e-10
  7.51908    -13.4 2.480e+04 2.834e-10
  7.53872    -10.0 2.874e+04 3.363e-10
  7.56829    -20.4 1.481e+04 3.308e-10
  7.60767    -13.5 1.112e+04 3.689e-10
  7.64696     -4.4 1.069e+04 3.378e-10
  7.68625      4.0 1.045e+04 3.003e-10
  7.71722     10.8 1.026e+04 2.652e-10
  7.73215     10.9 9.983e+03 2.372e-10
  7.74047     11.6 9.973e+03 2.434e-10
  7.76483     17.7 9.765e+03 2.290e-10
  7.80412     23.1 9.733e+03 2.309e-10
  7.84341     27.7 9.751e+03 2.427e-10
  7.88270     31.5 9.915e+03 2.829e-10
  7.92199     34.6 1.026e+04 3.667e-10
  7.96128     37.8 1.084e+04 5.116e-10
  7.99065     39.1 1.138e+04 6.698e-10
  8.01020     40.0 1.161e+04 7.486e-10
  8.02984     39.9 1.194e+04 8.599e-10
  8.04948     40.7 1.201e+04 9.233e-10
  8.06913     41.8 1.224e+04 1.009e-09
  8.08877     42.7 1.233e+04 1.074e-09
  8.10842     43.4 1.225e+04 1.059e-09
  8.12274     44.1 1.201e+04 1.017e-09
  8.13257     44.3 1.174e+04 8.964e-10
  8.14771     44.8 1.176e+04 9.142e-10
  8.16735     45.0 1.193e+04 9.955e-10
  8.17844     45.3 1.215e+04 1.122e-09
  8.18826     46.0 1.180e+04 9.916e-10
  8.20664     46.4 1.190e+04 1.072e-09
  8.22629     46.8 1.200e+04 1.157e-09
  8.24593     47.2 1.218e+04 1.267e-09
  8.26558     47.5 1.251e+04 1.421e-09
  8.28522     47.5 1.306e+04 1.629e-09
  8.30487     47.4 1.380e+04 1.938e-09
  8.32069     46.9 1.457e+04 2.364e-09
  8.33051     47.4 1.432e+04 2.351e-09
  8.34416     46.5 1.502e+04 2.784e-09
  8.36380     44.9 1.570e+04 3.434e-09
  8.38345     43.6 1.590e+04 4.145e-09
  8.40309     42.6 1.591e+04 4.794e-09
  8.42274     41.7 1.618e+04 5.341e-09
  8.44238     38.9 1.755e+04 6.779e-09
  8.46202     35.6 1.868e+04 8.312e-09
  8.48167     32.7 1.856e+04 8.317e-09
  8.50131     30.5 1.787e+04 7.103e-09
  8.51864     28.2 1.690e+04 5.192e-09
  8.52846     29.8 1.729e+04 6.459e-09
  8.54060     27.5 1.647e+04 4.434e-09
  8.56025     24.7 1.528e+04 2.993e-09
  8.57989     22.6 1.381e+04 2.177e-09
  8.59954     22.4 1.294e+04 1.806e-09
  8.61661     22.8 1.263e+04 1.558e-09
  8.62643     22.8 1.321e+04 1.583e-09
  8.63883     22.8 1.300e+04 1.423e-09
  8.66839     23.3 1.253e+04 1.037e-09
  8.70778     24.4 1.169e+04 6.689e-10
  8.73715     24.5 1.094e+04 4.157e-10
  8.75670     24.7 1.075e+04 3.544e-10
  8.77634     25.2 1.076e+04 3.580e-10
  8.79599     25.4 1.078e+04 3.617e-10
  8.81563     26.3 1.078e+04 3.816e-10
  8.83528     26.7 1.086e+04 3.998e-10
  8.85492     26.5 1.105e+04 4.451e-10
  8.87456     26.8 1.124e+04 4.891e-10
  8.89421     26.4 1.177e+04 6.085e-10
  8.91385     26.3 1.193e+04 7.247e-10
  8.92435     25.7 1.226e+04 9.179e-10
  8.93418     26.5 1.192e+04 7.869e-10
  8.95314     26.5 1.230e+04 9.857e-10
  8.97279     26.2 1.288e+04 1.272e-09
  8.99243     27.0 1.326e+04 1.560e-09
  9.02200     28.3 1.340e+04 1.659e-09
  9.06139     29.2 1.343e+04 1.712e-09
  9.10067     30.5 1.313e+04 1.469e-09
  9.13996     31.6 1.252e+04 1.012e-09
  9.17925     31.9 1.200e+04 7.903e-10
  9.21854     32.1 1.201e+04 8.211e-10
  9.25783     32.6 1.232e+04 1.024e-09
  9.29712     33.8 1.253e+04 1.241e-09
  9.32044     35.3 1.244e+04 1.184e-09
  9.34009     37.2 1.328e+04 1.751e-09
  9.37570     38.9 1.296e+04 1.518e-09
  9.41499     40.5 1.241e+04 1.042e-09
  9.45428     41.1 1.169e+04 6.127e-10
  9.49315     41.2 1.083e+04 3.753e-10
  9.51279     41.2 1.029e+04 2.725e-10
  9.53286     41.6 1.004e+04 2.681e-10
  9.57215     42.2 1.010e+04 3.051e-10
  9.61144     42.9 1.021e+04 3.645e-10
  9.65073     43.4 1.009e+04 3.566e-10
  9.69002     43.2 1.028e+04 3.669e-10
  9.71634     42.9 1.028e+04 3.413e-10
  9.72606     44.5 1.052e+04 4.033e-10
  9.73893     45.1 1.029e+04 3.517e-10
  9.76850     44.5 1.016e+04 2.989e-10
  9.80789     43.1 1.001e+04 2.900e-10
  9.83726     39.8 1.023e+04 3.226e-10
  9.85680     41.4 1.002e+04 3.309e-10
  9.88637     40.8 1.051e+04 4.635e-10
  9.92576     39.9 1.126e+04 7.244e-10
  9.96504     38.3 1.152e+04 7.715e-10
 10.00433     36.6 1.135e+04 6.999e-10
 10.04362     35.2 1.082e+04 5.691e-10
 10.08291     34.2 1.037e+04 4.907e-10
 10.11223     34.2 1.011e+04 4.485e-10
 10.13188     35.4 1.033e+04 5.066e-10
 10.16149     35.8 1.026e+04 5.029e-10
 10.20078     36.2 1.021e+04 4.713e-10
 10.24007     36.1 1.018e+04 4.169e-10
 10.27936     35.5 1.012e+04 3.837e-10
 10.31865     34.8 9.981e+03 3.785e-10
 10.35794     34.5 9.853e+03 3.699e-10
 10.38913     34.6 9.663e+03 3.410e-10
 10.40878     33.7 9.663e+03 3.236e-10
 10.43652     32.4 9.780e+03 3.154e-10
 10.47581     30.5 9.832e+03 3.052e-10
 10.50813     26.8 1.078e+04 4.907e-10
 10.52777     26.0 1.145e+04 7.517e-10
 10.55439     24.0 1.231e+04 1.248e-09
 10.59368     23.9 1.259e+04 1.408e-09
 10.63297     22.5 1.241e+04 1.263e-09
 10.67226     20.9 1.138e+04 8.029e-10
 10.71155     19.2 1.005e+04 4.276e-10
 10.75084     17.4 9.458e+03 2.885e-10
 10.79012     14.8 9.919e+03 3.504e-10
 10.82941     13.5 1.066e+04 5.591e-10
 10.86870     12.5 1.147e+04 7.948e-10
