# Columns:
#   distance along LOS (in CHIMPs)
#   peculiar velocity  (in km/s)
#   temperature (K)
#   HI number density
# pos=(185.296,32.0825,15.9698), angles=(2.7936,0.0453783)
  0.00797     64.7 1.363e+04 2.683e-09
  0.02629     65.6 1.351e+04 2.080e-09
  0.04706     66.6 1.346e+04 1.825e-09
  0.06789     66.9 1.333e+04 1.220e-09
  0.08612     67.0 1.315e+04 8.020e-10
  0.09651     67.6 1.321e+04 1.081e-09
  0.10944     67.6 1.298e+04 7.312e-10
  0.13022     67.8 1.265e+04 5.348e-10
  0.14595     67.8 1.235e+04 4.506e-10
  0.15634     68.4 1.251e+04 5.117e-10
  0.17177     68.8 1.220e+04 4.361e-10
  0.19255     69.1 1.195e+04 3.993e-10
  0.20588     69.9 1.192e+04 4.216e-10
  0.22675     71.1 1.212e+04 4.480e-10
  0.26546     72.1 1.183e+04 4.293e-10
  0.30486     73.5 1.170e+04 4.144e-10
  0.32564     74.4 1.171e+04 4.235e-10
  0.34857     75.8 1.154e+04 3.924e-10
  0.39012     77.2 1.139e+04 3.552e-10
  0.42453     78.5 1.124e+04 3.147e-10
  0.44530     79.6 1.108e+04 2.758e-10
  0.47323     81.0 1.095e+04 2.303e-10
  0.51478     82.5 1.083e+04 1.931e-10
  0.54419     83.9 1.074e+04 1.627e-10
  0.56497     85.1 1.063e+04 1.272e-10
  0.59789     86.5 1.056e+04 1.118e-10
  0.63944     87.9 1.051e+04 1.082e-10
  0.66385     89.5 1.051e+04 1.084e-10
  0.68463     90.7 1.041e+04 9.436e-11
  0.72255     92.4 1.042e+04 9.813e-11
  0.76274     94.0 1.046e+04 1.096e-10
  0.78352     95.3 1.037e+04 9.611e-11
  0.80565     96.9 1.043e+04 1.146e-10
  0.84721     98.6 1.049e+04 1.410e-10
  0.88241    100.3 1.058e+04 1.701e-10
  0.90318    101.5 1.048e+04 1.496e-10
  0.93031    103.1 1.058e+04 1.741e-10
  0.97187    104.6 1.068e+04 1.816e-10
  1.00207    105.9 1.070e+04 1.785e-10
  1.02285    107.2 1.066e+04 1.732e-10
  1.05497    108.5 1.066e+04 1.690e-10
  1.09652    109.7 1.060e+04 1.618e-10
  1.12173    111.1 1.052e+04 1.590e-10
  1.14251    112.4 1.056e+04 1.653e-10
  1.17963    113.8 1.053e+04 1.671e-10
  1.22062    115.2 1.047e+04 1.768e-10
  1.24140    116.4 1.048e+04 1.829e-10
  1.26274    117.9 1.047e+04 1.993e-10
  1.30429    119.3 1.048e+04 2.194e-10
  1.34028    120.6 1.051e+04 2.339e-10
  1.36106    121.8 1.049e+04 2.353e-10
  1.38740    123.0 1.049e+04 2.417e-10
  1.42895    124.2 1.046e+04 2.429e-10
  1.45995    125.4 1.044e+04 2.431e-10
  1.48072    126.4 1.048e+04 2.470e-10
  1.51206    127.5 1.048e+04 2.563e-10
  1.55361    128.6 1.052e+04 2.804e-10
  1.57961    129.7 1.060e+04 3.227e-10
  1.60039    130.5 1.066e+04 3.291e-10
  1.63672    131.5 1.078e+04 3.871e-10
  1.67467    132.5 1.089e+04 4.505e-10
  1.69545    132.1 1.103e+04 5.275e-10
  1.69927    132.9 1.106e+04 5.551e-10
  1.72005    133.7 1.109e+04 5.545e-10
  1.74862    134.4 1.109e+04 5.518e-10
  1.75891    134.6 1.110e+04 5.555e-10
  1.77157    135.2 1.113e+04 5.542e-10
  1.79806    135.5 1.116e+04 5.425e-10
  1.81884    136.5 1.122e+04 5.507e-10
  1.84438    137.1 1.125e+04 5.256e-10
  1.88604    137.4 1.117e+04 4.593e-10
  1.91783    137.4 1.109e+04 4.217e-10
  1.93850    138.3 1.123e+04 4.690e-10
  1.95856    138.1 1.119e+04 4.516e-10
  1.97746    137.9 1.119e+04 4.499e-10
  1.98785    138.1 1.126e+04 4.873e-10
  2.00011    137.8 1.126e+04 4.826e-10
  2.02089    137.4 1.128e+04 4.841e-10
  2.03729    136.9 1.131e+04 4.896e-10
  2.04768    137.0 1.148e+04 5.331e-10
  2.06244    136.4 1.152e+04 5.299e-10
  2.08322    135.7 1.154e+04 5.269e-10
  2.09713    135.0 1.155e+04 5.215e-10
  2.10751    134.7 1.172e+04 5.921e-10
  2.12477    134.1 1.170e+04 5.867e-10
  2.14555    133.9 1.163e+04 5.722e-10
  2.15696    133.7 1.152e+04 5.307e-10
  2.16735    133.7 1.171e+04 6.012e-10
  2.18710    133.6 1.162e+04 5.337e-10
  2.21836    133.8 1.156e+04 4.848e-10
  2.25604    134.8 1.143e+04 3.785e-10
  2.27682    135.0 1.147e+04 3.722e-10
  2.30157    136.4 1.132e+04 3.034e-10
  2.34312    138.2 1.132e+04 2.941e-10
  2.37570    140.2 1.135e+04 2.952e-10
  2.39648    140.7 1.135e+04 2.946e-10
  2.42623    142.8 1.143e+04 3.067e-10
  2.46778    144.6 1.151e+04 3.296e-10
  2.49537    145.9 1.145e+04 3.486e-10
  2.51614    147.1 1.156e+04 3.468e-10
  2.54040    147.9 1.149e+04 3.520e-10
  2.55500    148.8 1.144e+04 3.636e-10
  2.56539    149.1 1.146e+04 3.545e-10
  2.58186    150.4 1.142e+04 3.794e-10
  2.60263    151.8 1.153e+04 4.575e-10
  2.61484    152.7 1.184e+04 6.053e-10
  2.62522    153.3 1.157e+04 4.964e-10
  2.64419    154.0 1.188e+04 6.588e-10
  2.66428    154.2 1.226e+04 9.075e-10
  2.67467    155.2 1.192e+04 7.108e-10
  2.68574    155.5 1.229e+04 9.670e-10
  2.70652    155.5 1.274e+04 1.342e-09
  2.72411    155.5 1.321e+04 1.846e-09
  2.73450    156.6 1.289e+04 1.463e-09
  2.74807    156.5 1.337e+04 2.017e-09
  2.76885    156.3 1.376e+04 2.564e-09
  2.78394    156.0 1.395e+04 2.719e-09
  2.79433    157.3 1.400e+04 2.792e-09
  2.81040    156.8 1.407e+04 2.811e-09
  2.83118    156.3 1.401e+04 2.678e-09
  2.84378    155.8 1.369e+04 2.231e-09
  2.85416    157.1 1.408e+04 2.697e-09
  2.87273    156.8 1.360e+04 2.048e-09
  2.89322    156.6 1.294e+04 1.390e-09
  2.90361    158.0 1.343e+04 1.773e-09
  2.91428    157.9 1.277e+04 1.154e-09
  2.93506    158.0 1.222e+04 8.613e-10
  2.95315    157.3 1.130e+04 6.558e-10
  2.97402    159.9 1.205e+04 7.479e-10
  3.00797    160.3 1.106e+04 5.953e-10
  3.04952    161.2 1.091e+04 5.835e-10
  3.07291    163.0 1.089e+04 5.872e-10
  3.09369    165.0 1.103e+04 5.863e-10
  3.13263    167.6 1.100e+04 5.986e-10
  3.17180    170.3 1.105e+04 6.469e-10
  3.19248    172.1 1.127e+04 6.857e-10
  3.20515    173.3 1.125e+04 7.056e-10
  3.22593    174.6 1.128e+04 7.314e-10
  3.24182    175.8 1.131e+04 7.648e-10
  3.25221    176.7 1.150e+04 8.266e-10
  3.26748    178.0 1.156e+04 8.737e-10
  3.28826    179.3 1.163e+04 9.274e-10
  3.30165    180.5 1.173e+04 9.876e-10
  3.31204    181.4 1.197e+04 1.102e-09
  3.32981    182.5 1.205e+04 1.164e-09
  3.35059    183.6 1.214e+04 1.229e-09
  3.36149    184.6 1.223e+04 1.298e-09
  3.37187    185.4 1.246e+04 1.437e-09
  3.39214    186.3 1.256e+04 1.512e-09
  3.41093    187.2 1.267e+04 1.598e-09
  3.42132    187.9 1.290e+04 1.752e-09
  3.43370    188.6 1.302e+04 1.846e-09
  3.45447    189.2 1.317e+04 1.958e-09
  3.47076    189.7 1.338e+04 2.104e-09
  3.48115    189.9 1.368e+04 2.303e-09
  3.49603    190.2 1.401e+04 2.548e-09
  3.51680    190.4 1.436e+04 2.873e-09
  3.53059    190.6 1.468e+04 3.254e-09
  3.54098    190.1 1.522e+04 3.843e-09
  3.55836    190.2 1.539e+04 4.214e-09
  3.57913    190.5 1.520e+04 4.446e-09
  3.59042    190.9 1.509e+04 4.424e-09
  3.60081    189.8 1.541e+04 5.079e-09
  3.62069    190.5 1.515e+04 4.926e-09
  3.63987    191.4 1.500e+04 4.738e-09
  3.65026    190.0 1.543e+04 5.559e-09
  3.66224    190.8 1.544e+04 5.549e-09
  3.68302    191.7 1.547e+04 5.594e-09
  3.69970    192.8 1.554e+04 5.748e-09
  3.71009    191.6 1.598e+04 6.665e-09
  3.72457    193.0 1.596e+04 6.525e-09
  3.74535    194.5 1.590e+04 6.178e-09
  3.75953    195.9 1.583e+04 5.785e-09
  3.76992    195.0 1.608e+04 5.328e-09
  3.78690    196.3 1.610e+04 4.741e-09
  3.80768    197.6 1.611e+04 4.192e-09
  3.81936    198.6 1.609e+04 3.769e-09
  3.82975    196.3 1.765e+04 3.629e-09
  3.84923    196.2 1.863e+04 3.430e-09
  3.86881    195.4 1.988e+04 3.362e-09
  3.87915    194.7 1.974e+04 3.878e-09
  3.88549    194.6 1.974e+04 3.908e-09
  3.89588    194.2 1.981e+04 4.014e-09
  3.90382    193.1 2.031e+04 4.322e-09
  3.90901    190.1 2.324e+04 4.890e-09
  3.91665    186.6 2.598e+04 6.563e-09
  3.92704    182.8 2.734e+04 1.096e-08
  3.93374    179.8 2.709e+04 2.013e-08
  3.93893    176.9 2.754e+04 3.207e-08
  3.94782    175.9 2.637e+04 4.942e-08
  3.95821    175.1 2.605e+04 5.575e-08
  3.96365    174.2 2.597e+04 5.409e-08
  3.96885    172.3 2.602e+04 5.026e-08
  3.97898    171.3 2.591e+04 3.897e-08
  3.98837    170.2 2.555e+04 3.054e-08
  3.99357    167.8 2.504e+04 2.213e-08
  3.99976    166.9 2.423e+04 1.947e-08
  4.01015    166.2 2.359e+04 1.750e-08
  4.01829    165.9 2.313e+04 1.618e-08
  4.02348    164.7 2.291e+04 1.481e-08
  4.03617    165.6 2.226e+04 1.442e-08
  4.04830    165.0 2.141e+04 1.268e-08
  4.05869    162.6 2.061e+04 1.082e-08
  4.07777    162.1 1.954e+04 9.701e-09
  4.09775    161.6 1.890e+04 8.965e-09
  4.10814    160.6 1.864e+04 8.189e-09
  4.11932    160.9 1.859e+04 8.185e-09
  4.13281    161.0 1.868e+04 8.067e-09
  4.13795    161.0 1.862e+04 7.927e-09
  4.14520    161.0 1.864e+04 7.910e-09
  4.15559    161.2 1.875e+04 8.034e-09
  4.16268    161.2 1.914e+04 8.582e-09
  4.16787    161.1 1.898e+04 8.141e-09
  4.17636    160.9 1.950e+04 8.827e-09
  4.18675    160.7 2.039e+04 1.009e-08
  4.19259    160.3 2.159e+04 1.260e-08
  4.19779    160.3 2.112e+04 1.100e-08
  4.20753    159.7 2.250e+04 1.451e-08
  4.21474    159.1 2.366e+04 2.137e-08
  4.21933    158.6 2.357e+04 1.087e-08
  4.22251    158.7 2.271e+04 8.418e-09
  4.22830    158.0 2.459e+04 1.224e-08
  4.23869    157.3 2.568e+04 2.067e-08
  4.24723    156.8 2.575e+04 3.729e-08
  4.25242    156.8 2.613e+04 2.268e-08
  4.25947    155.7 2.624e+04 3.795e-08
  4.26986    154.1 2.613e+04 5.634e-08
  4.27714    151.8 2.586e+04 7.043e-08
  4.28234    151.9 2.601e+04 4.227e-08
  4.29063    149.9 2.551e+04 5.012e-08
  4.30102    147.8 2.513e+04 5.465e-08
  4.30706    145.8 2.472e+04 5.591e-08
  4.31225    146.7 2.442e+04 4.152e-08
  4.32180    145.1 2.418e+04 4.099e-08
  4.33178    143.8 2.380e+04 3.911e-08
  4.33698    144.8 2.360e+04 3.016e-08
  4.34257    143.7 2.320e+04 2.830e-08
  4.35296    142.7 2.285e+04 2.580e-08
  4.36170    141.9 2.254e+04 2.287e-08
  4.36689    142.8 2.222e+04 1.888e-08
  4.37374    142.3 2.190e+04 1.776e-08
  4.38647    140.8 2.131e+04 1.487e-08
  4.39691    142.8 2.057e+04 1.189e-08
  4.41020    142.2 1.954e+04 1.001e-08
  4.43097    142.1 1.865e+04 8.473e-09
  4.44635    142.4 1.816e+04 7.716e-09
  4.45674    143.6 1.744e+04 6.474e-09
  4.47253    144.0 1.740e+04 6.363e-09
  4.49330    144.5 1.738e+04 6.384e-09
  4.50618    145.1 1.734e+04 6.538e-09
  4.51657    146.2 1.674e+04 5.692e-09
  4.53486    146.7 1.683e+04 5.960e-09
  4.55563    147.2 1.692e+04 6.310e-09
  4.57640    148.6 1.653e+04 5.862e-09
  4.59719    149.1 1.654e+04 6.050e-09
  4.61546    149.5 1.653e+04 6.143e-09
  4.62585    150.5 1.608e+04 5.483e-09
  4.63874    151.0 1.608e+04 5.515e-09
  4.65952    151.6 1.606e+04 5.528e-09
  4.67529    152.1 1.602e+04 5.495e-09
  4.68568    153.1 1.570e+04 5.040e-09
  4.70107    153.7 1.569e+04 5.048e-09
  4.72185    154.6 1.573e+04 5.107e-09
  4.73512    155.4 1.584e+04 5.257e-09
  4.74551    156.2 1.564e+04 5.013e-09
  4.76340    157.0 1.581e+04 5.293e-09
  4.78418    157.7 1.607e+04 5.727e-09
  4.79495    158.5 1.637e+04 6.263e-09
  4.80534    159.4 1.613e+04 5.985e-09
  4.82573    160.0 1.650e+04 6.613e-09
  4.84440    160.6 1.708e+04 7.411e-09
  4.85478    161.4 1.652e+04 6.844e-09
  4.86728    161.8 1.703e+04 7.635e-09
  4.88806    162.1 1.762e+04 8.726e-09
  4.90423    162.3 1.821e+04 1.012e-08
  4.91462    163.4 1.738e+04 8.344e-09
  4.92961    163.6 1.792e+04 9.539e-09
  4.95039    163.8 1.846e+04 1.100e-08
  4.96406    164.0 1.906e+04 1.290e-08
  4.97445    165.4 1.852e+04 1.088e-08
  4.99194    165.4 1.937e+04 1.327e-08
  5.01272    165.4 2.035e+04 1.631e-08
  5.02389    165.4 2.161e+04 1.959e-08
  5.03428    167.8 2.103e+04 1.889e-08
  5.04856    167.0 2.225e+04 2.014e-08
  5.05371    167.6 2.210e+04 2.032e-08
  5.05937    167.2 2.320e+04 2.208e-08
  5.06976    166.3 2.444e+04 2.488e-08
  5.07843    164.9 2.579e+04 2.680e-08
  5.08363    166.4 2.552e+04 3.000e-08
  5.09053    165.1 2.704e+04 3.100e-08
  5.10092    163.4 2.829e+04 2.937e-08
  5.10835    161.3 2.957e+04 2.541e-08
  5.11354    163.9 2.926e+04 3.402e-08
  5.12170    161.4 3.104e+04 2.686e-08
  5.13209    158.5 3.313e+04 1.839e-08
  5.13826    155.3 3.558e+04 1.121e-08
  5.14346    158.4 3.486e+04 1.766e-08
  5.15286    155.1 3.868e+04 9.907e-09
  5.16299    151.6 4.467e+04 4.900e-09
  5.16818    155.6 4.152e+04 9.470e-09
  5.17364    152.1 4.924e+04 4.517e-09
  5.18403    148.8 6.011e+04 1.913e-09
  5.19290    144.9 6.666e+04 1.061e-09
  5.19810    149.2 6.428e+04 1.812e-09
  5.20480    144.7 7.269e+04 8.412e-10
  5.22043    140.2 5.558e+04 1.657e-09
  5.24126    129.1 2.454e+04 1.241e-09
  5.25283    123.3 1.239e+04 1.805e-09
  5.26322    122.3 1.262e+04 1.827e-09
  5.28281    121.5 1.232e+04 1.834e-09
  5.30227    121.1 1.226e+04 1.815e-09
  5.31266    120.5 1.262e+04 1.944e-09
  5.32437    120.4 1.248e+04 1.824e-09
  5.34514    120.4 1.207e+04 1.512e-09
  5.36211    120.4 1.148e+04 1.175e-09
  5.37249    120.8 1.174e+04 1.416e-09
  5.38670    120.8 1.123e+04 1.038e-09
  5.40747    120.7 1.062e+04 8.106e-10
  5.42194    120.7 1.000e+04 6.999e-10
  5.43233    121.1 1.047e+04 7.892e-10
  5.44903    121.2 9.969e+03 7.122e-10
  5.46943    121.5 9.810e+03 7.068e-10
  5.47982    122.3 9.454e+03 5.684e-10
  5.48177    122.7 9.462e+03 5.712e-10
  5.49216    123.0 9.779e+03 6.640e-10
  5.51136    123.6 9.784e+03 6.770e-10
  5.53121    124.3 9.847e+03 7.218e-10
  5.54160    124.9 1.022e+04 8.727e-10
  5.55291    125.6 1.029e+04 9.219e-10
  5.57369    126.4 1.040e+04 9.866e-10
  5.59105    127.1 1.054e+04 1.062e-09
  5.60143    127.6 1.075e+04 1.155e-09
  5.61524    128.2 1.082e+04 1.210e-09
  5.63602    128.9 1.087e+04 1.249e-09
  5.65088    129.5 1.086e+04 1.265e-09
  5.66127    130.1 1.088e+04 1.267e-09
  5.67757    130.8 1.083e+04 1.254e-09
  5.69835    131.5 1.077e+04 1.222e-09
  5.71071    132.4 1.073e+04 1.190e-09
  5.72110    132.8 1.065e+04 1.096e-09
  5.73990    133.6 1.059e+04 1.071e-09
  5.76015    134.4 1.056e+04 1.055e-09
  5.77054    134.8 1.045e+04 9.663e-10
  5.78145    135.6 1.045e+04 9.708e-10
  5.80223    136.3 1.047e+04 9.841e-10
  5.81998    137.1 1.052e+04 1.010e-09
  5.83037    137.6 1.047e+04 9.659e-10
  5.84378    138.4 1.057e+04 1.025e-09
  5.86456    139.1 1.068e+04 1.104e-09
  5.87982    139.9 1.082e+04 1.190e-09
  5.89021    140.4 1.090e+04 1.206e-09
  5.90611    141.3 1.105e+04 1.337e-09
  5.92689    142.1 1.122e+04 1.445e-09
  5.93965    142.9 1.139e+04 1.523e-09
  5.95004    143.6 1.148e+04 1.645e-09
  5.96844    144.4 1.161e+04 1.707e-09
  5.98909    145.2 1.179e+04 1.699e-09
  5.99948    146.0 1.184e+04 1.782e-09
  6.00999    146.8 1.191e+04 1.738e-09
  6.03077    147.4 1.196e+04 1.671e-09
  6.04892    148.0 1.198e+04 1.599e-09
  6.05931    148.6 1.200e+04 1.565e-09
  6.07232    148.9 1.198e+04 1.467e-09
  6.09310    149.3 1.194e+04 1.401e-09
  6.12436    150.3 1.168e+04 1.238e-09
  6.15839    151.9 1.165e+04 1.193e-09
  6.17917    153.6 1.153e+04 1.140e-09
  6.20757    155.1 1.142e+04 9.887e-10
  6.24912    156.8 1.123e+04 7.825e-10
  6.27806    158.5 1.095e+04 5.625e-10
  6.29884    160.1 1.118e+04 5.989e-10
  6.33223    161.8 1.090e+04 4.209e-10
  6.37378    163.7 1.053e+04 2.905e-10
  6.39772    165.7 1.023e+04 2.056e-10
  6.41850    167.4 1.042e+04 2.734e-10
  6.45689    169.5 1.020e+04 1.990e-10
  6.49661    171.7 1.009e+04 1.482e-10
  6.51739    173.5 1.022e+04 1.869e-10
  6.53999    175.6 1.013e+04 1.397e-10
  6.58155    177.9 1.008e+04 1.092e-10
  6.61627    180.3 1.007e+04 9.008e-11
  6.63705    181.9 1.009e+04 9.809e-11
  6.66465    184.2 1.010e+04 8.267e-11
  6.70621    186.6 1.014e+04 7.344e-11
  6.73461    189.1 1.021e+04 6.771e-11
  6.74357    189.0 1.031e+04 6.813e-11
  6.75671    190.5 1.033e+04 7.238e-11
  6.78931    192.8 1.040e+04 6.759e-11
  6.83087    195.3 1.046e+04 6.454e-11
  6.85560    197.7 1.058e+04 6.221e-11
  6.87638    199.2 1.057e+04 6.733e-11
  6.91397    201.7 1.061e+04 6.726e-11
  6.95449    204.1 1.068e+04 6.706e-11
  6.97526    205.6 1.073e+04 6.990e-11
  6.99708    208.0 1.083e+04 6.965e-11
  7.03863    210.4 1.092e+04 6.985e-11
  7.07415    212.8 1.099e+04 7.117e-11
  7.09493    214.2 1.099e+04 6.966e-11
  7.12174    216.6 1.104e+04 7.036e-11
  7.16329    218.9 1.106e+04 7.148e-11
  7.19382    221.2 1.105e+04 7.262e-11
  7.21459    222.5 1.107e+04 6.551e-11
  7.24640    224.8 1.106e+04 6.489e-11
  7.28795    227.0 1.104e+04 6.372e-11
  7.31348    229.2 1.101e+04 6.254e-11
  7.33426    230.5 1.098e+04 5.786e-11
  7.37106    232.7 1.097e+04 5.702e-11
  7.41237    235.0 1.097e+04 5.690e-11
  7.43314    236.4 1.094e+04 5.428e-11
  7.45416    238.6 1.095e+04 5.441e-11
  7.49572    240.7 1.098e+04 5.616e-11
  7.53203    242.8 1.101e+04 6.152e-11
  7.55281    244.4 1.100e+04 5.628e-11
  7.57882    246.4 1.104e+04 6.204e-11
  7.62038    248.4 1.107e+04 7.062e-11
  7.65169    250.5 1.108e+04 8.164e-11
  7.67247    251.8 1.125e+04 6.584e-11
  7.70348    253.9 1.127e+04 7.487e-11
  7.74504    256.0 1.127e+04 8.589e-11
  7.77136    258.3 1.124e+04 9.901e-11
  7.79213    259.6 1.119e+04 9.306e-11
  7.82814    261.9 1.117e+04 1.053e-10
  7.86970    264.3 1.115e+04 1.190e-10
  7.89102    266.8 1.114e+04 1.360e-10
  7.91180    268.1 1.116e+04 1.365e-10
  7.95280    270.6 1.117e+04 1.560e-10
  7.98991    273.2 1.119e+04 1.798e-10
  8.01068    274.4 1.114e+04 1.767e-10
  8.03591    277.0 1.114e+04 1.990e-10
  8.07746    279.8 1.117e+04 2.252e-10
  8.10957    282.6 1.125e+04 2.566e-10
  8.13035    283.9 1.107e+04 2.277e-10
  8.16057    286.8 1.115e+04 2.581e-10
  8.20212    289.9 1.134e+04 2.983e-10
  8.22924    292.9 1.157e+04 3.474e-10
  8.25001    294.3 1.132e+04 2.971e-10
  8.28523    297.2 1.157e+04 3.521e-10
  8.32678    299.3 1.167e+04 3.930e-10
  8.34880    301.1 1.168e+04 4.250e-10
  8.35909    302.2 1.158e+04 3.864e-10
  8.37853    303.7 1.162e+04 4.284e-10
  8.39815    305.5 1.172e+04 5.084e-10
  8.40854    305.7 1.163e+04 4.697e-10
  8.42008    307.5 1.173e+04 5.555e-10
  8.44086    309.0 1.191e+04 6.529e-10
  8.45798    310.4 1.216e+04 7.618e-10
  8.46837    310.7 1.199e+04 7.257e-10
  8.48241    311.8 1.235e+04 8.609e-10
  8.50319    312.3 1.276e+04 1.058e-09
  8.51781    312.2 1.323e+04 1.357e-09
  8.52820    312.3 1.319e+04 1.376e-09
  8.54474    312.1 1.381e+04 1.900e-09
  8.56552    311.8 1.457e+04 2.735e-09
  8.57764    311.3 1.542e+04 3.905e-09
  8.58803    311.5 1.563e+04 4.424e-09
  8.60707    310.6 1.651e+04 5.839e-09
  8.62709    309.0 1.706e+04 6.157e-09
  8.63748    309.2 1.727e+04 6.970e-09
  8.64862    306.9 1.728e+04 6.747e-09
  8.66940    304.3 1.712e+04 5.670e-09
  8.68692    301.4 1.646e+04 3.967e-09
  8.69731    301.9 1.658e+04 4.157e-09
  8.71095    298.7 1.530e+04 2.529e-09
  8.73173    294.9 1.369e+04 1.671e-09
  8.74675    291.3 1.245e+04 1.356e-09
  8.75714    291.9 1.245e+04 1.326e-09
  8.77328    289.2 1.220e+04 1.272e-09
  8.79406    287.4 1.215e+04 1.221e-09
  8.80658    285.9 1.213e+04 1.149e-09
  8.81697    286.5 1.217e+04 1.174e-09
  8.83561    285.2 1.212e+04 1.111e-09
  8.85603    283.8 1.202e+04 1.050e-09
  8.86641    284.6 1.205e+04 1.108e-09
  8.87716    283.5 1.192e+04 1.036e-09
  8.89794    282.5 1.174e+04 9.459e-10
  8.91586    281.6 1.180e+04 8.858e-10
  8.92625    282.8 1.154e+04 8.591e-10
  8.93949    282.2 1.145e+04 7.593e-10
  8.96027    281.5 1.152e+04 7.407e-10
  8.97569    280.8 1.163e+04 7.547e-10
  8.98608    282.3 1.112e+04 5.880e-10
  9.00182    281.7 1.116e+04 5.924e-10
  9.02260    281.3 1.128e+04 6.205e-10
  9.03552    281.0 1.145e+04 6.860e-10
  9.04591    282.4 1.081e+04 4.960e-10
  9.06415    282.1 1.097e+04 5.383e-10
  9.08493    282.0 1.115e+04 6.006e-10
  9.10571    283.2 1.085e+04 5.133e-10
  9.12648    283.1 1.104e+04 5.838e-10
  9.14480    282.9 1.120e+04 6.703e-10
  9.15519    284.0 1.084e+04 5.419e-10
  9.16804    283.5 1.114e+04 6.375e-10
  9.18881    282.7 1.172e+04 8.183e-10
  9.20463    281.7 1.257e+04 1.136e-09
  9.21502    282.3 1.249e+04 1.043e-09
  9.23037    281.1 1.333e+04 1.478e-09
  9.25114    279.8 1.414e+04 2.036e-09
  9.26439    278.4 1.470e+04 2.634e-09
  9.27478    281.5 1.391e+04 1.976e-09
  9.29270    280.0 1.439e+04 2.444e-09
  9.31347    278.2 1.470e+04 2.728e-09
  9.32429    276.3 1.474e+04 2.808e-09
  9.33468    276.1 1.433e+04 2.668e-09
  9.35503    273.4 1.438e+04 2.705e-09
  9.37374    269.8 1.455e+04 2.792e-09
  9.38412    269.5 1.462e+04 2.830e-09
  9.39658    264.9 1.510e+04 3.197e-09
