# Columns:
#   distance along LOS (in CHIMPs)
#   peculiar velocity  (in km/s)
#   temperature (K)
#   HI number density
# pos=(206.513,139.517,69.728), angles=(1.48091,4.19642)
  0.00176     15.8 8.914e+03 2.741e-10
  0.00409     16.3 9.288e+03 4.183e-10
  0.02169     16.2 9.264e+03 4.261e-10
  0.04368     16.9 9.139e+03 3.813e-10
  0.06638     18.0 9.455e+03 5.193e-10
  0.08893     17.9 9.373e+03 4.964e-10
  0.11626     18.8 9.475e+03 5.305e-10
  0.15122     19.5 9.306e+03 4.816e-10
  0.17376     19.3 8.944e+03 3.800e-10
  0.20644     19.8 8.579e+03 2.796e-10
  0.23606     20.1 8.295e+03 2.231e-10
  0.25860     20.3 8.027e+03 1.638e-10
  0.29662     20.6 7.973e+03 1.529e-10
  0.32089     20.6 8.149e+03 1.674e-10
  0.34344     20.7 7.826e+03 1.156e-10
  0.38319     20.0 8.358e+03 2.014e-10
  0.40573     20.4 8.085e+03 1.480e-10
  0.43189     19.9 8.882e+03 3.082e-10
  0.46417     19.4 9.665e+03 5.456e-10
  0.47776     20.9 9.170e+03 3.880e-10
  0.49057     21.0 8.956e+03 3.048e-10
  0.52208     19.9 9.830e+03 6.002e-10
  0.55286     18.6 1.074e+04 1.012e-09
  0.57541     19.0 1.074e+04 9.914e-10
  0.59518     16.9 1.157e+04 1.401e-09
  0.60636     17.0 1.159e+04 1.451e-09
  0.62333     15.0 1.196e+04 1.626e-09
  0.63751     12.8 1.235e+04 1.832e-09
  0.64878     13.2 1.241e+04 1.921e-09
  0.66843     10.9 1.258e+04 1.997e-09
  0.67993      8.4 1.247e+04 1.933e-09
  0.68572      8.5 1.253e+04 1.935e-09
  0.69677      8.9 1.280e+04 2.151e-09
  0.71107      6.7 1.208e+04 1.755e-09
  0.72234      6.7 1.208e+04 1.725e-09
  0.73606      4.7 1.126e+04 1.232e-09
  0.75349      3.0 1.071e+04 8.470e-10
  0.76476      2.5 1.069e+04 8.116e-10
  0.78115      0.3 1.023e+04 5.484e-10
  0.79591     -2.3 9.705e+03 3.982e-10
  0.80718     -3.1 9.813e+03 4.413e-10
  0.82624     -5.0 9.536e+03 4.087e-10
  0.83833     -5.9 9.465e+03 4.052e-10
  0.84960     -6.4 9.810e+03 5.306e-10
  0.86947     -6.7 9.858e+03 5.574e-10
  0.88075     -7.1 1.031e+04 7.397e-10
  0.89388     -7.2 1.036e+04 7.529e-10
  0.90702     -7.4 1.043e+04 7.456e-10
  0.91376     -7.8 1.093e+04 1.014e-09
  0.92317     -8.1 1.131e+04 1.144e-09
  0.93897     -8.6 1.132e+04 1.093e-09
  0.95431     -9.3 1.134e+04 1.086e-09
  0.96559     -9.8 1.163e+04 1.201e-09
  0.98406    -10.5 1.182e+04 1.295e-09
  0.99673    -11.2 1.199e+04 1.435e-09
  1.00800    -11.1 1.231e+04 1.640e-09
  1.02788    -11.4 1.246e+04 1.809e-09
  1.03925    -11.6 1.268e+04 1.950e-09
  1.06317    -12.0 1.252e+04 1.869e-09
  1.10164    -12.6 1.177e+04 1.272e-09
  1.12418    -12.2 1.197e+04 1.406e-09
  1.15335    -12.8 1.102e+04 8.040e-10
  1.18648    -13.7 9.932e+03 3.971e-10
  1.20902    -12.8 1.049e+04 5.438e-10
  1.24353    -13.5 9.752e+03 3.181e-10
  1.27132    -13.9 9.297e+03 2.108e-10
  1.29386    -13.4 9.677e+03 2.709e-10
  1.32771    -13.4 9.229e+03 1.776e-10
  1.35015    -13.7 9.317e+03 1.966e-10
  1.37870    -12.8 9.244e+03 1.624e-10
  1.41845    -12.0 8.965e+03 1.107e-10
  1.44099    -11.6 9.215e+03 1.459e-10
  1.46899    -10.7 9.079e+03 1.183e-10
  1.50328     -9.7 9.060e+03 1.136e-10
  1.52583     -9.3 9.280e+03 1.486e-10
  1.55917     -8.4 9.333e+03 1.532e-10
  1.58812     -7.7 9.475e+03 1.791e-10
  1.61067     -7.3 9.746e+03 2.465e-10
  1.64935     -6.6 9.766e+03 2.589e-10
  1.67296     -5.8 9.728e+03 2.581e-10
  1.69551     -5.4 9.923e+03 2.974e-10
  1.73525     -4.6 9.810e+03 2.263e-10
  1.75780     -4.5 1.002e+04 2.400e-10
  1.77075     -4.1 9.812e+03 1.730e-10
  1.79329     -4.6 1.000e+04 2.405e-10
  1.82009     -4.2 9.959e+03 2.145e-10
  1.84264     -4.6 1.012e+04 2.662e-10
  1.87481     -4.1 1.017e+04 2.693e-10
  1.90493     -4.0 1.053e+04 3.721e-10
  1.92748     -4.1 1.055e+04 4.062e-10
  1.96499     -3.7 1.093e+04 5.877e-10
  1.98977     -3.4 1.124e+04 7.638e-10
  1.99440     -3.5 1.108e+04 6.964e-10
  2.00334     -3.6 1.118e+04 7.396e-10
  2.02072     -3.7 1.122e+04 7.754e-10
  2.03199     -3.9 1.116e+04 7.572e-10
  2.04370     -3.8 1.122e+04 7.997e-10
  2.06314     -3.9 1.122e+04 8.040e-10
  2.07441     -4.1 1.117e+04 7.854e-10
  2.10016     -4.0 1.105e+04 7.499e-10
  2.13690     -3.6 1.060e+04 5.912e-10
  2.15944     -3.5 1.050e+04 5.588e-10
  2.19044     -2.7 9.934e+03 3.635e-10
  2.21379     -2.2 9.442e+03 2.232e-10
  2.22253     -2.5 9.451e+03 2.258e-10
  2.24428     -2.0 9.589e+03 2.561e-10
  2.28063     -1.3 9.406e+03 2.098e-10
  2.30658      0.0 9.354e+03 2.005e-10
  2.31775     -0.2 9.509e+03 2.315e-10
  2.33679      0.2 9.559e+03 2.320e-10
  2.34880      1.3 9.637e+03 2.423e-10
  2.36007      0.4 1.026e+04 3.497e-10
  2.37995      1.0 1.033e+04 3.772e-10
  2.39122     -0.1 1.117e+04 7.269e-10
  2.40443      0.9 1.119e+04 7.931e-10
  2.42236      2.0 1.125e+04 8.679e-10
  2.43050      1.8 1.220e+04 1.604e-09
  2.43511      1.7 1.225e+04 1.541e-09
  2.44952      1.9 1.276e+04 1.819e-09
  2.46478      1.4 1.353e+04 2.463e-09
  2.47606      1.1 1.452e+04 4.029e-09
  2.49461      0.3 1.541e+04 5.608e-09
  2.50720      0.4 1.632e+04 7.630e-09
  2.51848      0.3 1.642e+04 7.825e-09
  2.53402      0.6 1.642e+04 7.689e-09
  2.54014      0.5 1.653e+04 7.925e-09
  2.54442      0.3 1.735e+04 1.034e-08
  2.54957      0.1 1.688e+04 8.869e-09
  2.56225      0.1 1.681e+04 8.919e-09
  2.58077      0.3 1.608e+04 7.013e-09
  2.59204     -0.4 1.527e+04 5.764e-09
  2.60734     -0.5 1.462e+04 4.187e-09
  2.62319     -1.0 1.391e+04 2.656e-09
  2.63446     -1.3 1.380e+04 2.761e-09
  2.64536     -2.2 1.345e+04 1.826e-09
  2.65663     -3.7 1.324e+04 1.399e-09
  2.66561     -5.2 1.217e+04 9.617e-10
  2.67688     -4.7 1.269e+04 1.255e-09
  2.69675     -5.4 1.187e+04 1.019e-09
  2.70803     -5.1 1.241e+04 1.387e-09
  2.72007     -5.1 1.196e+04 1.206e-09
  2.73917     -4.8 1.178e+04 1.118e-09
  2.75044     -4.4 1.204e+04 1.337e-09
  2.76516     -3.8 1.187e+04 1.159e-09
  2.78159     -3.1 1.182e+04 1.022e-09
  2.79286     -3.2 1.203e+04 1.067e-09
  2.81025     -2.8 1.200e+04 9.210e-10
  2.82401     -2.6 1.199e+04 8.269e-10
  2.83528     -3.3 1.231e+04 9.005e-10
  2.85516     -2.8 1.225e+04 8.554e-10
  2.86643     -4.7 1.353e+04 1.252e-09
  2.86688     -4.6 1.406e+04 1.405e-09
  2.87815     -6.1 1.620e+04 3.145e-09
  2.89758     -5.9 1.700e+04 4.057e-09
  2.90885     -9.4 1.953e+04 1.186e-08
  2.92298     -9.1 2.048e+04 1.621e-08
  2.93984    -11.4 2.157e+04 2.344e-08
  2.94553    -12.3 2.151e+04 3.472e-08
  2.95117    -12.1 2.056e+04 5.109e-08
  2.96111    -11.8 2.071e+04 7.277e-08
  2.96674    -11.2 2.047e+04 6.969e-08
  2.97191    -10.7 2.059e+04 9.900e-08
  2.97754     -9.2 2.075e+04 9.770e-08
  2.98232     -8.9 2.087e+04 1.391e-07
  2.98795     -7.8 2.027e+04 8.450e-08
  2.99615     -7.1 2.027e+04 9.609e-08
  3.00353     -6.3 2.031e+04 1.040e-07
  3.00916     -5.3 2.003e+04 3.905e-08
  3.01870     -4.6 2.038e+04 3.294e-08
  3.02473     -4.2 2.071e+04 2.565e-08
  3.03606     -5.8 2.059e+04 4.864e-09
  3.05598     -6.4 2.001e+04 2.831e-09
  3.06725    -11.4 1.768e+04 2.192e-10
  3.07713    -11.4 1.579e+04 1.928e-10
  3.08840    -16.8 1.191e+04 1.587e-10
  3.09840    -16.9 1.053e+04 1.559e-10
  3.10977    -19.4 8.706e+03 1.431e-10
  3.13736    -16.7 8.690e+03 1.422e-10
  3.17216    -13.8 8.799e+03 1.476e-10
  3.19470    -14.0 8.747e+03 1.572e-10
  3.22754    -11.3 8.916e+03 1.767e-10
  3.25690     -8.8 9.175e+03 2.141e-10
  3.26807     -9.6 9.481e+03 2.799e-10
  3.28371     -9.2 9.438e+03 2.761e-10
  3.29865     -7.4 9.544e+03 2.976e-10
  3.30289     -7.6 9.600e+03 3.303e-10
  3.31049     -8.1 9.872e+03 4.221e-10
  3.32880     -6.9 1.004e+04 4.874e-10
  3.34164     -5.7 1.040e+04 6.039e-10
  3.35291     -6.7 1.074e+04 7.366e-10
  3.37279     -5.9 1.106e+04 8.805e-10
  3.38406     -6.8 1.101e+04 9.656e-10
  3.39643     -6.0 1.122e+04 1.092e-09
  3.41521     -5.2 1.158e+04 1.272e-09
  3.42648     -6.0 1.117e+04 1.146e-09
  3.44152     -5.4 1.148e+04 1.290e-09
  3.45762     -5.3 1.198e+04 1.514e-09
  3.46890     -6.0 1.138e+04 1.132e-09
  3.48662     -6.4 1.192e+04 1.297e-09
  3.50004     -7.1 1.240e+04 1.517e-09
  3.51105     -7.8 1.134e+04 9.489e-10
  3.52017     -9.2 1.214e+04 1.265e-09
  3.53119    -10.3 1.216e+04 1.412e-09
  3.54246    -10.9 1.132e+04 8.916e-10
  3.55425    -12.0 1.147e+04 9.909e-10
  3.57361    -13.4 1.147e+04 1.065e-09
  3.58488    -13.4 1.116e+04 8.213e-10
  3.59934    -14.8 1.121e+04 9.254e-10
  3.61603    -16.2 1.125e+04 1.052e-09
  3.62730    -15.9 1.108e+04 9.412e-10
  3.64443    -16.7 1.110e+04 1.078e-09
  3.65845    -17.2 1.142e+04 1.230e-09
  3.66972    -16.2 1.119e+04 1.179e-09
  3.68953    -16.7 1.166e+04 1.342e-09
  3.71207    -17.2 1.274e+04 1.645e-09
  3.73041    -19.0 1.332e+04 1.868e-09
  3.73908    -22.5 1.296e+04 1.749e-09
  3.74329    -23.9 1.550e+04 2.768e-09
  3.75716    -24.7 1.520e+04 2.854e-09
  3.77443    -25.2 1.482e+04 2.815e-09
  3.78570    -29.0 2.110e+04 7.499e-09
  3.80225    -30.0 2.190e+04 7.531e-09
  3.81685    -31.2 2.281e+04 7.536e-09
  3.82244    -32.5 2.386e+04 1.755e-08
  3.83034    -33.0 2.409e+04 1.861e-08
  3.83796    -33.5 2.464e+04 1.910e-08
  3.84307    -34.6 2.362e+04 2.560e-08
  3.84671    -35.8 2.321e+04 2.008e-08
  3.85288    -36.4 2.327e+04 2.213e-08
  3.85917    -37.2 2.325e+04 2.540e-08
  3.86481    -38.1 2.209e+04 2.963e-08
  3.87475    -39.7 2.249e+04 3.522e-08
  3.88038    -40.5 2.142e+04 3.263e-08
  3.88670    -42.3 2.188e+04 4.342e-08
  3.89595    -44.3 2.197e+04 6.325e-08
  3.90159    -43.8 2.254e+04 4.315e-08
  3.90925    -45.4 2.247e+04 6.754e-08
  3.91716    -46.5 2.235e+04 1.026e-07
  3.92280    -47.0 2.394e+04 5.641e-08
  3.93179    -47.2 2.341e+04 8.377e-08
  3.93837    -46.7 2.287e+04 1.031e-07
  3.94401    -45.8 2.619e+04 4.324e-08
  3.95184    -44.5 2.574e+04 4.801e-08
  3.95708    -43.0 2.457e+04 4.235e-08
  3.95958    -44.9 2.805e+04 1.784e-08
  3.96561    -43.9 2.792e+04 1.845e-08
  3.97516    -43.5 2.666e+04 1.783e-08
  3.98648    -47.3 2.057e+04 5.069e-09
  4.00516    -46.8 1.975e+04 5.223e-09
  4.01767    -46.1 1.852e+04 4.982e-09
  4.02895    -47.4 1.370e+04 2.381e-09
  4.04882    -46.5 1.377e+04 2.531e-09
  4.06009    -45.5 1.272e+04 1.793e-09
  4.07280    -44.5 1.293e+04 1.925e-09
  4.09124    -43.4 1.298e+04 1.973e-09
  4.10251    -42.6 1.205e+04 1.464e-09
  4.11789    -41.5 1.210e+04 1.501e-09
  4.13366    -40.3 1.205e+04 1.495e-09
  4.14493    -39.6 1.127e+04 1.130e-09
  4.16218    -38.4 1.130e+04 1.114e-09
  4.17346    -38.2 1.087e+04 9.583e-10
  4.17608    -37.0 1.076e+04 8.721e-10
  4.18735    -36.2 1.038e+04 7.147e-10
  4.20722    -35.1 1.028e+04 6.483e-10
  4.21850    -34.3 9.907e+03 5.120e-10
  4.23062    -33.2 9.862e+03 4.716e-10
  4.24964    -32.2 9.775e+03 4.331e-10
  4.26091    -31.6 9.492e+03 3.621e-10
  4.27571    -30.7 9.474e+03 3.531e-10
  4.29206    -29.7 9.430e+03 3.494e-10
  4.31470    -28.7 9.253e+03 3.160e-10
  4.35455    -26.4 9.270e+03 3.371e-10
  4.37709    -25.6 9.016e+03 2.949e-10
  4.38390    -23.7 9.180e+03 3.428e-10
  4.40644    -24.3 9.320e+03 3.841e-10
  4.43939    -22.3 9.573e+03 4.777e-10
  4.46193    -21.9 9.509e+03 4.813e-10
  4.49009    -20.2 9.780e+03 5.720e-10
  4.52423    -18.7 1.003e+04 6.445e-10
  4.54677    -18.2 9.926e+03 6.454e-10
  4.58027    -17.5 1.010e+04 6.348e-10
  4.60906    -17.4 1.061e+04 7.106e-10
  4.63161    -17.3 1.070e+04 7.804e-10
  4.67045    -17.7 1.173e+04 1.098e-09
  4.69380    -18.3 1.260e+04 1.899e-09
  4.70498    -18.1 1.227e+04 1.981e-09
  4.72485    -18.4 1.350e+04 2.718e-09
  4.73613    -17.8 1.300e+04 2.531e-09
  4.74917    -18.1 1.436e+04 3.750e-09
  4.76727    -19.1 1.575e+04 5.934e-09
  4.77854    -18.1 1.497e+04 4.340e-09
  4.79426    -18.7 1.605e+04 6.934e-09
  4.80969    -18.9 1.681e+04 1.103e-08
  4.81963    -18.1 1.641e+04 6.309e-09
  4.82674    -20.2 1.685e+04 2.624e-09
  4.83935    -20.9 1.847e+04 3.419e-09
  4.85211    -22.1 1.980e+04 3.909e-09
  4.86338    -24.2 1.794e+04 1.844e-09
  4.88326    -27.2 1.717e+04 1.929e-09
  4.89453    -30.0 1.280e+04 1.229e-09
  4.90698    -31.4 1.228e+04 1.429e-09
  4.92568    -32.2 1.229e+04 1.624e-09
  4.93695    -31.4 1.193e+04 1.381e-09
  4.95207    -32.1 1.199e+04 1.408e-09
  4.96809    -32.7 1.195e+04 1.393e-09
  4.97937    -32.3 1.170e+04 1.178e-09
  4.99717    -32.9 1.146e+04 1.010e-09
  5.01051    -34.1 1.109e+04 8.236e-10
  5.03316    -35.9 1.080e+04 6.425e-10
  5.06490    -39.4 9.866e+03 4.797e-10
  5.08408    -42.0 1.021e+04 6.225e-10
  5.09545    -41.5 1.081e+04 5.947e-10
  5.12136    -45.0 1.161e+04 1.153e-09
  5.15784    -47.1 1.199e+04 1.495e-09
  5.18039    -48.8 1.139e+04 1.175e-09
  5.21154    -52.6 1.111e+04 1.017e-09
  5.24268    -57.6 1.008e+04 5.675e-10
  5.25602    -60.0 1.024e+04 6.126e-10
  5.26998    -60.8 1.079e+04 8.719e-10
  5.30173    -65.0 9.544e+03 5.170e-10
  5.32752    -67.9 8.742e+03 3.269e-10
  5.35006    -68.3 8.734e+03 3.199e-10
  5.38981    -70.6 8.176e+03 1.916e-10
  5.41235    -71.1 8.154e+03 1.720e-10
  5.43700    -73.4 7.595e+03 1.162e-10
  5.47465    -74.9 7.487e+03 1.062e-10
  5.49719    -74.4 7.588e+03 1.112e-10
  5.52718    -76.0 7.641e+03 1.154e-10
  5.55949    -78.8 8.447e+03 2.106e-10
  5.58203    -78.0 8.775e+03 2.469e-10
  5.61736    -79.6 1.000e+04 5.469e-10
  5.64432    -80.9 1.102e+04 9.530e-10
  5.66687    -79.1 1.064e+04 7.342e-10
  5.69047    -81.1 1.115e+04 8.921e-10
  5.71209    -80.3 1.073e+04 6.669e-10
  5.72916    -79.7 9.963e+03 3.977e-10
  5.75264    -82.3 1.018e+04 4.131e-10
  5.79145    -84.9 1.055e+04 4.796e-10
  5.81400    -84.4 1.002e+04 3.551e-10
  5.84282    -86.1 1.026e+04 4.597e-10
  5.87629    -86.9 1.047e+04 5.838e-10
  5.89884    -86.7 1.028e+04 5.222e-10
  5.93300    -87.3 1.033e+04 5.583e-10
  5.96113    -88.0 1.047e+04 5.884e-10
  5.98368    -87.9 1.081e+04 6.906e-10
  6.02318    -89.5 1.133e+04 7.833e-10
  6.04587    -91.4 1.266e+04 1.242e-09
  6.05705    -91.7 1.268e+04 1.195e-09
  6.07692    -93.0 1.323e+04 1.726e-09
  6.08819    -93.2 1.306e+04 1.516e-09
  6.10190    -93.8 1.332e+04 1.989e-09
  6.11934    -94.1 1.358e+04 2.597e-09
  6.12822    -94.4 1.354e+04 1.688e-09
  6.13332    -94.7 1.350e+04 1.328e-09
  6.14699    -95.6 1.385e+04 1.435e-09
  6.16176    -97.0 1.424e+04 1.559e-09
  6.17303    -98.9 1.242e+04 8.706e-10
  6.19208   -100.9 1.276e+04 1.007e-09
  6.20418   -103.0 1.312e+04 1.272e-09
  6.21545   -103.6 1.212e+04 9.972e-10
  6.23532   -105.1 1.254e+04 1.276e-09
  6.24660   -105.0 1.212e+04 1.151e-09
  6.25972   -106.2 1.253e+04 1.380e-09
  6.27774   -107.5 1.286e+04 1.542e-09
  6.28902   -106.9 1.247e+04 1.397e-09
  6.30481   -108.5 1.274e+04 1.491e-09
  6.32016   -110.4 1.301e+04 1.638e-09
  6.33143   -109.7 1.282e+04 1.520e-09
  6.34357   -111.8 1.317e+04 1.757e-09
  6.35484   -110.8 1.349e+04 1.905e-09
  6.36258   -112.9 1.366e+04 2.209e-09
  6.37385   -112.3 1.381e+04 2.204e-09
  6.39373   -114.5 1.373e+04 2.408e-09
  6.40500   -114.3 1.415e+04 2.585e-09
  6.41753   -116.6 1.411e+04 2.642e-09
  6.43615   -118.6 1.391e+04 2.620e-09
  6.44742   -119.7 1.513e+04 3.305e-09
  6.46262   -121.8 1.474e+04 3.087e-09
  6.47857   -123.5 1.412e+04 2.699e-09
  6.48984   -124.5 1.475e+04 3.639e-09
  6.50772   -125.6 1.389e+04 3.011e-09
  6.52098   -126.5 1.315e+04 2.462e-09
  6.53226   -127.1 1.356e+04 2.980e-09
  6.55213   -127.8 1.289e+04 2.326e-09
  6.56340   -128.5 1.339e+04 2.631e-09
  6.56509   -129.0 1.270e+04 2.023e-09
  6.57636   -128.7 1.303e+04 2.408e-09
  6.59455   -129.0 1.231e+04 1.860e-09
  6.60582   -129.3 1.275e+04 2.107e-09
  6.62044   -129.2 1.208e+04 1.623e-09
  6.63697   -129.1 1.150e+04 1.278e-09
  6.64824   -129.1 1.163e+04 1.255e-09
  6.66553   -128.6 1.112e+04 9.645e-10
  6.67939   -128.1 1.071e+04 7.638e-10
  6.69066   -128.4 1.054e+04 6.525e-10
  6.71053   -128.1 1.026e+04 5.347e-10
  6.73308   -128.1 9.746e+03 4.061e-10
  6.75295   -127.9 9.623e+03 3.705e-10
  6.76432   -127.3 9.549e+03 3.715e-10
  6.78973   -127.2 9.564e+03 3.571e-10
  6.82671   -127.4 9.629e+03 3.620e-10
  6.84926   -127.0 9.758e+03 3.915e-10
  6.87991   -127.6 1.000e+04 4.847e-10
  6.91145   -127.8 1.024e+04 6.377e-10
  6.92263   -127.5 1.029e+04 6.464e-10
  6.93608   -127.9 1.030e+04 6.769e-10
  6.95378   -128.1 1.029e+04 6.817e-10
  6.96505   -127.9 1.030e+04 6.714e-10
  6.98117   -127.9 1.016e+04 6.580e-10
  6.99619   -127.8 9.846e+03 5.700e-10
  7.00061   -127.5 9.810e+03 5.449e-10
  7.00813   -127.2 9.790e+03 5.366e-10
  7.02626   -126.9 9.519e+03 4.330e-10
  7.05859   -126.8 9.353e+03 3.684e-10
  7.08123   -126.5 9.355e+03 3.359e-10
  7.10537   -126.3 9.032e+03 2.600e-10
  7.14352   -125.8 8.781e+03 2.181e-10
  7.16607   -125.7 8.782e+03 2.117e-10
  7.19555   -125.1 8.749e+03 2.077e-10
  7.22836   -124.7 8.910e+03 2.407e-10
  7.25090   -125.1 9.247e+03 2.865e-10
  7.28573   -125.2 9.864e+03 4.453e-10
  7.31320   -125.1 1.035e+04 6.363e-10
  7.33574   -126.0 1.122e+04 1.037e-09
  7.37549   -125.8 1.161e+04 1.306e-09
  7.39794   -125.9 1.236e+04 1.942e-09
  7.40954   -125.9 1.239e+04 1.969e-09
  7.42862   -125.9 1.237e+04 1.964e-09
  7.43680   -126.3 1.220e+04 1.798e-09
  7.44026   -126.3 1.222e+04 1.844e-09
  7.45463   -126.1 1.209e+04 1.766e-09
  7.47141   -125.8 1.193e+04 1.650e-09
  7.48268   -125.6 1.175e+04 1.555e-09
  7.49972   -125.2 1.160e+04 1.435e-09
  7.51382   -124.9 1.139e+04 1.287e-09
  7.52510   -124.6 1.096e+04 1.042e-09
  7.54481   -124.3 1.078e+04 9.370e-10
  7.55624   -124.0 1.058e+04 8.246e-10
  7.56752   -123.7 1.025e+04 6.597e-10
  7.58739   -123.3 1.007e+04 5.738e-10
  7.59866   -123.1 9.875e+03 4.677e-10
  7.61245   -122.8 9.809e+03 4.483e-10
  7.62991   -122.7 9.789e+03 4.365e-10
  7.65255   -122.1 9.470e+03 3.213e-10
  7.69155   -121.4 9.411e+03 3.162e-10
  7.71484   -120.8 9.364e+03 3.076e-10
  7.73739   -120.1 9.139e+03 2.215e-10
  7.77714   -119.7 9.136e+03 2.220e-10
  7.79968   -119.2 9.013e+03 1.663e-10
  7.82682   -119.0 9.015e+03 1.716e-10
  7.86059   -119.0 8.987e+03 1.709e-10
  7.87319   -119.5 9.139e+03 1.908e-10
  7.88452   -119.2 9.172e+03 1.888e-10
  7.91701   -119.2 9.175e+03 1.915e-10
  7.94681   -119.1 9.110e+03 1.873e-10
  7.96936   -118.5 9.153e+03 2.026e-10
  8.00719   -118.0 9.043e+03 1.738e-10
  8.03165   -117.6 8.962e+03 1.434e-10
  8.05420   -116.8 9.032e+03 1.471e-10
  8.09394   -116.3 9.024e+03 1.273e-10
  8.11649   -115.7 9.106e+03 1.379e-10
  8.14246   -115.1 9.135e+03 1.328e-10
  8.17878   -114.5 9.178e+03 1.290e-10
  8.20133   -113.7 9.232e+03 1.601e-10
  8.23264   -112.8 9.234e+03 1.607e-10
  8.26362   -111.9 9.253e+03 1.525e-10
  8.28616   -110.6 9.353e+03 1.938e-10
  8.30363   -109.7 9.342e+03 1.837e-10
  8.32617   -109.6 9.453e+03 2.219e-10
  8.34846   -108.7 9.444e+03 1.843e-10
  8.37100   -107.1 9.540e+03 2.339e-10
  8.41075   -106.4 9.572e+03 2.074e-10
  8.43330   -104.8 9.741e+03 2.415e-10
  8.45810   -104.2 9.815e+03 2.149e-10
  8.49559   -103.7 9.924e+03 1.893e-10
  8.51813   -102.5 1.018e+04 2.114e-10
  8.54828   -102.1 1.027e+04 1.867e-10
  8.58043   -101.7 1.025e+04 1.715e-10
  8.60297   -100.7 1.023e+04 2.691e-10
  8.63846   -100.3 1.019e+04 2.420e-10
  8.66526    -99.8 1.005e+04 2.121e-10
  8.68781    -97.9 1.006e+04 3.331e-10
  8.72412    -97.3 9.943e+03 2.700e-10
  8.74558    -97.5 9.836e+03 2.041e-10
  8.75010    -95.8 9.977e+03 2.664e-10
  8.77374    -95.3 9.900e+03 1.871e-10
  8.81240    -95.2 9.856e+03 1.268e-10
  8.83494    -94.0 1.001e+04 1.697e-10
  8.86392    -94.4 9.975e+03 1.430e-10
  8.89723    -94.7 9.970e+03 1.386e-10
  8.91978    -93.9 1.019e+04 2.114e-10
  8.95410    -94.3 1.030e+04 2.470e-10
  8.98207    -94.5 1.046e+04 3.066e-10
  9.00462    -93.5 1.071e+04 4.156e-10
  9.04428    -93.7 1.080e+04 4.653e-10
  9.07800    -93.2 1.066e+04 4.786e-10
  9.09786    -93.4 1.065e+04 4.865e-10
  9.10913    -93.3 1.074e+04 4.629e-10
  9.12300    -93.5 1.073e+04 4.630e-10
  9.14028    -93.8 1.067e+04 4.568e-10
  9.15155    -93.8 1.063e+04 4.060e-10
  9.16697    -94.0 1.055e+04 3.961e-10
  9.18961    -94.6 1.044e+04 2.470e-10
  9.21404    -94.7 1.026e+04 2.681e-10
  9.23649    -95.1 1.042e+04 3.166e-10
  9.25626    -95.1 1.047e+04 3.434e-10
  9.26754    -95.4 1.063e+04 4.191e-10
  9.28082    -95.8 1.088e+04 4.776e-10
