# Columns:
#   distance along LOS (in CHIMPs)
#   peculiar velocity  (in km/s)
#   temperature (K)
#   HI number density
# pos=(124.428,107.797,140.037), angles=(2.91586,5.05657)
  0.00316   -162.3 8.001e+03 1.460e-10
  0.02070   -160.4 7.859e+03 1.289e-10
  0.04074   -160.0 7.937e+03 1.345e-10
  0.06644   -158.2 7.918e+03 1.311e-10
  0.10652   -156.5 7.942e+03 1.315e-10
  0.13776   -155.0 8.100e+03 1.434e-10
  0.15780   -155.4 8.096e+03 1.374e-10
  0.18668   -153.7 8.230e+03 1.580e-10
  0.21360   -151.8 8.332e+03 1.771e-10
  0.23364   -152.4 8.568e+03 2.184e-10
  0.26684   -150.3 8.553e+03 2.180e-10
  0.30691   -148.1 8.440e+03 1.958e-10
  0.34699   -145.9 8.324e+03 1.646e-10
  0.38646   -143.7 8.202e+03 1.335e-10
  0.40650   -144.0 8.163e+03 1.270e-10
  0.42715   -141.8 8.094e+03 1.073e-10
  0.46723   -139.7 8.075e+03 9.623e-11
  0.50731   -137.5 8.096e+03 9.207e-11
  0.54739   -135.4 8.107e+03 9.150e-11
  0.57935   -133.6 8.258e+03 9.568e-11
  0.59939   -134.7 8.823e+03 1.682e-10
  0.62755   -133.0 9.213e+03 2.507e-10
  0.65688   -131.2 9.554e+03 3.598e-10
  0.67692   -131.5 9.577e+03 3.716e-10
  0.70771   -129.8 9.752e+03 4.463e-10
  0.74779   -128.3 9.789e+03 4.678e-10
  0.77225   -126.7 9.743e+03 4.632e-10
  0.79229   -127.1 9.619e+03 4.392e-10
  0.82795   -125.2 9.314e+03 3.446e-10
  0.86802   -123.3 9.020e+03 2.590e-10
  0.90810   -121.6 8.798e+03 2.002e-10
  0.94511   -119.7 8.632e+03 1.628e-10
  0.96515   -119.9 8.462e+03 1.297e-10
  0.98826   -117.8 8.372e+03 1.171e-10
  1.02834   -115.5 8.303e+03 1.086e-10
  1.06842   -113.1 8.248e+03 1.021e-10
  1.10850   -110.6 8.217e+03 9.772e-11
  1.13801   -108.0 8.215e+03 9.605e-11
  1.15805   -107.8 8.303e+03 1.030e-10
  1.17601   -105.4 8.318e+03 1.031e-10
  1.19605   -105.3 8.330e+03 1.052e-10
  1.22874   -103.1 8.452e+03 1.077e-10
  1.26882   -101.2 8.738e+03 1.334e-10
  1.30890    -99.3 9.087e+03 1.970e-10
  1.33091    -97.2 9.514e+03 3.195e-10
  1.35095    -98.0 1.054e+04 7.548e-10
  1.38906    -95.7 1.089e+04 9.871e-10
  1.42913    -93.6 1.109e+04 1.106e-09
  1.46921    -91.5 1.113e+04 1.124e-09
  1.50377    -89.5 1.101e+04 1.011e-09
  1.52381    -91.0 1.056e+04 7.692e-10
  1.54937    -89.3 1.017e+04 5.887e-10
  1.58945    -87.6 9.798e+03 4.583e-10
  1.62953    -86.0 9.557e+03 3.710e-10
  1.66961    -84.4 9.531e+03 3.209e-10
  1.69514    -83.3 9.578e+03 3.069e-10
  1.70216    -84.1 9.695e+03 3.513e-10
  1.71671    -87.8 9.950e+03 3.622e-10
  1.74977    -88.0 1.024e+04 5.240e-10
  1.78985    -88.4 1.081e+04 8.163e-10
  1.82993    -88.7 1.157e+04 1.258e-09
  1.86953    -89.3 1.241e+04 1.744e-09
  1.88957    -90.7 1.166e+04 1.102e-09
  1.91009    -92.3 1.182e+04 1.141e-09
  1.95017    -93.7 1.175e+04 1.128e-09
  1.99024    -94.4 1.148e+04 1.045e-09
  2.03032    -94.5 1.118e+04 9.396e-10
  2.06243    -93.9 1.081e+04 7.740e-10
  2.08247    -93.4 1.103e+04 8.941e-10
  2.11048    -92.1 1.072e+04 7.938e-10
  2.15056    -90.2 1.033e+04 6.172e-10
  2.19064    -88.0 9.963e+03 4.535e-10
  2.21427    -85.5 9.669e+03 3.343e-10
  2.23431    -85.4 9.573e+03 3.335e-10
  2.25533    -82.8 9.434e+03 2.627e-10
  2.27537    -82.3 9.258e+03 2.565e-10
  2.31088    -79.8 9.134e+03 2.022e-10
  2.35096    -77.1 9.070e+03 1.676e-10
  2.39104    -74.5 9.059e+03 1.462e-10
  2.42818    -71.8 9.073e+03 1.371e-10
  2.44822    -71.5 8.952e+03 1.330e-10
  2.47120    -68.7 8.965e+03 1.317e-10
  2.51128    -66.1 9.123e+03 1.340e-10
  2.55135    -63.3 9.153e+03 1.550e-10
  2.59143    -60.5 9.164e+03 1.870e-10
  2.62108    -57.6 9.202e+03 2.275e-10
  2.64112    -57.3 9.181e+03 1.943e-10
  2.67159    -54.4 9.297e+03 2.395e-10
  2.71167    -51.7 9.448e+03 2.973e-10
  2.73340    -48.9 9.620e+03 3.699e-10
  2.75344    -49.0 9.715e+03 3.932e-10
  2.79183    -46.3 9.868e+03 4.733e-10
  2.81398    -43.6 1.004e+04 5.594e-10
  2.83402    -43.6 1.015e+04 5.281e-10
  2.87199    -40.9 1.033e+04 6.000e-10
  2.91207    -38.3 1.044e+04 6.476e-10
  2.95215    -35.8 1.047e+04 6.732e-10
  2.98684    -33.4 1.049e+04 6.848e-10
  3.00688    -34.0 1.048e+04 3.572e-10
  3.03231    -32.2 1.059e+04 3.615e-10
  3.07238    -30.4 1.059e+04 3.701e-10
  3.11246    -28.5 1.021e+04 3.795e-10
  3.15254    -26.2 9.816e+03 3.463e-10
  3.17974    -23.6 9.328e+03 2.785e-10
  3.19978    -23.8 9.479e+03 2.772e-10
  3.23249    -21.6 9.264e+03 1.869e-10
  3.25253    -21.3 8.913e+03 1.101e-10
  3.27278    -19.4 8.740e+03 9.579e-11
  3.31286    -17.3 8.714e+03 9.473e-11
  3.35260    -15.2 8.728e+03 1.223e-10
  3.37264    -15.5 8.514e+03 1.398e-10
  3.39302    -12.8 8.533e+03 1.758e-10
  3.43310    -10.2 8.650e+03 2.159e-10
  3.47318     -7.7 8.696e+03 2.497e-10
  3.51326     -5.1 8.735e+03 2.700e-10
  3.54550     -2.8 8.762e+03 2.607e-10
  3.56554     -3.5 8.739e+03 1.902e-10
  3.59342     -2.1 8.647e+03 1.749e-10
  3.63349     -0.4 8.359e+03 1.907e-10
  3.67357      1.6 8.312e+03 2.204e-10
  3.71365      3.9 8.502e+03 2.735e-10
  3.73840      6.2 8.731e+03 3.331e-10
  3.75632      5.9 8.403e+03 2.288e-10
  3.77166      6.1 8.193e+03 1.548e-10
  3.79381      8.0 8.228e+03 1.817e-10
  3.83389     10.2 8.225e+03 2.091e-10
  3.87397     12.5 8.186e+03 2.169e-10
  3.91126     14.9 8.097e+03 2.029e-10
  3.93130     14.6 7.800e+03 1.697e-10
  3.95413     17.0 7.746e+03 1.519e-10
  3.99421     18.8 7.732e+03 1.282e-10
  4.03429     20.3 7.669e+03 1.112e-10
  4.07437     21.6 7.676e+03 1.118e-10
  4.10416     22.6 7.811e+03 1.276e-10
  4.12420     23.1 7.748e+03 1.198e-10
  4.15453     22.9 8.192e+03 1.678e-10
  4.19460     21.7 9.209e+03 3.815e-10
  4.23468     20.6 1.091e+04 1.066e-09
  4.27074     20.2 1.158e+04 1.512e-09
  4.29078     21.4 1.201e+04 1.725e-09
  4.29705     20.8 1.203e+04 1.611e-09
  4.30698     20.5 1.222e+04 1.849e-09
  4.32467     19.3 1.249e+04 1.631e-09
  4.34471     16.4 1.251e+04 1.407e-09
  4.36475     13.9 1.180e+04 1.138e-09
  4.38329     11.4 1.164e+04 1.135e-09
  4.39331      9.2 1.237e+04 1.464e-09
  4.40483      7.7 1.175e+04 1.427e-09
  4.42487      7.4 1.168e+04 1.485e-09
  4.44490      7.6 1.151e+04 1.450e-09
  4.46494      8.3 1.131e+04 1.332e-09
  4.47974      8.7 1.120e+04 1.133e-09
  4.48976      6.7 1.124e+04 9.542e-10
  4.50502      6.1 1.102e+04 7.527e-10
  4.52506      5.6 1.056e+04 6.047e-10
  4.54013      5.3 1.014e+04 4.961e-10
  4.55015      5.3 1.025e+04 5.202e-10
  4.56514      5.4 9.802e+03 4.382e-10
  4.59530      6.1 9.591e+03 3.526e-10
  4.63548      7.6 9.116e+03 2.488e-10
  4.66281      8.4 8.803e+03 1.753e-10
  4.68285      6.6 8.579e+03 1.395e-10
  4.71564      7.3 8.465e+03 1.279e-10
  4.75571      7.9 8.443e+03 1.308e-10
  4.78987      8.2 8.481e+03 1.493e-10
  4.80991      8.1 9.000e+03 2.390e-10
  4.83567      8.6 9.114e+03 2.975e-10
  4.85571      7.6 9.511e+03 4.068e-10
  4.87595      7.5 9.576e+03 4.172e-10
  4.90591      7.5 9.591e+03 4.033e-10
  4.92586      6.7 9.940e+03 4.544e-10
  4.94195      5.5 1.030e+04 5.653e-10
  4.95197      4.2 1.045e+04 6.679e-10
  4.96594      3.8 1.055e+04 7.671e-10
  4.98597      3.4 1.075e+04 8.693e-10
  5.00601      3.4 1.082e+04 9.143e-10
  5.02605      3.0 1.087e+04 8.312e-10
  5.03840      2.9 1.075e+04 7.698e-10
  5.04851      1.3 1.080e+04 7.353e-10
  5.07635      0.5 1.035e+04 5.429e-10
  5.11643     -0.2 9.645e+03 3.482e-10
  5.15651     -0.8 9.247e+03 2.444e-10
  5.19659     -1.1 8.931e+03 1.879e-10
  5.22147     -1.4 8.888e+03 1.891e-10
  5.24151     -4.8 9.827e+03 3.227e-10
  5.27675     -8.1 1.128e+04 7.182e-10
  5.30671     -8.6 1.151e+04 1.041e-09
  5.31772     -9.6 1.216e+04 1.502e-09
  5.31992    -11.1 1.284e+04 1.991e-09
  5.32885    -11.4 1.274e+04 1.851e-09
  5.34669    -12.0 1.325e+04 2.269e-09
  5.36673    -12.8 1.369e+04 2.630e-09
  5.38677    -13.6 1.383e+04 2.760e-09
  5.40415    -14.5 1.398e+04 2.430e-09
  5.41417    -16.9 1.442e+04 2.118e-09
  5.42685    -19.5 1.427e+04 1.683e-09
  5.44689    -23.3 1.412e+04 1.443e-09
  5.46693    -31.3 1.775e+04 2.116e-09
  5.48697    -39.9 2.052e+04 6.430e-09
  5.50060    -43.6 2.011e+04 1.715e-08
  5.50556    -44.8 2.052e+04 2.267e-08
  5.51192    -45.2 2.010e+04 3.294e-08
  5.52194    -44.7 1.985e+04 4.029e-08
  5.53196    -43.6 1.971e+04 4.093e-08
  5.54198    -42.0 1.954e+04 3.502e-08
  5.54873    -40.7 1.926e+04 2.360e-08
  5.55374    -40.6 1.895e+04 2.164e-08
  5.56708    -40.4 1.906e+04 1.326e-08
  5.57839    -43.5 1.820e+04 3.797e-09
  5.58828    -47.5 1.666e+04 1.842e-09
  5.59705    -49.6 1.553e+04 1.096e-09
  5.60720    -56.9 1.132e+04 3.177e-10
  5.62724    -58.4 1.012e+04 2.323e-10
  5.64728    -57.8 9.991e+03 2.153e-10
  5.67744    -57.1 9.931e+03 2.055e-10
  5.71762    -56.1 9.966e+03 2.181e-10
  5.75770    -55.4 1.004e+04 2.491e-10
  5.78013    -54.9 1.017e+04 3.118e-10
  5.80017    -55.9 9.912e+03 2.348e-10
  5.82813    -55.2 1.003e+04 3.000e-10
  5.84817    -54.9 1.013e+04 3.242e-10
  5.87793    -54.0 1.027e+04 3.867e-10
  5.91801    -53.3 1.035e+04 4.105e-10
  5.95299    -52.9 1.036e+04 4.129e-10
  5.97303    -53.7 1.016e+04 3.343e-10
  5.99817    -53.2 1.012e+04 3.173e-10
  6.03825    -52.4 1.007e+04 2.890e-10
  6.07833    -51.3 9.990e+03 2.409e-10
  6.11841    -50.0 9.904e+03 1.796e-10
  6.14589    -49.0 9.783e+03 1.317e-10
  6.16592    -49.5 9.771e+03 1.307e-10
  6.19857    -48.5 9.690e+03 1.123e-10
  6.23865    -47.4 9.671e+03 1.094e-10
  6.27873    -46.3 9.736e+03 1.225e-10
  6.31874    -45.2 9.750e+03 1.650e-10
  6.34720    -43.5 9.507e+03 1.982e-10
  6.36730    -42.8 9.308e+03 1.509e-10
  6.39896    -41.3 9.394e+03 1.782e-10
  6.43904    -40.9 9.834e+03 2.394e-10
  6.47912    -43.2 1.117e+04 4.927e-10
  6.51164    -46.1 1.236e+04 1.419e-09
  6.53168    -46.6 1.237e+04 1.491e-09
  6.54916    -47.2 1.314e+04 3.057e-09
  6.56911    -46.0 1.330e+04 3.492e-09
  6.58915    -44.7 1.330e+04 3.305e-09
  6.60663    -44.0 1.285e+04 1.838e-09
  6.61536    -43.1 1.254e+04 1.338e-09
  6.61792    -43.4 1.247e+04 1.300e-09
  6.62923    -48.3 1.153e+04 5.495e-10
  6.64926    -52.1 1.015e+04 3.526e-10
  6.66930    -52.9 9.873e+03 3.236e-10
  6.68934    -53.1 9.786e+03 3.367e-10
  6.70444    -53.1 9.845e+03 3.778e-10
  6.72458    -53.2 9.769e+03 3.154e-10
  6.75968    -53.2 9.735e+03 3.128e-10
  6.79976    -53.7 9.780e+03 3.183e-10
  6.83984    -55.2 1.026e+04 4.340e-10
  6.86639    -56.5 1.089e+04 6.833e-10
  6.88391    -55.0 1.126e+04 8.435e-10
  6.89744    -55.7 1.110e+04 7.315e-10
  6.92000    -56.5 1.145e+04 9.550e-10
  6.96007    -57.3 1.150e+04 9.965e-10
  7.00015    -58.1 1.095e+04 7.399e-10
  7.04023    -58.5 1.019e+04 4.301e-10
  7.07030    -58.7 9.599e+03 2.628e-10
  7.09034    -58.7 9.619e+03 2.595e-10
  7.12039    -58.2 9.221e+03 1.758e-10
  7.16047    -57.1 8.971e+03 1.291e-10
  7.20055    -56.0 8.820e+03 1.008e-10
  7.24063    -54.7 8.716e+03 8.265e-11
  7.26320    -53.3 8.600e+03 7.301e-11
  7.28324    -53.2 8.629e+03 7.272e-11
  7.32079    -51.6 8.532e+03 6.723e-11
  7.36087    -50.0 8.466e+03 6.309e-11
  7.38552    -48.4 8.477e+03 5.993e-11
  7.40556    -48.3 8.500e+03 6.130e-11
  7.43606    -46.7 8.530e+03 6.048e-11
  7.45610    -46.5 8.535e+03 6.028e-11
  7.48111    -45.0 8.726e+03 6.115e-11
  7.52118    -43.5 8.783e+03 7.359e-11
  7.56126    -41.8 8.818e+03 9.464e-11
  7.60134    -40.0 8.960e+03 1.178e-10
  7.62896    -39.2 9.282e+03 1.422e-10
  7.64900    -40.0 9.593e+03 1.695e-10
  7.67138    -40.3 1.013e+04 2.199e-10
  7.69133    -42.7 1.118e+04 3.182e-10
  7.71137    -45.1 1.205e+04 5.998e-10
  7.72521    -46.4 1.231e+04 1.041e-09
  7.73523    -46.7 1.235e+04 1.164e-09
  7.75144    -45.9 1.235e+04 1.537e-09
  7.77148    -44.7 1.235e+04 1.679e-09
  7.79152    -44.0 1.237e+04 1.651e-09
  7.81156    -43.9 1.206e+04 1.326e-09
  7.83160    -44.9 1.147e+04 9.695e-10
  7.85164    -45.2 1.106e+04 7.899e-10
  7.87168    -45.1 1.073e+04 6.711e-10
  7.89172    -44.9 1.046e+04 5.893e-10
  7.90445    -44.7 1.034e+04 5.511e-10
  7.91080    -45.6 1.095e+04 6.655e-10
  7.91811    -45.6 1.066e+04 6.195e-10
  7.93180    -46.5 1.176e+04 7.518e-10
  7.95184    -48.9 1.397e+04 1.204e-09
  7.97188    -50.8 1.609e+04 2.377e-09
  7.99192    -51.6 1.691e+04 4.473e-09
  8.00454    -50.8 1.675e+04 6.934e-09
  8.01456    -50.6 1.644e+04 5.237e-09
  8.03200    -49.4 1.635e+04 7.371e-09
  8.05204    -48.5 1.617e+04 8.609e-09
  8.07208    -48.0 1.575e+04 8.556e-09
  8.09097    -47.4 1.546e+04 8.734e-09
  8.10099    -47.1 1.521e+04 7.621e-09
  8.11216    -46.5 1.494e+04 7.313e-09
  8.13220    -45.9 1.491e+04 5.996e-09
  8.15224    -45.8 1.554e+04 4.472e-09
  8.16401    -46.5 1.619e+04 3.102e-09
  8.17403    -50.2 1.491e+04 1.418e-09
  8.18742    -52.2 1.254e+04 1.055e-09
  8.19744    -51.1 1.292e+04 1.179e-09
  8.21236    -52.0 1.188e+04 1.054e-09
  8.23240    -51.8 1.151e+04 1.111e-09
  8.25244    -51.3 1.172e+04 1.188e-09
  8.27248    -50.8 1.184e+04 1.223e-09
  8.28387    -50.4 1.175e+04 1.146e-09
  8.29389    -49.7 1.203e+04 1.372e-09
  8.31255    -49.3 1.166e+04 1.090e-09
  8.33259    -49.4 1.090e+04 7.436e-10
  8.35263    -50.1 1.001e+04 4.849e-10
  8.37030    -50.6 9.423e+03 3.433e-10
  8.38032    -49.9 9.498e+03 3.466e-10
  8.39271    -50.4 9.106e+03 2.583e-10
  8.41275    -50.7 8.828e+03 2.096e-10
  8.42368    -50.5 8.592e+03 1.754e-10
  8.44381    -50.6 8.688e+03 1.774e-10
  8.48309    -50.4 8.363e+03 1.472e-10
  8.52317    -49.4 8.278e+03 1.437e-10
  8.55337    -48.2 8.254e+03 1.528e-10
  8.57341    -47.1 8.236e+03 1.454e-10
  8.60332    -45.7 8.232e+03 1.564e-10
  8.64340    -44.1 8.243e+03 1.632e-10
  8.68348    -42.7 8.267e+03 1.682e-10
  8.72356    -41.3 8.287e+03 1.760e-10
  8.74627    -39.6 8.284e+03 1.887e-10
  8.76631    -38.4 8.257e+03 1.830e-10
  8.80372    -36.5 8.262e+03 1.925e-10
  8.84380    -34.3 8.177e+03 1.861e-10
  8.88388    -32.1 8.057e+03 1.503e-10
  8.91913    -30.4 7.998e+03 1.122e-10
  8.93807    -29.1 8.106e+03 1.329e-10
  8.94290    -28.8 8.109e+03 1.458e-10
  8.96404    -27.5 8.077e+03 1.132e-10
  9.00412    -26.4 8.016e+03 1.054e-10
  9.04420    -25.0 8.063e+03 1.207e-10
  9.08428    -23.6 8.435e+03 1.584e-10
  9.11203    -24.4 9.480e+03 2.471e-10
  9.13207    -23.3 9.690e+03 2.506e-10
  9.16443    -27.4 1.176e+04 7.365e-10
  9.20451    -27.7 1.225e+04 1.936e-09
  9.24459    -24.3 1.239e+04 2.130e-09
  9.28467    -26.2 1.243e+04 7.470e-10
  9.30483    -34.2 1.160e+04 4.974e-10
  9.31475    -34.3 1.192e+04 6.160e-10
  9.33458    -37.4 1.191e+04 7.100e-10
  9.36473    -40.2 1.176e+04 1.191e-09
  9.39126    -40.2 1.232e+04 1.911e-09
  9.40118    -40.2 1.259e+04 2.012e-09
  9.41473    -39.9 1.302e+04 2.098e-09
  9.43477    -40.0 1.333e+04 2.036e-09
  9.45182    -42.0 1.315e+04 1.575e-09
  9.46184    -43.1 1.173e+04 8.844e-10
  9.47485    -45.3 1.094e+04 7.166e-10
  9.48761    -46.0 1.076e+04 6.759e-10
  9.49763    -46.4 1.089e+04 7.854e-10
  9.51493    -46.5 1.084e+04 7.534e-10
  9.53497    -46.4 1.072e+04 7.079e-10
  9.55501    -46.1 1.051e+04 6.546e-10
  9.57404    -45.5 1.029e+04 6.093e-10
  9.58406    -45.9 1.034e+04 6.359e-10
  9.59509    -45.1 1.022e+04 6.041e-10
  9.61513    -44.1 1.017e+04 5.786e-10
  9.64529    -42.7 1.014e+04 5.510e-10
  9.67069    -40.4 9.920e+03 5.217e-10
  9.69073    -41.1 1.003e+04 5.448e-10
  9.72554    -38.4 9.894e+03 5.292e-10
  9.76562    -35.6 9.880e+03 5.376e-10
  9.80570    -32.9 1.002e+04 5.526e-10
  9.84355    -30.3 1.018e+04 5.592e-10
  9.86359    -30.4 1.016e+04 5.656e-10
  9.88586    -27.9 1.026e+04 5.602e-10
  9.92594    -25.5 1.022e+04 5.400e-10
  9.96112    -23.0 1.007e+04 5.059e-10
  9.98116    -22.3 1.029e+04 5.722e-10
 10.00610    -20.0 1.021e+04 5.595e-10
 10.03645    -17.3 9.968e+03 5.107e-10
 10.05648    -16.7 9.801e+03 4.170e-10
 10.08626    -14.1 9.424e+03 3.605e-10
 10.12634    -11.0 8.919e+03 2.763e-10
 10.16642     -7.8 8.634e+03 1.848e-10
 10.20650     -5.2 8.649e+03 1.164e-10
 10.22934     -3.3 8.633e+03 8.604e-11
 10.24938     -2.5 8.614e+03 9.024e-11
 10.28665     -0.1 8.537e+03 8.599e-11
 10.32673      2.4 8.542e+03 9.049e-11
 10.36681      4.9 8.632e+03 1.054e-10
 10.40220      7.3 8.782e+03 1.326e-10
 10.42224      8.1 8.766e+03 1.257e-10
 10.44697     10.2 8.932e+03 1.725e-10
 10.48025     12.3 9.275e+03 2.755e-10
 10.50029     12.4 9.452e+03 2.585e-10
 10.52713     14.0 1.035e+04 5.283e-10
 10.56721     15.9 1.118e+04 9.664e-10
 10.59510     17.6 1.132e+04 1.079e-09
 10.61514     18.7 1.108e+04 9.530e-10
 10.64737     20.4 1.109e+04 1.004e-09
 10.68745     22.3 1.077e+04 8.790e-10
 10.72753     24.1 1.026e+04 5.823e-10
 10.76761     25.4 9.594e+03 3.174e-10
 10.78800     26.1 8.671e+03 1.792e-10
 10.80804     27.9 9.785e+03 4.199e-10
 10.84776     28.6 8.951e+03 2.466e-10
 10.88784     29.4 8.255e+03 1.924e-10
 10.92792     30.9 8.148e+03 1.962e-10
 10.96086     32.9 8.226e+03 2.200e-10
 10.98090     33.3 8.358e+03 2.573e-10
 10.99938     35.4 8.314e+03 2.695e-10
 11.01942     35.4 8.523e+03 3.091e-10
 11.04816     37.7 8.506e+03 3.129e-10
 11.08824     39.9 8.462e+03 3.084e-10
 11.12832     42.2 8.397e+03 2.968e-10
 11.15376     44.5 8.341e+03 2.842e-10
 11.17380     45.1 8.337e+03 2.876e-10
 11.20848     47.5 8.355e+03 2.861e-10
 11.24856     49.9 8.445e+03 2.937e-10
 11.28864     52.1 8.646e+03 3.123e-10
 11.32662     54.2 8.990e+03 3.435e-10
 11.34666     54.9 9.246e+03 4.202e-10
 11.35868     55.6 9.507e+03 4.564e-10
 11.37862     56.1 9.790e+03 5.067e-10
 11.39866     56.8 1.007e+04 5.710e-10
 11.41870     57.5 1.029e+04 6.278e-10
 11.43289     58.1 1.049e+04 6.637e-10
 11.44291     58.3 1.069e+04 7.544e-10
 11.45878     58.7 1.067e+04 7.495e-10
 11.47882     59.2 1.058e+04 7.229e-10
 11.49886     59.8 1.040e+04 6.735e-10
 11.51831     60.4 1.020e+04 6.144e-10
 11.52833     60.5 1.043e+04 7.807e-10
 11.52934     61.3 1.021e+04 6.706e-10
 11.53936     61.2 1.019e+04 6.849e-10
 11.55898     61.8 9.981e+03 5.709e-10
 11.57902     62.4 9.807e+03 4.806e-10
 11.59906     62.9 9.696e+03 4.118e-10
 11.61577     63.2 9.628e+03 3.572e-10
 11.62579     62.5 9.711e+03 3.631e-10
 11.64925     63.6 9.651e+03 3.439e-10
 11.68943     65.0 9.624e+03 3.462e-10
 11.71242     66.5 9.600e+03 3.537e-10
 11.73246     66.2 9.460e+03 3.341e-10
 11.76959     68.0 9.296e+03 3.154e-10
 11.80967     69.8 9.038e+03 2.902e-10
 11.84975     71.5 8.795e+03 2.757e-10
 11.88528     73.1 8.688e+03 2.758e-10
 11.90532     73.6 8.263e+03 2.049e-10
 11.92990     75.4 8.260e+03 2.167e-10
 11.96998     77.2 8.343e+03 2.340e-10
 12.01006     78.9 8.478e+03 2.451e-10
 12.03763     80.4 8.553e+03 2.427e-10
 12.05767     81.2 8.480e+03 2.249e-10
 12.07817     82.6 8.542e+03 2.216e-10
 12.09821     83.7 8.617e+03 2.506e-10
 12.13030     84.9 8.731e+03 2.513e-10
 12.17038     85.9 8.763e+03 2.510e-10
 12.21046     86.8 8.801e+03 2.532e-10
 12.25054     87.8 8.894e+03 2.712e-10
 12.27107     88.8 9.085e+03 3.135e-10
 12.29111     89.9 9.014e+03 2.997e-10
 12.33070     90.8 9.177e+03 3.424e-10
 12.37078     91.6 9.378e+03 4.037e-10
 12.40074     92.2 9.450e+03 4.415e-10
 12.42068     92.8 9.529e+03 4.755e-10
 12.44072     93.4 9.674e+03 5.284e-10
 12.45376     93.9 9.863e+03 5.841e-10
 12.46378     94.2 9.826e+03 5.542e-10
 12.48080     94.6 1.002e+04 6.090e-10
 12.50084     94.9 1.020e+04 6.564e-10
 12.52088     95.0 1.039e+04 7.092e-10
 12.54019     95.0 1.057e+04 7.716e-10
 12.55021     95.8 1.049e+04 7.530e-10
 12.55657     95.8 1.070e+04 8.362e-10
 12.56659     95.5 1.080e+04 8.183e-10
 12.58100     95.5 1.098e+04 9.040e-10
 12.60104     95.2 1.122e+04 1.024e-09
 12.62108     94.8 1.155e+04 1.196e-09
 12.63664     94.3 1.195e+04 1.427e-09
 12.64666     95.3 1.195e+04 1.435e-09
 12.66116     94.7 1.235e+04 1.702e-09
 12.68120     94.0 1.265e+04 1.836e-09
 12.70124     93.1 1.267e+04 1.810e-09
 12.72128     92.2 1.260e+04 1.642e-09
 12.73309     91.3 1.237e+04 1.261e-09
 12.74311     92.9 1.255e+04 1.547e-09
 12.76135     91.8 1.214e+04 1.071e-09
 12.78139     90.3 1.212e+04 9.114e-10
 12.80143     86.4 1.283e+04 1.044e-09
 12.81613     78.5 1.574e+04 2.255e-09
 12.82419     76.7 1.598e+04 2.196e-09
 12.82954     79.6 1.574e+04 1.999e-09
 12.84151     73.1 1.814e+04 7.554e-09
 12.86155     70.3 1.831e+04 1.401e-08
