# Columns:
#   distance along LOS (in CHIMPs)
#   peculiar velocity  (in km/s)
#   temperature (K)
#   HI number density
# pos=(37.9978,73.9075,230.782), angles=(1.51523,4.80112)
  0.00208     91.1 1.559e+04 2.594e-09
  0.00473     91.0 1.609e+04 3.225e-09
  0.01512     92.2 1.555e+04 2.548e-09
  0.03476     93.5 1.501e+04 2.059e-09
  0.05440     94.9 1.453e+04 1.718e-09
  0.07404     96.4 1.414e+04 1.491e-09
  0.09368     97.8 1.386e+04 1.341e-09
  0.11331     99.2 1.364e+04 1.239e-09
  0.13295    100.6 1.349e+04 1.177e-09
  0.15259    102.0 1.342e+04 1.160e-09
  0.17223    103.3 1.340e+04 1.173e-09
  0.19187    104.5 1.341e+04 1.214e-09
  0.21151    105.6 1.345e+04 1.291e-09
  0.22312    106.9 1.353e+04 1.407e-09
  0.23294    106.3 1.451e+04 2.163e-09
  0.25079    107.6 1.449e+04 2.357e-09
  0.26174    109.0 1.436e+04 2.469e-09
  0.27156    109.0 1.425e+04 2.003e-09
  0.29006    110.6 1.417e+04 2.053e-09
  0.30970    112.2 1.405e+04 2.032e-09
  0.32934    113.9 1.382e+04 1.916e-09
  0.34898    115.5 1.351e+04 1.703e-09
  0.36862    117.1 1.312e+04 1.430e-09
  0.38826    118.6 1.274e+04 1.150e-09
  0.40789    120.1 1.238e+04 9.161e-10
  0.42753    121.3 1.208e+04 7.492e-10
  0.44151    122.5 1.181e+04 6.433e-10
  0.45133    121.5 1.184e+04 6.496e-10
  0.46681    122.6 1.154e+04 5.923e-10
  0.48645    124.0 1.130e+04 5.682e-10
  0.50609    125.4 1.120e+04 5.681e-10
  0.52573    126.9 1.116e+04 5.769e-10
  0.54537    128.4 1.111e+04 5.968e-10
  0.56500    130.1 1.111e+04 6.265e-10
  0.58464    131.8 1.118e+04 6.645e-10
  0.60428    133.4 1.130e+04 7.067e-10
  0.61432    134.9 1.147e+04 7.390e-10
  0.62414    134.7 1.173e+04 7.358e-10
  0.64356    135.8 1.209e+04 7.432e-10
  0.65990    135.8 1.235e+04 6.234e-10
  0.66972    135.2 1.191e+04 6.285e-10
  0.68284    136.1 1.183e+04 6.441e-10
  0.70248    137.7 1.131e+04 7.546e-10
  0.72211    138.8 1.104e+04 7.628e-10
  0.74175    139.6 1.080e+04 7.301e-10
  0.76139    140.4 1.063e+04 7.281e-10
  0.78103    141.9 1.067e+04 7.326e-10
  0.80067    143.0 1.043e+04 7.149e-10
  0.82031    144.0 1.006e+04 6.626e-10
  0.83995    145.7 1.005e+04 6.271e-10
  0.85958    147.1 1.028e+04 5.151e-10
  0.87829    149.1 1.017e+04 4.846e-10
  0.88820    148.8 1.073e+04 5.161e-10
  0.90888    152.0 1.051e+04 4.345e-10
  0.94815    155.2 1.021e+04 3.694e-10
  0.98743    158.2 1.003e+04 3.325e-10
  1.02671    161.5 9.920e+03 3.240e-10
  1.06599    164.9 9.828e+03 3.231e-10
  1.10526    168.5 9.818e+03 3.271e-10
  1.14454    172.8 1.017e+04 3.501e-10
  1.17390    173.9 1.052e+04 3.701e-10
  1.19344    175.2 1.056e+04 3.817e-10
  1.21308    177.0 1.052e+04 3.879e-10
  1.23272    179.0 1.046e+04 3.912e-10
  1.25236    181.1 1.039e+04 3.935e-10
  1.27200    183.1 1.035e+04 3.951e-10
  1.29164    185.1 1.034e+04 3.957e-10
  1.30966    187.0 1.034e+04 3.972e-10
  1.31948    187.3 1.033e+04 3.862e-10
  1.32488    189.3 1.035e+04 3.912e-10
  1.33470    189.4 1.030e+04 3.910e-10
  1.35055    191.3 1.033e+04 4.019e-10
  1.37019    193.2 1.037e+04 4.167e-10
  1.38983    195.1 1.042e+04 4.354e-10
  1.40947    197.0 1.049e+04 4.590e-10
  1.42911    198.9 1.059e+04 4.887e-10
  1.44875    200.6 1.073e+04 5.254e-10
  1.46838    202.3 1.091e+04 5.714e-10
  1.48802    203.8 1.112e+04 6.309e-10
  1.50766    205.1 1.139e+04 7.079e-10
  1.52730    206.3 1.169e+04 8.056e-10
  1.54327    207.3 1.202e+04 9.264e-10
  1.55309    207.2 1.228e+04 1.041e-09
  1.56658    208.1 1.272e+04 1.240e-09
  1.58622    209.0 1.315e+04 1.473e-09
  1.60586    209.9 1.355e+04 1.723e-09
  1.62549    210.8 1.389e+04 1.952e-09
  1.64513    211.6 1.410e+04 2.052e-09
  1.66224    212.3 1.411e+04 2.039e-09
  1.67206    212.6 1.391e+04 1.892e-09
  1.68441    213.2 1.388e+04 1.853e-09
  1.70405    213.8 1.374e+04 1.690e-09
  1.72369    214.5 1.342e+04 1.454e-09
  1.74333    215.2 1.303e+04 1.233e-09
  1.76166    215.8 1.269e+04 1.034e-09
  1.77148    215.6 1.293e+04 1.071e-09
  1.78260    216.0 1.261e+04 8.875e-10
  1.80224    216.3 1.246e+04 8.293e-10
  1.82188    216.9 1.249e+04 8.286e-10
  1.84152    217.6 1.257e+04 8.315e-10
  1.86116    218.3 1.270e+04 8.523e-10
  1.88080    219.1 1.286e+04 9.146e-10
  1.90044    219.8 1.303e+04 1.016e-09
  1.92007    220.5 1.316e+04 1.149e-09
  1.93971    221.0 1.316e+04 1.313e-09
  1.95935    221.0 1.352e+04 1.596e-09
  1.97899    220.0 1.528e+04 2.253e-09
  1.98987    217.6 1.723e+04 3.045e-09
  1.99473    216.3 1.772e+04 3.188e-09
  2.00344    215.9 1.820e+04 3.621e-09
  2.01326    214.6 1.903e+04 4.493e-09
  2.01964    212.0 2.056e+04 6.279e-09
  2.02455    215.1 1.990e+04 5.074e-09
  2.03290    211.0 2.207e+04 7.965e-09
  2.04272    206.2 2.378e+04 1.406e-08
  2.05254    202.0 2.454e+04 2.470e-08
  2.06236    199.0 2.470e+04 3.744e-08
  2.07218    196.6 2.455e+04 4.182e-08
  2.08200    194.9 2.450e+04 4.092e-08
  2.09182    193.9 2.438e+04 3.557e-08
  2.09897    193.4 2.421e+04 2.635e-08
  2.10388    191.5 2.438e+04 2.413e-08
  2.11641    191.6 2.404e+04 1.220e-08
  2.13610    186.9 2.351e+04 3.174e-09
  2.15574    179.1 1.808e+04 1.326e-09
  2.17538    172.6 1.534e+04 1.308e-09
  2.19502    169.3 1.533e+04 1.356e-09
  2.20826    167.2 1.602e+04 1.678e-09
  2.21808    165.1 1.679e+04 2.173e-09
  2.23429    162.9 1.789e+04 3.217e-09
  2.25393    160.7 1.878e+04 4.530e-09
  2.27357    158.4 1.963e+04 5.579e-09
  2.29321    155.3 2.049e+04 5.817e-09
  2.31285    151.1 2.080e+04 5.599e-09
  2.33249    145.8 2.103e+04 4.751e-09
  2.35213    139.7 2.049e+04 3.836e-09
  2.36741    133.5 1.951e+04 3.175e-09
  2.37722    137.0 2.015e+04 3.684e-09
  2.39140    131.5 1.949e+04 3.197e-09
  2.41104    126.7 1.875e+04 2.688e-09
  2.42665    122.3 1.794e+04 2.139e-09
  2.43647    120.3 1.721e+04 1.754e-09
  2.45032    116.0 1.646e+04 1.305e-09
  2.46996    110.7 1.650e+04 1.078e-09
  2.48960    103.5 1.682e+04 1.114e-09
  2.50924     92.8 1.826e+04 1.430e-09
  2.52887     82.0 1.970e+04 2.527e-09
  2.54851     74.4 1.976e+04 3.488e-09
  2.56815     69.0 1.956e+04 3.425e-09
  2.58779     64.0 1.916e+04 2.810e-09
  2.60743     57.7 1.865e+04 1.688e-09
  2.62707     49.5 1.726e+04 7.933e-10
  2.64504     40.9 1.451e+04 3.416e-10
  2.65486     40.1 1.422e+04 3.505e-10
  2.66635     33.4 1.394e+04 3.257e-10
  2.68598     26.4 1.497e+04 4.140e-10
  2.70562     21.3 1.547e+04 5.895e-10
  2.71999     17.8 1.595e+04 8.643e-10
  2.72981     19.2 1.595e+04 8.927e-10
  2.74490     17.2 1.679e+04 1.269e-09
  2.76454     15.8 1.799e+04 1.701e-09
  2.78418     14.2 2.306e+04 1.589e-09
  2.80382     12.1 3.019e+04 1.288e-09
  2.82345      8.7 2.158e+04 1.458e-09
  2.84309      3.6 2.009e+04 1.612e-09
  2.86273     -0.8 1.974e+04 1.755e-09
  2.87324     -2.7 1.990e+04 2.017e-09
  2.88306      0.0 1.880e+04 1.521e-09
  2.90201     -1.1 1.895e+04 1.493e-09
  2.92165     -2.3 1.879e+04 1.315e-09
  2.94129     -4.3 1.826e+04 1.064e-09
  2.96093     -6.5 1.746e+04 8.616e-10
  2.98056     -8.4 1.686e+04 7.386e-10
  3.00020     -9.8 1.671e+04 6.973e-10
  3.01984    -11.2 1.675e+04 6.676e-10
  3.03948    -12.6 1.661e+04 6.259e-10
  3.05912    -14.2 1.655e+04 5.889e-10
  3.07257    -16.8 1.743e+04 6.342e-10
  3.08239    -12.3 1.796e+04 7.471e-10
  3.09163    -16.6 2.010e+04 9.258e-10
  3.10145    -15.0 2.037e+04 1.391e-09
  3.11804    -20.6 2.285e+04 2.139e-09
  3.13767    -27.6 2.579e+04 3.621e-09
  3.15235    -36.7 2.590e+04 5.452e-09
  3.16212    -44.5 3.444e+04 7.144e-09
  3.17194    -67.6 7.032e+04 7.979e-09
  3.18176    -90.3 4.792e+04 1.231e-07
  3.19158   -110.6 3.196e+04 7.922e-07
  3.20073   -133.7 2.678e+04 1.025e-06
  3.20564   -116.4 3.136e+04 9.051e-07
  3.21122   -141.2 2.535e+04 8.557e-07
  3.22104   -171.6 2.598e+04 6.299e-08
  3.23086   -198.9 6.050e+04 1.745e-09
  3.24068   -221.3 2.031e+05 1.523e-10
  3.24876   -236.6 3.619e+05 6.539e-11
  3.25367   -244.4 8.856e+05 2.787e-11
  3.26032   -244.0 9.297e+05 2.344e-11
  3.27014   -238.8 9.707e+05 1.973e-11
  3.27996   -233.2 1.017e+06 1.784e-11
  3.29473   -236.3 1.036e+06 1.652e-11
  3.31002   -225.8 1.207e+06 1.322e-11
  3.31984   -215.9 1.227e+06 1.433e-11
  3.33406   -191.4 1.336e+06 1.293e-11
  3.35370   -154.3 1.435e+06 1.250e-11
  3.37334   -122.1 1.426e+06 1.391e-11
  3.39298   -105.4 1.478e+06 1.347e-11
  3.41262    -98.5 1.578e+06 8.989e-12
  3.42515   -145.5 1.115e+06 6.777e-12
  3.43497    -51.3 1.689e+06 9.920e-12
  3.45189   -142.4 9.589e+05 8.162e-12
  3.47153   -218.0 5.160e+04 1.295e-10
  3.49117   -219.7 1.528e+04 3.164e-10
  3.51081   -217.8 1.513e+04 3.239e-10
  3.52841   -216.2 1.503e+04 3.479e-10
  3.53823   -217.0 1.495e+04 3.503e-10
  3.55009   -215.1 1.510e+04 3.925e-10
  3.56973   -212.8 1.528e+04 4.479e-10
  3.58936   -210.4 1.547e+04 5.217e-10
  3.60900   -207.9 1.563e+04 6.257e-10
  3.62864   -205.8 1.578e+04 7.844e-10
  3.64828   -205.8 1.802e+04 9.592e-10
  3.66792   -208.6 3.384e+04 9.521e-10
  3.68260   -220.5 4.575e+04 3.285e-09
  3.69237   -220.5 4.763e+04 3.848e-09
  3.70219   -224.8 3.929e+04 2.047e-08
  3.71201   -226.7 3.450e+04 6.127e-08
  3.72183   -229.0 3.149e+04 1.389e-07
  3.73165   -231.2 2.943e+04 2.368e-07
  3.74147   -233.6 2.813e+04 3.157e-07
  3.75129   -236.1 2.758e+04 3.468e-07
  3.75652   -239.0 2.712e+04 3.612e-07
  3.76143   -240.4 2.835e+04 3.011e-07
  3.77092   -243.4 2.691e+04 2.908e-07
  3.77763   -246.7 2.574e+04 2.283e-07
  3.78254   -254.3 2.411e+04 5.165e-08
  3.79056   -256.4 2.324e+04 2.586e-08
  3.80038   -257.7 2.253e+04 1.443e-08
  3.81020   -258.3 2.199e+04 9.594e-09
  3.82002   -258.4 2.161e+04 7.506e-09
  3.82984   -258.3 2.138e+04 6.588e-09
  3.83966   -258.1 2.122e+04 6.213e-09
  3.84948   -257.7 2.105e+04 6.139e-09
  3.85930   -257.3 2.091e+04 6.203e-09
  3.86572   -256.7 2.083e+04 6.293e-09
  3.87063   -255.8 2.069e+04 6.496e-09
  3.87894   -255.1 2.067e+04 6.487e-09
  3.88876   -254.3 2.064e+04 6.517e-09
  3.89858   -253.6 2.059e+04 6.577e-09
  3.90840   -252.9 2.049e+04 6.638e-09
  3.91821   -252.2 2.035e+04 6.675e-09
  3.92803   -251.3 2.026e+04 6.731e-09
  3.93785   -250.2 2.021e+04 6.919e-09
  3.94767   -249.0 2.026e+04 7.229e-09
  3.95392   -248.0 2.037e+04 7.607e-09
  3.95883   -248.5 2.010e+04 6.776e-09
  3.96731   -247.5 2.019e+04 7.192e-09
  3.97491   -246.5 2.024e+04 7.596e-09
  3.97982   -245.7 2.003e+04 7.261e-09
  3.98695   -244.6 2.008e+04 7.623e-09
  3.99677   -243.3 2.019e+04 7.899e-09
  4.00659   -242.0 2.029e+04 8.182e-09
  4.01641   -240.9 2.041e+04 8.467e-09
  4.02623   -239.8 2.051e+04 8.699e-09
  4.03605   -238.8 2.058e+04 8.892e-09
  4.04587   -237.6 2.065e+04 9.102e-09
  4.05569   -236.5 2.075e+04 9.315e-09
  4.06550   -235.5 2.079e+04 9.454e-09
  4.08028   -234.4 2.068e+04 9.601e-09
  4.09997   -231.6 2.077e+04 9.939e-09
  4.11961   -229.0 2.090e+04 1.024e-08
  4.13031   -226.5 2.100e+04 1.057e-08
  4.14013   -226.2 2.103e+04 1.061e-08
  4.15889   -223.5 2.114e+04 1.098e-08
  4.17852   -220.9 2.188e+04 1.143e-08
  4.19321   -218.8 2.243e+04 1.151e-08
  4.19821   -217.4 2.343e+04 1.267e-08
  4.20317   -218.6 2.135e+04 1.234e-08
  4.21780   -216.0 2.279e+04 1.291e-08
  4.23248   -213.5 2.408e+04 1.356e-08
  4.24225   -212.1 2.464e+04 1.362e-08
  4.25207   -210.7 2.503e+04 1.330e-08
  4.26189   -209.8 2.565e+04 1.273e-08
  4.27171   -209.2 2.626e+04 1.229e-08
  4.28153   -208.9 2.664e+04 1.236e-08
  4.29135   -208.7 2.645e+04 1.368e-08
  4.30117   -208.3 2.679e+04 1.390e-08
  4.30650   -208.0 2.827e+04 1.214e-08
  4.30783   -207.8 3.072e+04 1.467e-08
  4.31231   -207.6 2.888e+04 4.076e-09
  4.32081   -209.2 3.041e+04 2.308e-09
  4.33063   -212.5 3.076e+04 1.464e-09
  4.34045   -216.8 2.971e+04 1.299e-09
  4.35027   -221.0 2.866e+04 1.319e-09
  4.36009   -223.4 2.979e+04 1.341e-09
  4.36990   -224.9 3.149e+04 1.613e-09
  4.37972   -225.7 3.454e+04 2.318e-09
  4.38954   -226.3 3.614e+04 3.604e-09
  4.39936   -227.7 3.675e+04 5.286e-09
  4.40918   -229.3 3.688e+04 7.275e-09
  4.41660   -230.7 3.618e+04 9.250e-09
  4.42156   -227.3 2.246e+04 1.902e-09
  4.43383   -228.9 2.740e+04 2.392e-09
  4.45347   -229.9 2.804e+04 3.505e-09
  4.47307   -230.1 2.617e+04 4.812e-09
  4.49271   -230.9 2.393e+04 7.499e-09
  4.51238   -228.5 2.266e+04 6.538e-09
  4.53202   -225.4 2.140e+04 5.729e-09
  4.55166   -222.4 2.016e+04 5.082e-09
  4.57130   -219.9 1.903e+04 4.567e-09
  4.59094   -217.6 1.815e+04 4.129e-09
  4.61058   -215.3 1.734e+04 3.752e-09
  4.63018   -213.1 1.665e+04 3.407e-09
  4.64982   -210.0 1.540e+04 2.759e-09
  4.66949   -207.8 1.506e+04 2.668e-09
  4.68913   -205.5 1.475e+04 2.547e-09
  4.70877   -203.3 1.450e+04 2.391e-09
  4.72841   -201.1 1.421e+04 2.202e-09
  4.74805   -199.1 1.390e+04 1.998e-09
  4.76769   -197.0 1.356e+04 1.798e-09
  4.78732   -194.8 1.322e+04 1.625e-09
  4.80696   -192.6 1.294e+04 1.490e-09
  4.82565   -190.5 1.272e+04 1.387e-09
  4.83547   -190.8 1.246e+04 1.288e-09
  4.84624   -188.8 1.231e+04 1.226e-09
  4.85839   -186.8 1.216e+04 1.169e-09
  4.86820   -186.2 1.227e+04 1.287e-09
  4.88552   -184.2 1.213e+04 1.232e-09
  4.90516   -182.1 1.204e+04 1.197e-09
  4.92480   -179.8 1.201e+04 1.188e-09
  4.94443   -177.7 1.204e+04 1.196e-09
  4.96407   -175.8 1.212e+04 1.230e-09
  4.98371   -174.0 1.219e+04 1.267e-09
  5.00335   -172.2 1.228e+04 1.311e-09
  5.02299   -170.5 1.243e+04 1.392e-09
  5.04263   -169.0 1.269e+04 1.538e-09
  5.06227   -167.9 1.310e+04 1.771e-09
  5.07677   -167.0 1.364e+04 2.105e-09
  5.08659   -167.1 1.423e+04 2.635e-09
  5.10154   -166.5 1.494e+04 3.187e-09
  5.12118   -166.0 1.543e+04 3.572e-09
  5.13586   -165.7 1.559e+04 3.589e-09
  5.14563   -165.7 1.574e+04 3.670e-09
  5.15545   -166.0 1.608e+04 3.841e-09
  5.16527   -166.4 1.623e+04 3.900e-09
  5.17509   -167.0 1.655e+04 4.024e-09
  5.18305   -167.4 1.664e+04 4.058e-09
  5.18796   -166.2 1.665e+04 4.178e-09
  5.19078   -166.8 1.677e+04 4.188e-09
  5.19569   -167.9 1.690e+04 4.378e-09
  5.20455   -168.6 1.697e+04 4.327e-09
  5.21437   -169.3 1.688e+04 4.207e-09
  5.22419   -169.7 1.673e+04 4.029e-09
  5.23897   -169.3 1.646e+04 3.671e-09
  5.25865   -170.6 1.525e+04 3.028e-09
  5.27829   -172.1 1.384e+04 2.405e-09
  5.29516   -173.3 1.301e+04 1.918e-09
  5.30498   -175.3 1.298e+04 1.940e-09
  5.31757   -175.6 1.241e+04 1.540e-09
  5.33721   -175.6 1.197e+04 1.270e-09
  5.35685   -175.2 1.160e+04 1.083e-09
  5.37649   -174.7 1.130e+04 9.475e-10
  5.39612   -174.2 1.104e+04 8.459e-10
  5.41576   -173.7 1.082e+04 7.673e-10
  5.43540   -173.3 1.061e+04 7.032e-10
  5.45504   -172.9 1.043e+04 6.494e-10
  5.47468   -172.4 1.027e+04 6.046e-10
  5.49432   -171.8 1.012e+04 5.687e-10
  5.51355   -171.2 1.000e+04 5.420e-10
  5.52337   -171.5 1.003e+04 5.464e-10
  5.53082   -170.9 9.969e+03 5.368e-10
  5.54064   -170.0 9.878e+03 4.898e-10
  5.55323   -169.4 9.843e+03 4.867e-10
  5.57287   -168.7 9.833e+03 4.920e-10
  5.59251   -168.0 9.875e+03 5.076e-10
  5.61215   -167.2 9.954e+03 5.302e-10
  5.63179   -166.5 1.006e+04 5.574e-10
  5.65143   -165.8 1.017e+04 5.880e-10
  5.67107   -165.0 1.028e+04 6.220e-10
  5.69070   -164.3 1.038e+04 6.594e-10
  5.71034   -163.5 1.046e+04 6.957e-10
  5.72998   -162.6 1.050e+04 7.192e-10
  5.74176   -161.6 1.050e+04 7.265e-10
  5.75158   -161.8 1.047e+04 7.148e-10
  5.76926   -160.7 1.043e+04 6.669e-10
  5.78890   -159.8 1.038e+04 5.874e-10
  5.80854   -159.2 1.030e+04 4.927e-10
  5.82818   -158.9 1.017e+04 4.152e-10
  5.85773   -158.8 1.005e+04 3.646e-10
  5.89711   -157.7 9.741e+03 2.970e-10
  5.93638   -156.6 9.457e+03 2.589e-10
  5.97566   -155.4 9.381e+03 2.479e-10
  6.01494   -154.0 9.335e+03 2.377e-10
  6.05422   -152.6 9.314e+03 2.283e-10
  6.09349   -151.3 9.316e+03 2.208e-10
  6.13277   -149.9 9.329e+03 2.178e-10
  6.16891   -148.6 9.363e+03 2.171e-10
  6.18855   -149.3 9.568e+03 2.361e-10
  6.21133   -148.2 9.796e+03 2.554e-10
  6.23617   -147.3 1.002e+04 2.811e-10
  6.25581   -146.8 1.023e+04 3.042e-10
  6.28988   -145.8 1.044e+04 3.327e-10
  6.31924   -145.2 1.047e+04 3.437e-10
  6.33878   -145.1 1.065e+04 4.138e-10
  6.35842   -145.0 1.086e+04 5.082e-10
  6.37806   -144.8 1.111e+04 6.400e-10
  6.39693   -144.6 1.145e+04 8.153e-10
  6.40675   -144.9 1.155e+04 9.233e-10
  6.41734   -144.6 1.189e+04 1.105e-09
  6.43698   -144.4 1.215e+04 1.248e-09
  6.45661   -144.4 1.232e+04 1.331e-09
  6.47625   -144.3 1.237e+04 1.362e-09
  6.49589   -144.5 1.238e+04 1.368e-09
  6.51553   -145.3 1.243e+04 1.375e-09
  6.53517   -148.9 1.358e+04 1.483e-09
  6.55481   -154.6 1.712e+04 2.633e-09
  6.57445   -159.6 1.910e+04 5.883e-09
  6.58856   -163.3 1.963e+04 1.036e-08
  6.59838   -161.2 1.960e+04 8.181e-09
  6.61372   -164.7 1.963e+04 1.184e-08
  6.62514   -167.3 1.940e+04 1.282e-08
  6.63496   -166.0 1.867e+04 1.000e-08
  6.65300   -167.7 1.794e+04 9.356e-09
  6.67264   -168.5 1.688e+04 6.088e-09
  6.69228   -169.5 1.555e+04 2.726e-09
  6.71192   -171.4 1.377e+04 9.350e-10
  6.73156   -174.0 1.153e+04 3.256e-10
  6.75119   -175.8 1.001e+04 1.950e-10
  6.77083   -176.0 9.553e+03 1.754e-10
  6.80039   -175.7 9.452e+03 1.684e-10
  6.83976   -173.9 9.276e+03 1.593e-10
  6.87904   -172.0 9.174e+03 1.543e-10
  6.91832   -170.0 9.137e+03 1.570e-10
  6.94134   -168.2 9.227e+03 1.690e-10
  6.96098   -167.5 9.077e+03 1.493e-10
  6.99687   -165.9 9.136e+03 1.579e-10
  7.03615   -164.3 9.290e+03 1.790e-10
  7.06211   -162.8 9.458e+03 2.059e-10
  7.08175   -163.1 9.477e+03 2.132e-10
  7.11471   -161.9 9.578e+03 2.340e-10
  7.14407   -161.0 9.633e+03 2.514e-10
  7.16361   -160.7 9.727e+03 2.721e-10
  7.18325   -160.6 9.960e+03 3.193e-10
  7.20288   -161.0 1.051e+04 4.243e-10
  7.22252   -161.6 1.153e+04 6.289e-10
  7.24216   -162.4 1.277e+04 1.006e-09
  7.26180   -163.0 1.389e+04 1.665e-09
  7.28030   -163.1 1.490e+04 2.654e-09
  7.29012   -163.2 1.376e+04 2.090e-09
  7.29372   -163.0 1.425e+04 2.783e-09
  7.30354   -162.1 1.322e+04 1.631e-09
  7.32072   -161.9 1.376e+04 2.235e-09
  7.34036   -161.5 1.415e+04 2.815e-09
  7.35999   -160.9 1.442e+04 3.157e-09
  7.37963   -160.4 1.455e+04 3.221e-09
  7.39927   -160.1 1.436e+04 2.822e-09
  7.41891   -159.9 1.406e+04 2.327e-09
  7.43855   -160.0 1.371e+04 1.855e-09
  7.45819   -159.8 1.329e+04 1.546e-09
  7.47783   -159.5 1.270e+04 1.175e-09
  7.49879   -159.7 1.196e+04 8.487e-10
  7.51853   -159.0 1.126e+04 6.457e-10
  7.54676   -157.0 1.045e+04 4.730e-10
  7.58603   -154.3 9.948e+03 3.653e-10
  7.62531   -151.5 9.726e+03 3.040e-10
  7.64650   -148.6 9.649e+03 2.778e-10
  7.66614   -147.9 9.797e+03 3.227e-10
  7.70387   -145.2 9.719e+03 3.002e-10
  7.74314   -142.5 9.694e+03 2.959e-10
  7.78242   -140.0 9.855e+03 3.399e-10
  7.82170   -137.6 1.032e+04 4.545e-10
  7.86098   -135.3 1.103e+04 6.538e-10
  7.90025   -133.3 1.171e+04 9.124e-10
  7.93567   -131.4 1.216e+04 1.111e-09
  7.95530   -131.0 1.119e+04 7.015e-10
  7.97881   -129.3 1.132e+04 7.117e-10
  8.01809   -127.5 1.129e+04 6.454e-10
  8.05736   -125.6 1.104e+04 5.462e-10
  8.09664   -123.6 1.083e+04 4.760e-10
  8.13592   -121.6 1.080e+04 4.596e-10
  8.17520   -119.7 1.085e+04 4.634e-10
  8.21447   -117.9 1.108e+04 5.168e-10
  8.25375   -116.3 1.130e+04 6.041e-10
  8.29303   -114.6 1.144e+04 6.799e-10
  8.33202   -113.0 1.146e+04 7.059e-10
  8.35166   -112.4 1.123e+04 6.321e-10
  8.37158   -110.7 1.123e+04 6.359e-10
  8.39208   -109.0 1.104e+04 5.639e-10
  8.41172   -107.7 1.047e+04 3.842e-10
  8.45014   -106.1 1.035e+04 3.530e-10
  8.48941   -104.5 1.025e+04 3.252e-10
  8.52869   -103.0 1.021e+04 3.184e-10
  8.56797   -101.5 1.025e+04 3.275e-10
  8.60725   -100.0 1.034e+04 3.444e-10
  8.64652    -98.6 1.041e+04 3.578e-10
  8.68580    -97.2 1.042e+04 3.614e-10
  8.72508    -95.7 1.034e+04 3.537e-10
  8.76436    -94.0 1.017e+04 3.088e-10
  8.80363    -92.2 9.982e+03 2.541e-10
  8.82886    -90.4 9.804e+03 2.018e-10
  8.84850    -90.0 9.663e+03 1.840e-10
  8.88219    -88.3 9.488e+03 1.524e-10
  8.92147    -86.7 9.386e+03 1.306e-10
  8.96074    -85.0 9.353e+03 1.133e-10
  9.00002    -83.3 9.365e+03 1.049e-10
  9.03718    -81.6 9.373e+03 1.035e-10
  9.05682    -81.6 9.466e+03 1.191e-10
  9.07858    -80.1 9.573e+03 1.263e-10
  9.11785    -78.7 9.667e+03 1.466e-10
