# Columns:
#   distance along LOS (in CHIMPs)
#   peculiar velocity  (in km/s)
#   temperature (K)
#   HI number density
# pos=(96.7406,62.6579,53.8111), angles=(2.88009,5.30749)
  0.00514     89.4 9.271e+03 1.554e-10
  0.03049     89.1 9.406e+03 2.164e-10
  0.07093     89.8 9.361e+03 1.848e-10
  0.10340     90.5 9.231e+03 1.518e-10
  0.12362     91.4 9.109e+03 1.344e-10
  0.15180     92.3 8.908e+03 1.160e-10
  0.19224     93.5 8.838e+03 1.159e-10
  0.23268     95.0 8.816e+03 1.214e-10
  0.26647     96.7 8.845e+03 1.421e-10
  0.28669     95.9 8.868e+03 1.456e-10
  0.29572     97.4 9.059e+03 1.835e-10
  0.31594     98.0 8.952e+03 1.447e-10
  0.35399     99.0 9.272e+03 2.266e-10
  0.39443    100.1 9.890e+03 4.209e-10
  0.43486    101.3 1.066e+04 7.665e-10
  0.46783    102.4 1.130e+04 1.194e-09
  0.48805    102.5 1.068e+04 9.235e-10
  0.51574    103.0 1.082e+04 9.769e-10
  0.54277    103.2 1.076e+04 9.396e-10
  0.56298    101.6 1.067e+04 8.617e-10
  0.59661    102.1 1.031e+04 6.581e-10
  0.63705    102.7 9.867e+03 4.750e-10
  0.66015    103.4 9.511e+03 3.719e-10
  0.68037    103.9 8.999e+03 3.196e-10
  0.71793    105.4 9.012e+03 3.221e-10
  0.75836    107.2 9.107e+03 3.331e-10
  0.79880    109.0 9.403e+03 3.723e-10
  0.83225    109.7 9.768e+03 4.477e-10
  0.85247    110.5 9.582e+03 4.317e-10
  0.86947    111.0 9.823e+03 4.977e-10
  0.88959    111.4 1.012e+04 5.915e-10
  0.90981    112.0 1.051e+04 7.411e-10
  0.92822    112.5 1.091e+04 9.245e-10
  0.93833    112.8 1.082e+04 8.958e-10
  0.94690    113.1 1.118e+04 1.080e-09
  0.95701    112.6 1.130e+04 1.153e-09
  0.97046    112.8 1.158e+04 1.293e-09
  0.99068    112.7 1.174e+04 1.322e-09
  1.01090    112.7 1.173e+04 1.315e-09
  1.02438    112.7 1.171e+04 1.253e-09
  1.03449    113.0 1.160e+04 1.170e-09
  1.05134    113.2 1.154e+04 1.043e-09
  1.07156    113.3 1.148e+04 8.923e-10
  1.08505    113.4 1.144e+04 7.548e-10
  1.09516    112.8 1.128e+04 6.127e-10
  1.11043    112.7 1.122e+04 5.297e-10
  1.12054    113.0 1.106e+04 5.117e-10
  1.13221    113.0 1.094e+04 4.710e-10
  1.15243    113.1 1.085e+04 4.696e-10
  1.17265    113.5 1.084e+04 4.741e-10
  1.19287    113.9 1.083e+04 4.938e-10
  1.20660    114.3 1.083e+04 5.415e-10
  1.21670    114.8 1.090e+04 4.962e-10
  1.23330    114.5 1.084e+04 4.428e-10
  1.25352    114.8 1.091e+04 4.971e-10
  1.27374    115.3 1.105e+04 6.027e-10
  1.29265    115.9 1.127e+04 7.613e-10
  1.30276    116.2 1.135e+04 6.478e-10
  1.31418    116.6 1.161e+04 7.976e-10
  1.33440    116.7 1.183e+04 9.580e-10
  1.35123    116.5 1.205e+04 1.136e-09
  1.37155    116.0 1.147e+04 8.176e-10
  1.38900    115.9 1.183e+04 1.054e-09
  1.40922    116.3 1.173e+04 1.026e-09
  1.44580    116.2 1.197e+04 1.249e-09
  1.48623    115.9 1.206e+04 1.274e-09
  1.52667    115.4 1.203e+04 1.204e-09
  1.56111    115.1 1.183e+04 9.542e-10
  1.58133    115.4 1.215e+04 1.118e-09
  1.60750    115.2 1.180e+04 7.257e-10
  1.64794    115.6 1.150e+04 5.437e-10
  1.68842    115.7 1.123e+04 3.976e-10
  1.72886    116.0 1.122e+04 3.922e-10
  1.75343    116.5 1.128e+04 4.086e-10
  1.77365    116.7 1.130e+04 4.213e-10
  1.80973    117.4 1.146e+04 4.765e-10
  1.85017    117.8 1.159e+04 5.209e-10
  1.88379    118.3 1.163e+04 5.468e-10
  1.90401    118.1 1.215e+04 8.451e-10
  1.92553    118.7 1.207e+04 8.139e-10
  1.94575    119.3 1.211e+04 5.675e-10
  1.97148    120.2 1.206e+04 5.194e-10
  2.01192    121.3 1.206e+04 5.147e-10
  2.05235    122.7 1.200e+04 5.355e-10
  2.09279    124.1 1.196e+04 5.688e-10
  2.11786    125.3 1.191e+04 5.813e-10
  2.13808    125.6 1.175e+04 4.169e-10
  2.16008    127.3 1.185e+04 4.783e-10
  2.18030    127.7 1.209e+04 4.338e-10
  2.20381    128.5 1.225e+04 5.099e-10
  2.22393    129.2 1.231e+04 5.864e-10
  2.24424    129.7 1.246e+04 6.849e-10
  2.26446    130.1 1.262e+04 8.123e-10
  2.28467    130.3 1.280e+04 9.662e-10
  2.29804    130.3 1.307e+04 1.156e-09
  2.30313    130.4 1.328e+04 1.193e-09
  2.31008    129.4 1.274e+04 6.668e-10
  2.33542    129.3 1.308e+04 7.622e-10
  2.37585    128.5 1.347e+04 8.767e-10
  2.40608    127.6 1.317e+04 8.671e-10
  2.42607    126.7 1.310e+04 8.886e-10
  2.43618    125.3 1.285e+04 8.711e-10
  2.44642    124.0 1.308e+04 1.035e-09
  2.46664    123.2 1.340e+04 1.291e-09
  2.48209    122.5 1.389e+04 1.712e-09
  2.49220    122.6 1.359e+04 1.277e-09
  2.50708    121.8 1.446e+04 1.874e-09
  2.52730    120.3 1.620e+04 3.298e-09
  2.54752    118.4 1.805e+04 6.884e-09
  2.56422    117.2 1.934e+04 1.400e-08
  2.57433    115.1 1.996e+04 1.594e-08
  2.57825    114.1 2.013e+04 2.167e-08
  2.58836    114.8 1.929e+04 1.321e-08
  2.60817    113.5 1.914e+04 1.305e-08
  2.62839    113.3 1.839e+04 1.100e-08
  2.64861    113.6 1.712e+04 6.849e-09
  2.66430    113.7 1.554e+04 3.208e-09
  2.67441    112.9 1.492e+04 2.627e-09
  2.68905    112.8 1.400e+04 1.543e-09
  2.70236    112.4 1.314e+04 9.924e-10
  2.71257    110.1 1.288e+04 1.020e-09
  2.73979    110.3 1.201e+04 6.227e-10
  2.78023    111.2 1.147e+04 4.816e-10
  2.82066    113.2 1.135e+04 4.693e-10
  2.84671    115.6 1.134e+04 4.708e-10
  2.86693    116.3 1.122e+04 5.013e-10
  2.90154    118.5 1.124e+04 5.105e-10
  2.94197    120.6 1.131e+04 5.453e-10
  2.96874    122.5 1.141e+04 6.024e-10
  2.98896    121.5 1.116e+04 4.096e-10
  3.01881    123.3 1.132e+04 5.133e-10
  3.03903    123.1 1.146e+04 5.709e-10
  3.06329    124.7 1.195e+04 8.783e-10
  3.10372    126.1 1.260e+04 1.359e-09
  3.14416    127.1 1.325e+04 1.933e-09
  3.18460    127.5 1.364e+04 2.234e-09
  3.21114    127.8 1.365e+04 2.200e-09
  3.23114    127.4 1.337e+04 1.907e-09
  3.24504    126.8 1.314e+04 1.489e-09
  3.26547    127.2 1.269e+04 1.034e-09
  3.30591    127.5 1.215e+04 6.297e-10
  3.34635    127.8 1.156e+04 3.984e-10
  3.38324    128.3 1.107e+04 3.567e-10
  3.40346    128.6 1.065e+04 2.243e-10
  3.42722    130.1 1.063e+04 2.270e-10
  3.46766    131.9 1.059e+04 2.495e-10
  3.50111    133.7 1.063e+04 3.022e-10
  3.52133    133.4 1.070e+04 2.840e-10
  3.54853    135.2 1.077e+04 3.437e-10
  3.57556    137.0 1.085e+04 3.995e-10
  3.59578    137.7 1.075e+04 2.548e-10
  3.62941    139.5 1.077e+04 2.997e-10
  3.66985    141.2 1.079e+04 3.370e-10
  3.71028    143.0 1.088e+04 3.574e-10
  3.74767    144.7 1.101e+04 3.583e-10
  3.76789    145.2 1.093e+04 2.679e-10
  3.77740    146.7 1.093e+04 2.660e-10
  3.79762    146.3 1.091e+04 2.672e-10
  3.83159    147.7 1.086e+04 2.504e-10
  3.87203    149.1 1.079e+04 2.282e-10
  3.91247    150.4 1.071e+04 2.049e-10
  3.93999    151.7 1.064e+04 1.825e-10
  3.96021    152.2 1.055e+04 1.614e-10
  3.99334    153.4 1.047e+04 1.544e-10
  4.03348    154.7 1.041e+04 1.438e-10
  4.05370    154.7 1.047e+04 1.515e-10
  4.07422    155.8 1.048e+04 1.446e-10
  4.11209    156.9 1.038e+04 1.453e-10
  4.13231    157.8 1.038e+04 1.156e-10
  4.15509    158.9 1.033e+04 1.027e-10
  4.19553    160.1 1.029e+04 1.026e-10
  4.23597    161.3 1.024e+04 1.074e-10
  4.27640    162.7 1.016e+04 1.235e-10
  4.30442    164.2 1.012e+04 1.527e-10
  4.31756    164.8 1.016e+04 7.526e-11
  4.32999    164.6 1.023e+04 1.011e-10
  4.35728    166.3 1.013e+04 1.286e-10
  4.39772    168.0 1.013e+04 1.670e-10
  4.43815    169.8 1.017e+04 2.026e-10
  4.47652    171.4 1.018e+04 2.095e-10
  4.49674    172.2 1.006e+04 1.428e-10
  4.51903    173.8 1.004e+04 1.436e-10
  4.55947    175.6 9.988e+03 1.376e-10
  4.58606    177.5 9.877e+03 1.164e-10
  4.60628    177.6 1.005e+04 1.425e-10
  4.64034    179.7 9.928e+03 9.843e-11
  4.66884    181.7 9.792e+03 6.458e-11
  4.68906    182.7 9.842e+03 7.615e-11
  4.72121    184.8 9.721e+03 5.707e-11
  4.76165    186.9 9.672e+03 4.611e-11
  4.80209    189.0 9.560e+03 4.169e-11
  4.84095    191.4 9.455e+03 4.138e-11
  4.86078    192.5 9.655e+03 5.021e-11
  4.86236    192.5 9.838e+03 5.022e-11
  4.88296    194.8 9.805e+03 4.972e-11
  4.92340    197.1 9.804e+03 4.996e-11
  4.96384    199.5 9.807e+03 5.145e-11
  5.00428    201.7 9.840e+03 5.615e-11
  5.03327    203.9 9.833e+03 6.554e-11
  5.05349    204.9 9.833e+03 8.932e-11
  5.08515    207.2 9.872e+03 1.023e-10
  5.11843    209.4 9.938e+03 1.175e-10
  5.13865    209.3 1.025e+04 1.765e-10
  5.16602    211.5 1.033e+04 1.903e-10
  5.20537    213.5 1.042e+04 1.920e-10
  5.22559    214.4 1.048e+04 2.178e-10
  5.24690    216.4 1.051e+04 2.094e-10
  5.28734    218.5 1.051e+04 1.931e-10
  5.32777    220.5 1.051e+04 1.729e-10
  5.36821    222.5 1.049e+04 1.551e-10
  5.39472    224.5 1.056e+04 1.426e-10
  5.40399    224.0 1.073e+04 1.581e-10
  5.41792    225.1 1.078e+04 1.683e-10
  5.44909    227.2 1.084e+04 1.621e-10
  5.48952    229.2 1.084e+04 1.636e-10
  5.52996    231.3 1.085e+04 1.678e-10
  5.56980    233.4 1.087e+04 1.743e-10
  5.59002    234.5 1.105e+04 1.851e-10
  5.61083    236.6 1.110e+04 1.946e-10
  5.65080    238.7 1.119e+04 2.103e-10
  5.67101    238.7 1.150e+04 2.896e-10
  5.69171    240.9 1.157e+04 3.054e-10
  5.73215    242.9 1.161e+04 3.112e-10
  5.76212    244.9 1.160e+04 3.095e-10
  5.77214    244.7 1.191e+04 3.371e-10
  5.78250    245.6 1.189e+04 3.334e-10
  5.79886    246.7 1.186e+04 3.263e-10
  5.80897    246.5 1.215e+04 3.846e-10
  5.82293    247.3 1.204e+04 3.594e-10
  5.85336    249.3 1.225e+04 3.812e-10
  5.89390    251.5 1.209e+04 3.444e-10
  5.92709    253.8 1.191e+04 3.212e-10
  5.94711    253.4 1.240e+04 3.987e-10
  5.95425    253.0 1.275e+04 5.633e-10
  5.96447    254.1 1.256e+04 5.498e-10
  5.98468    255.3 1.253e+04 5.515e-10
  6.00490    256.5 1.250e+04 5.614e-10
  6.02512    257.7 1.249e+04 5.841e-10
  6.04030    258.9 1.251e+04 6.167e-10
  6.05041    258.7 1.240e+04 7.351e-10
  6.06504    259.9 1.243e+04 7.732e-10
  6.07515    259.5 1.247e+04 9.577e-10
  6.08578    260.6 1.257e+04 1.054e-09
  6.10600    261.5 1.271e+04 1.183e-09
  6.12621    262.4 1.290e+04 1.361e-09
  6.13646    263.2 1.317e+04 1.618e-09
  6.14657    263.2 1.299e+04 1.530e-09
  6.16665    263.9 1.327e+04 1.869e-09
  6.18687    264.7 1.362e+04 2.357e-09
  6.20319    265.6 1.407e+04 3.044e-09
  6.21330    265.1 1.463e+04 3.921e-09
  6.22252    266.1 1.527e+04 5.030e-09
  6.23263    266.1 1.488e+04 3.621e-09
  6.24753    267.2 1.573e+04 4.687e-09
  6.26264    267.8 1.597e+04 5.231e-09
  6.27050    268.2 1.620e+04 5.848e-09
  6.27501    268.3 1.605e+04 5.359e-09
  6.27722    267.6 1.638e+04 5.344e-09
  6.28281    267.9 1.674e+04 5.888e-09
  6.29292    268.2 1.714e+04 6.748e-09
  6.30303    268.7 1.746e+04 7.822e-09
  6.31314    269.2 1.769e+04 8.977e-09
  6.31858    269.8 1.784e+04 1.022e-08
  6.32364    269.1 1.849e+04 8.446e-09
  6.33336    269.5 1.880e+04 9.766e-09
  6.34123    269.9 1.907e+04 1.119e-08
  6.34629    268.3 1.945e+04 1.085e-08
  6.35358    268.4 1.980e+04 1.218e-08
  6.36161    268.5 2.027e+04 1.354e-08
  6.36666    267.4 2.017e+04 1.240e-08
  6.37379    267.5 2.026e+04 1.413e-08
  6.38390    267.6 2.020e+04 1.594e-08
  6.39401    267.8 1.998e+04 1.793e-08
  6.40412    268.0 1.971e+04 2.032e-08
  6.40969    268.4 1.949e+04 2.356e-08
  6.41082    268.5 1.847e+04 2.054e-08
  6.41536    267.8 1.774e+04 1.893e-08
  6.42434    268.7 1.799e+04 2.233e-08
  6.43445    269.4 1.845e+04 2.655e-08
  6.44456    269.5 1.896e+04 3.003e-08
  6.45271    269.3 1.920e+04 3.031e-08
  6.45777    269.6 1.892e+04 2.132e-08
  6.46478    269.4 1.899e+04 2.086e-08
  6.47433    269.1 1.914e+04 1.926e-08
  6.47938    267.9 1.873e+04 1.148e-08
  6.48500    267.3 1.867e+04 9.652e-09
  6.49511    266.6 1.851e+04 8.120e-09
  6.50079    265.7 1.826e+04 7.033e-09
  6.51095    264.4 1.715e+04 2.961e-09
  6.53059    263.4 1.703e+04 3.021e-09
  6.55081    262.9 1.699e+04 3.334e-09
  6.57102    263.0 1.682e+04 3.577e-09
  6.58694    263.5 1.671e+04 3.777e-09
  6.59705    261.9 1.445e+04 9.480e-10
  6.60752    262.6 1.434e+04 1.010e-09
  6.61763    261.6 1.135e+04 3.793e-10
  6.63168    262.4 1.113e+04 4.491e-10
  6.65190    263.3 1.116e+04 5.656e-10
  6.67212    264.4 1.145e+04 7.244e-10
  6.68310    265.8 1.177e+04 9.422e-10
  6.69321    264.8 9.872e+03 4.226e-10
  6.71255    266.5 1.039e+04 5.529e-10
  6.73277    268.2 1.090e+04 7.131e-10
  6.74566    270.0 1.136e+04 8.979e-10
  6.75577    269.7 1.055e+04 5.096e-10
  6.76916    271.4 1.089e+04 6.053e-10
  6.77927    270.5 9.906e+03 3.431e-10
  6.79343    272.2 1.005e+04 3.846e-10
  6.81365    273.9 1.019e+04 4.310e-10
  6.83387    275.4 1.041e+04 5.039e-10
  6.85409    276.7 1.110e+04 6.736e-10
  6.86532    278.0 1.254e+04 1.092e-09
  6.87482    277.2 1.178e+04 7.872e-10
  6.88381    276.8 9.979e+03 4.715e-10
  6.89452    278.3 1.209e+04 9.118e-10
  6.91474    279.2 1.407e+04 1.825e-09
  6.93496    279.2 1.505e+04 2.769e-09
  6.94778    279.1 1.577e+04 3.555e-09
  6.95278    279.0 1.532e+04 3.271e-09
  6.95633    278.6 1.632e+04 4.219e-09
  6.96138    277.2 1.717e+04 4.774e-09
  6.97024    276.1 1.903e+04 7.231e-09
  6.98035    274.5 2.076e+04 1.237e-08
  6.99046    274.0 2.208e+04 2.313e-08
  6.99935    274.1 2.292e+04 4.593e-08
  7.00441    273.6 2.205e+04 4.242e-08
  7.01068    273.7 2.249e+04 7.894e-08
  7.01680    273.5 2.277e+04 1.388e-07
  7.02186    273.1 2.230e+04 8.520e-08
  7.03090    272.3 2.302e+04 1.178e-07
  7.04101    270.2 2.366e+04 1.266e-07
  7.04743    267.5 2.369e+04 1.241e-07
  7.05249    266.0 2.323e+04 6.563e-08
  7.06123    263.8 2.320e+04 5.800e-08
  7.07134    262.1 2.283e+04 4.584e-08
  7.08082    260.9 2.219e+04 3.445e-08
  7.08588    260.5 2.130e+04 2.396e-08
  7.09046    259.6 2.048e+04 1.877e-08
  7.09551    258.6 1.924e+04 1.473e-08
  7.10167    258.7 1.926e+04 1.399e-08
  7.11688    259.3 2.028e+04 1.539e-08
  7.13358    259.1 2.045e+04 1.357e-08
  7.14369    257.3 1.844e+04 9.201e-09
  7.14999    256.9 1.899e+04 9.022e-09
  7.16010    253.9 1.963e+04 7.787e-09
  7.17758    253.4 2.045e+04 8.880e-09
  7.19780    253.2 2.108e+04 1.035e-08
  7.21802    253.5 2.160e+04 1.185e-08
  7.22974    254.2 2.191e+04 1.313e-08
  7.23475    252.0 2.118e+04 1.302e-08
  7.24320    252.0 2.150e+04 1.458e-08
  7.25331    252.0 2.149e+04 1.648e-08
  7.26341    252.2 2.121e+04 1.836e-08
  7.27267    252.5 2.094e+04 1.976e-08
  7.27773    252.2 2.006e+04 1.673e-08
  7.28299    252.7 1.991e+04 1.661e-08
  7.28804    251.7 1.951e+04 1.171e-08
  7.29374    252.2 1.971e+04 1.093e-08
  7.30385    252.7 1.997e+04 1.005e-08
  7.31396    253.3 2.034e+04 9.123e-09
  7.32075    253.9 2.081e+04 8.182e-09
  7.32581    251.0 1.976e+04 2.898e-09
  7.33418    251.1 1.990e+04 2.354e-09
  7.34429    251.0 1.992e+04 1.905e-09
  7.35206    250.9 1.976e+04 1.531e-09
  7.35711    248.3 1.630e+04 9.008e-10
  7.36378    248.0 1.553e+04 7.711e-10
  7.36883    247.3 1.467e+04 7.089e-10
  7.37972    248.1 1.505e+04 6.906e-10
  7.39999    247.3 1.295e+04 5.634e-10
  7.41191    246.4 1.054e+04 5.010e-10
  7.41799    244.6 9.794e+03 4.220e-10
  7.42628    243.2 9.364e+03 3.541e-10
  7.44043    244.3 9.584e+03 4.017e-10
  7.46064    245.3 9.880e+03 4.617e-10
  7.48086    246.0 1.019e+04 5.267e-10
  7.49801    246.6 1.050e+04 5.894e-10
  7.50812    243.7 1.043e+04 6.106e-10
  7.52130    244.1 1.075e+04 7.221e-10
  7.54152    244.1 1.118e+04 8.802e-10
  7.55432    243.8 1.173e+04 1.116e-09
  7.56443    242.9 1.166e+04 1.100e-09
  7.58196    242.0 1.237e+04 1.472e-09
  7.59417    240.8 1.323e+04 2.082e-09
  7.60428    238.6 1.362e+04 2.522e-09
  7.62239    236.9 1.456e+04 3.516e-09
  7.64261    234.4 1.567e+04 4.786e-09
  7.66283    231.0 1.676e+04 6.048e-09
  7.68022    226.5 1.755e+04 6.558e-09
  7.68964    225.0 1.770e+04 7.491e-09
  7.69247    225.3 1.749e+04 7.204e-09
  7.70327    221.4 1.756e+04 7.049e-09
  7.72349    217.2 1.758e+04 6.080e-09
  7.74370    212.8 1.727e+04 4.131e-09
  7.76392    208.4 1.651e+04 2.239e-09
  7.77638    203.9 1.494e+04 1.074e-09
  7.78649    207.3 1.580e+04 1.946e-09
  7.80436    203.9 1.366e+04 8.982e-10
  7.82050    201.2 1.132e+04 6.466e-10
  7.83061    202.0 1.091e+04 6.154e-10
  7.84480    202.3 1.079e+04 6.124e-10
  7.86244    202.9 1.080e+04 6.156e-10
  7.87255    204.4 1.082e+04 6.161e-10
  7.88524    205.1 1.082e+04 6.176e-10
  7.90545    206.0 1.087e+04 6.276e-10
  7.92567    207.2 1.101e+04 6.546e-10
  7.94589    208.3 1.122e+04 7.048e-10
  7.95860    209.4 1.150e+04 7.886e-10
  7.96871    211.5 1.101e+04 6.528e-10
  7.98633    212.6 1.121e+04 7.082e-10
  8.00655    213.6 1.147e+04 7.998e-10
  8.02677    214.7 1.178e+04 9.375e-10
  8.04465    215.9 1.209e+04 1.126e-09
  8.05476    217.0 1.162e+04 8.673e-10
  8.06720    218.2 1.193e+04 1.000e-09
  8.08669    219.4 1.220e+04 1.153e-09
  8.09680    219.9 1.188e+04 9.631e-10
  8.10764    221.0 1.210e+04 1.073e-09
  8.12786    222.1 1.225e+04 1.155e-09
  8.14081    223.1 1.233e+04 1.195e-09
  8.15092    223.8 1.182e+04 8.630e-10
  8.16830    224.7 1.190e+04 8.851e-10
  8.18851    225.5 1.196e+04 9.041e-10
  8.20873    226.2 1.204e+04 9.326e-10
  8.22483    226.8 1.217e+04 9.868e-10
  8.23286    226.4 1.205e+04 9.191e-10
  8.23697    227.3 1.161e+04 7.347e-10
  8.24917    227.9 1.185e+04 8.147e-10
  8.26939    228.4 1.216e+04 9.386e-10
  8.28961    228.9 1.248e+04 1.103e-09
  8.30983    229.5 1.278e+04 1.298e-09
  8.32302    230.2 1.302e+04 1.507e-09
  8.33313    231.0 1.278e+04 1.210e-09
  8.35026    231.6 1.310e+04 1.407e-09
  8.36298    232.3 1.338e+04 1.640e-09
  8.37309    231.6 1.396e+04 2.087e-09
  8.39070    232.5 1.420e+04 2.403e-09
  8.40908    233.4 1.439e+04 2.697e-09
  8.41919    233.4 1.492e+04 3.085e-09
  8.43114    234.5 1.516e+04 3.576e-09
  8.45136    235.9 1.544e+04 4.122e-09
  8.47158    237.7 1.573e+04 4.616e-09
  8.48669    238.1 1.603e+04 5.017e-09
  8.49597    238.3 1.642e+04 5.567e-09
  8.50103    237.4 1.701e+04 6.698e-09
  8.50514    237.7 1.749e+04 7.633e-09
  8.51020    237.1 1.827e+04 1.045e-08
  8.51697    237.2 1.888e+04 1.235e-08
  8.52708    236.9 1.964e+04 1.477e-08
  8.53719    236.2 2.048e+04 1.799e-08
  8.54730    234.9 2.128e+04 2.288e-08
  8.55322    233.3 2.191e+04 3.226e-08
  8.55828    232.5 2.172e+04 4.416e-08
  8.56505    231.2 2.202e+04 7.161e-08
  8.57010    229.7 2.200e+04 8.045e-08
  8.57763    228.3 2.247e+04 1.276e-07
  8.58774    226.0 2.316e+04 1.766e-07
  8.59625    222.5 2.369e+04 1.819e-07
  8.60130    221.2 2.421e+04 1.418e-07
  8.60795    216.9 2.507e+04 1.146e-07
  8.61806    212.4 2.621e+04 6.545e-08
  8.62817    207.4 2.712e+04 2.689e-08
  8.63412    202.0 2.682e+04 9.857e-09
  8.63918    201.9 2.547e+04 8.094e-09
  8.65349    192.7 2.087e+04 2.396e-09
  8.67376    182.1 1.305e+04 5.456e-10
  8.68745    176.8 1.121e+04 3.640e-10
  8.69756    176.9 1.119e+04 3.715e-10
  8.71420    177.1 1.104e+04 3.532e-10
  8.73442    177.5 1.097e+04 3.430e-10
  8.76484    179.0 1.087e+04 3.306e-10
  8.80538    182.0 1.055e+04 2.937e-10
  8.84582    185.3 1.025e+04 2.633e-10
  8.86986    188.6 1.014e+04 2.549e-10
  8.88926    188.7 1.016e+04 2.420e-10
  8.90565    189.6 1.009e+04 2.343e-10
  8.92669    192.3 1.010e+04 2.324e-10
  8.96713    195.1 1.019e+04 2.390e-10
  9.00756    197.7 1.047e+04 2.641e-10
  9.04196    199.7 1.073e+04 2.963e-10
  9.06218    199.2 1.038e+04 2.350e-10
  9.08844    200.9 1.063e+04 2.715e-10
  9.11867    201.5 1.070e+04 2.899e-10
  9.13793    202.4 1.075e+04 3.085e-10
  9.14804    201.9 1.073e+04 3.016e-10
  9.15901    202.7 1.082e+04 3.358e-10
  9.17164    203.4 1.110e+04 4.126e-10
  9.18175    203.3 1.107e+04 4.044e-10
  9.19945    203.2 1.147e+04 5.370e-10
  9.21967    203.0 1.205e+04 7.583e-10
  9.23409    202.4 1.282e+04 1.124e-09
  9.24420    202.1 1.230e+04 9.120e-10
  9.26010    201.2 1.292e+04 1.238e-09
  9.28032    199.7 1.345e+04 1.577e-09
  9.29968    197.8 1.369e+04 1.724e-09
  9.30979    196.7 1.364e+04 1.664e-09
  9.32014    194.4 1.357e+04 1.617e-09
  9.33025    194.7 1.316e+04 1.367e-09
  9.34098    192.7 1.294e+04 1.223e-09
  9.36120    190.7 1.252e+04 9.140e-10
  9.38141    188.7 1.192e+04 5.896e-10
  9.40163    186.4 1.120e+04 3.758e-10
  9.41630    185.0 1.064e+04 2.901e-10
  9.42641    186.2 1.075e+04 2.920e-10
  9.43792    186.8 1.056e+04 2.813e-10
  9.45824    185.7 1.003e+04 2.450e-10
  9.49281    185.6 1.003e+04 2.477e-10
  9.53325    186.3 1.004e+04 2.652e-10
