# Columns:
#   distance along LOS (in CHIMPs)
#   peculiar velocity  (in km/s)
#   temperature (K)
#   HI number density
# pos=(57.5879,189.032,68.5528), angles=(1.64389,1.7868)
  0.00756    -26.8 2.180e+04 9.100e-09
  0.02514    -25.9 1.938e+04 7.304e-09
  0.04519    -25.5 1.860e+04 6.933e-09
  0.05983    -25.3 1.826e+04 7.277e-09
  0.06985    -27.5 1.874e+04 1.258e-08
  0.08529    -27.6 1.854e+04 1.512e-08
  0.10429    -27.3 1.849e+04 1.830e-08
  0.11431    -26.2 1.744e+04 1.171e-08
  0.12539    -25.2 1.744e+04 1.356e-08
  0.14544    -23.7 1.752e+04 1.472e-08
  0.15564    -22.2 1.740e+04 1.449e-08
  0.16566    -22.4 1.663e+04 8.723e-09
  0.18554    -20.7 1.596e+04 6.184e-09
  0.20559    -19.7 1.517e+04 4.064e-09
  0.22564    -19.5 1.394e+04 2.665e-09
  0.24142    -19.7 1.257e+04 1.899e-09
  0.25145    -21.1 1.153e+04 1.226e-09
  0.26574    -19.8 1.124e+04 1.148e-09
  0.28579    -18.2 1.111e+04 1.108e-09
  0.30584    -16.9 1.096e+04 1.062e-09
  0.32589    -15.5 1.082e+04 1.023e-09
  0.33723    -14.4 1.056e+04 9.232e-10
  0.34726    -14.4 1.042e+04 8.801e-10
  0.37611    -12.1 1.022e+04 7.808e-10
  0.41319     -9.6 9.910e+03 6.650e-10
  0.43314     -9.7 9.942e+03 5.297e-10
  0.45631     -7.6 9.748e+03 5.435e-10
  0.49650     -5.2 9.558e+03 5.203e-10
  0.53660     -3.1 9.411e+03 4.481e-10
  0.57670     -1.4 9.275e+03 3.880e-10
  0.60481     -0.3 9.117e+03 3.498e-10
  0.62486      0.3 9.692e+03 5.416e-10
  0.64261      1.7 9.398e+03 4.733e-10
  0.66265      2.0 9.607e+03 5.696e-10
  0.69700      3.9 9.448e+03 5.306e-10
  0.73710      5.7 9.190e+03 4.069e-10
  0.77638      6.8 8.977e+03 3.242e-10
  0.79633      7.6 8.846e+03 3.028e-10
  0.81720      9.0 8.719e+03 2.603e-10
  0.85739     10.2 8.471e+03 1.997e-10
  0.89749     11.4 8.387e+03 1.955e-10
  0.93759     12.7 8.533e+03 2.425e-10
  0.96800     14.6 8.936e+03 2.932e-10
  0.98795     15.2 8.722e+03 2.356e-10
  1.00757     16.3 8.847e+03 2.581e-10
  1.02762     16.7 9.064e+03 2.838e-10
  1.04767     17.4 9.300e+03 3.219e-10
  1.06361     18.0 9.575e+03 3.741e-10
  1.07364     18.1 9.562e+03 3.854e-10
  1.08777     18.8 9.800e+03 4.445e-10
  1.10781     19.7 1.007e+04 5.242e-10
  1.12786     20.2 1.057e+04 6.610e-10
  1.14791     19.6 1.163e+04 9.334e-10
  1.15942     15.3 1.525e+04 2.177e-09
  1.16945     12.1 1.670e+04 3.293e-09
  1.18048      8.5 1.806e+04 7.435e-09
  1.18545      8.5 1.796e+04 7.809e-09
  1.19293      7.1 1.978e+04 1.096e-08
  1.20222      5.8 1.972e+04 2.053e-08
  1.20723      6.8 1.860e+04 1.820e-08
  1.21298      7.3 1.960e+04 2.546e-08
  1.22300      8.3 1.938e+04 3.482e-08
  1.23303      9.6 1.928e+04 3.810e-08
  1.24305     11.3 1.884e+04 3.525e-08
  1.25012     12.7 1.899e+04 3.006e-08
  1.25518     12.6 1.950e+04 1.983e-08
  1.26821     14.0 2.010e+04 9.968e-09
  1.28826     10.6 1.952e+04 3.779e-09
  1.30831      1.8 1.379e+04 1.335e-09
  1.32836     -0.9 1.135e+04 9.152e-10
  1.34102     -0.4 1.109e+04 8.226e-10
  1.35104     -0.1 1.100e+04 6.818e-10
  1.36846      0.6 1.085e+04 6.813e-10
  1.38851      1.5 1.054e+04 6.459e-10
  1.40856      2.7 1.021e+04 5.746e-10
  1.42680      3.8 1.008e+04 4.645e-10
  1.43682      4.0 1.012e+04 4.682e-10
  1.45878      4.7 1.002e+04 2.855e-10
  1.49897      5.5 9.669e+03 1.647e-10
  1.52281      6.4 9.425e+03 1.524e-10
  1.54285      6.6 9.460e+03 1.522e-10
  1.57917      7.9 9.187e+03 1.643e-10
  1.61927      9.6 9.054e+03 1.731e-10
  1.65937     11.3 9.153e+03 1.707e-10
  1.69437     12.3 9.313e+03 1.889e-10
  1.71376     12.2 9.166e+03 1.382e-10
  1.71885     12.7 8.965e+03 1.022e-10
  1.73957     13.2 9.280e+03 1.218e-10
  1.77967     13.6 9.551e+03 1.840e-10
  1.81977     14.9 9.488e+03 2.726e-10
  1.85986     16.9 9.289e+03 2.819e-10
  1.88599     18.8 9.073e+03 2.343e-10
  1.90604     19.8 8.862e+03 1.892e-10
  1.94006     21.1 8.758e+03 1.228e-10
  1.98016     21.5 8.576e+03 9.289e-11
  2.02026     22.4 8.563e+03 9.502e-11
  2.05756     22.3 8.687e+03 1.273e-10
  2.07761     22.6 8.604e+03 7.372e-11
  2.10046     22.8 8.823e+03 1.561e-10
  2.14056     23.7 9.206e+03 3.302e-10
  2.18066     24.7 9.383e+03 4.173e-10
  2.22075     26.2 9.150e+03 3.485e-10
  2.24695     26.9 8.799e+03 2.098e-10
  2.25533     26.3 8.661e+03 1.651e-10
  2.26923     27.5 8.785e+03 1.858e-10
  2.30095     26.6 8.429e+03 1.102e-10
  2.34105     26.2 8.093e+03 1.034e-10
  2.38115     26.4 8.059e+03 1.119e-10
  2.42075     27.1 8.072e+03 1.368e-10
  2.44080     28.3 8.179e+03 1.376e-10
  2.46135     29.3 8.231e+03 1.653e-10
  2.50145     30.3 8.281e+03 1.777e-10
  2.54155     31.1 8.266e+03 1.717e-10
  2.58164     31.7 8.269e+03 1.650e-10
  2.61237     31.4 8.382e+03 1.781e-10
  2.63242     32.4 8.434e+03 1.750e-10
  2.66184     31.6 8.766e+03 2.377e-10
  2.70194     31.0 9.211e+03 3.547e-10
  2.74204     29.9 9.728e+03 5.089e-10
  2.77505     26.6 1.118e+04 8.855e-10
  2.79510     23.1 1.149e+04 9.363e-10
  2.80399     19.2 1.242e+04 1.703e-09
  2.82404     18.1 1.301e+04 1.960e-09
  2.86234     14.7 1.275e+04 1.767e-09
  2.90244      9.9 1.263e+04 1.397e-09
  2.93241      5.1 1.329e+04 1.421e-09
  2.95236      0.9 1.367e+04 1.656e-09
  2.97241     -2.5 1.392e+04 2.208e-09
  2.98539     -4.5 1.396e+04 2.410e-09
  2.99541     -5.1 1.342e+04 1.997e-09
  3.02264     -9.2 1.236e+04 1.265e-09
  3.06283    -13.9 1.099e+04 5.168e-10
  3.10293    -18.5 9.908e+03 2.737e-10
  3.14303    -20.3 9.572e+03 2.362e-10
  3.16718    -21.1 9.507e+03 2.382e-10
  3.18723    -20.5 9.875e+03 3.696e-10
  3.22323    -21.1 9.861e+03 3.769e-10
  3.26333    -21.6 9.625e+03 3.153e-10
  3.30315    -22.6 9.319e+03 2.288e-10
  3.32320    -22.1 9.363e+03 2.335e-10
  3.33875    -23.5 9.122e+03 1.933e-10
  3.35880    -23.8 9.478e+03 2.567e-10
  3.38362    -25.1 9.379e+03 2.543e-10
  3.42372    -25.8 9.325e+03 2.665e-10
  3.46382    -26.2 9.239e+03 2.594e-10
  3.50392    -26.9 9.156e+03 2.222e-10
  3.53037    -27.9 9.132e+03 2.092e-10
  3.55042    -29.0 9.332e+03 2.668e-10
  3.58412    -29.4 9.328e+03 2.768e-10
  3.62422    -29.6 9.326e+03 3.036e-10
  3.66432    -29.3 9.278e+03 3.096e-10
  3.70194    -28.8 9.007e+03 2.904e-10
  3.72199    -29.3 8.747e+03 2.117e-10
  3.74451    -28.7 8.542e+03 1.809e-10
  3.78461    -28.1 8.413e+03 1.562e-10
  3.82471    -27.5 8.352e+03 1.370e-10
  3.85129    -27.0 8.354e+03 1.286e-10
  3.87134    -27.6 8.229e+03 1.083e-10
  3.89356    -27.4 8.227e+03 1.037e-10
  3.91361    -27.5 8.080e+03 7.959e-11
  3.94501    -27.6 8.294e+03 8.189e-11
  3.98511    -28.3 8.541e+03 1.239e-10
  4.02521    -29.2 8.968e+03 2.216e-10
  4.06513    -30.3 9.673e+03 4.070e-10
  4.10523    -32.2 1.090e+04 8.438e-10
  4.14550    -33.6 1.100e+04 8.666e-10
  4.18560    -34.8 1.069e+04 6.289e-10
  4.22570    -36.4 1.029e+04 3.937e-10
  4.25675    -38.2 9.902e+03 3.097e-10
  4.27680    -40.0 9.492e+03 2.337e-10
  4.30590    -40.4 9.492e+03 2.775e-10
  4.34600    -40.1 9.572e+03 3.133e-10
  4.37939    -39.7 9.592e+03 3.197e-10
  4.39944    -40.7 9.783e+03 3.579e-10
  4.42619    -40.4 9.739e+03 3.113e-10
  4.44836    -40.2 9.684e+03 2.740e-10
  4.46841    -41.0 9.532e+03 2.227e-10
  4.50639    -40.4 9.545e+03 2.299e-10
  4.54649    -39.4 9.648e+03 2.611e-10
  4.58659    -38.0 9.694e+03 2.817e-10
  4.61993    -36.8 9.831e+03 2.968e-10
  4.63998    -37.4 9.892e+03 2.758e-10
  4.66679    -37.2 1.047e+04 3.497e-10
  4.70689    -37.6 1.123e+04 5.464e-10
  4.74699    -37.9 1.202e+04 8.780e-10
  4.77696    -39.1 1.304e+04 1.514e-09
  4.79691    -39.7 1.348e+04 1.761e-09
  4.81136    -40.4 1.391e+04 2.114e-09
  4.82138    -41.4 1.424e+04 3.162e-09
  4.83701    -42.2 1.428e+04 3.685e-09
  4.85706    -42.6 1.430e+04 4.219e-09
  4.87711    -42.8 1.437e+04 4.599e-09
  4.89714    -43.1 1.437e+04 4.648e-09
  4.91719    -43.6 1.456e+04 4.872e-09
  4.92735    -44.0 1.429e+04 4.285e-09
  4.93737    -44.1 1.414e+04 4.097e-09
  4.95731    -44.6 1.376e+04 3.591e-09
  4.97736    -44.8 1.337e+04 3.114e-09
  4.99295    -44.8 1.299e+04 2.595e-09
  5.00298    -44.5 1.299e+04 2.641e-09
  5.01746    -44.5 1.256e+04 2.079e-09
  5.03751    -44.6 1.205e+04 1.597e-09
  5.06768    -44.7 1.144e+04 1.163e-09
  5.10788    -44.2 1.063e+04 7.701e-10
  5.14797    -43.3 1.022e+04 5.975e-10
  5.17474    -42.1 9.804e+03 4.505e-10
  5.19479    -41.5 9.656e+03 3.778e-10
  5.22817    -40.4 9.404e+03 3.218e-10
  5.26827    -39.1 9.168e+03 2.832e-10
  5.30837    -37.5 8.979e+03 2.581e-10
  5.34631    -35.8 8.857e+03 2.436e-10
  5.36636    -35.5 8.838e+03 2.407e-10
  5.38857    -33.7 8.728e+03 2.298e-10
  5.42867    -32.1 8.701e+03 2.287e-10
  5.45564    -30.7 8.771e+03 2.421e-10
  5.47569    -30.3 8.687e+03 2.183e-10
  5.50886    -29.2 8.760e+03 2.310e-10
  5.53793    -28.2 8.854e+03 2.710e-10
  5.55798    -27.9 8.625e+03 2.374e-10
  5.58906    -26.8 8.745e+03 2.628e-10
  5.62916    -25.8 8.807e+03 2.613e-10
  5.66926    -25.3 8.797e+03 2.088e-10
  5.70936    -25.7 8.814e+03 1.568e-10
  5.74946    -25.6 8.814e+03 1.494e-10
  5.78956    -25.6 8.888e+03 1.739e-10
  5.82966    -25.0 8.979e+03 2.335e-10
  5.86975    -23.7 9.138e+03 2.727e-10
  5.90112    -22.4 9.219e+03 2.775e-10
  5.92117    -22.0 9.378e+03 3.617e-10
  5.94995    -20.9 9.383e+03 3.208e-10
  5.98374    -20.3 9.383e+03 2.666e-10
  6.00379    -20.5 9.384e+03 2.618e-10
  6.03015    -20.9 9.313e+03 2.467e-10
  6.07025    -21.0 9.531e+03 3.580e-10
  6.09274    -19.6 9.740e+03 5.323e-10
  6.11279    -19.3 9.567e+03 4.021e-10
  6.15045    -17.9 9.717e+03 4.343e-10
  6.19055    -17.4 9.652e+03 3.343e-10
  6.23065    -18.2 9.409e+03 2.235e-10
  6.26431    -20.1 9.375e+03 2.088e-10
  6.28436    -21.2 9.519e+03 2.115e-10
  6.31084    -23.9 9.991e+03 3.309e-10
  6.34082    -25.1 1.043e+04 5.341e-10
  6.35992    -26.3 1.084e+04 7.193e-10
  6.36995    -26.5 1.078e+04 6.937e-10
  6.38082    -27.3 1.133e+04 9.711e-10
  6.40087    -28.2 1.170e+04 1.106e-09
  6.42092    -29.5 1.207e+04 1.285e-09
  6.44097    -30.5 1.217e+04 1.320e-09
  6.45573    -31.9 1.219e+04 1.331e-09
  6.46576    -31.9 1.198e+04 1.213e-09
  6.48107    -32.6 1.197e+04 1.116e-09
  6.50112    -33.8 1.138e+04 8.820e-10
  6.52117    -34.1 1.114e+04 7.355e-10
  6.53169    -34.5 1.086e+04 5.846e-10
  6.54171    -35.2 1.062e+04 4.656e-10
  6.55154    -35.5 1.045e+04 3.775e-10
  6.56157    -35.4 1.035e+04 3.766e-10
  6.59144    -36.0 1.016e+04 2.970e-10
  6.62750    -36.2 1.009e+04 2.658e-10
  6.64755    -36.1 1.023e+04 3.310e-10
  6.67173    -36.8 1.066e+04 4.852e-10
  6.71183    -36.9 1.131e+04 8.646e-10
  6.75193    -36.1 1.176e+04 1.150e-09
  6.79203    -35.6 1.180e+04 1.164e-09
  6.81912    -34.5 1.120e+04 6.741e-10
  6.83917    -34.2 1.138e+04 7.782e-10
  6.87223    -33.2 1.061e+04 3.292e-10
  6.91233    -32.3 1.031e+04 1.496e-10
  6.95243    -31.2 1.010e+04 9.809e-11
  6.99069    -29.5 9.957e+03 8.476e-11
  7.01074    -29.1 9.943e+03 8.931e-11
  7.03262    -27.0 9.854e+03 7.914e-11
  7.05998    -24.9 9.846e+03 7.709e-11
  7.08003    -24.1 9.614e+03 7.393e-11
  7.11282    -21.7 9.660e+03 7.426e-11
  7.15292    -20.1 1.016e+04 8.268e-11
  7.18231    -19.6 1.060e+04 1.484e-10
  7.20235    -19.1 1.044e+04 1.270e-10
  7.23312    -17.9 1.069e+04 2.468e-10
  7.27322    -16.9 1.116e+04 4.901e-10
  7.31332    -15.8 1.186e+04 9.136e-10
  7.35341    -14.9 1.206e+04 1.361e-09
  7.37383    -14.3 1.206e+04 1.621e-09
  7.38375    -14.9 1.200e+04 1.572e-09
  7.40334    -14.8 1.207e+04 1.740e-09
  7.42339    -14.6 1.200e+04 1.755e-09
  7.44344    -15.7 1.274e+04 1.883e-09
  7.45951    -19.3 1.453e+04 2.493e-09
  7.46954    -18.8 1.431e+04 2.595e-09
  7.48354    -22.2 1.525e+04 3.685e-09
  7.50359    -23.7 1.504e+04 5.122e-09
  7.52364    -23.4 1.502e+04 6.387e-09
  7.54369    -22.5 1.509e+04 6.721e-09
  7.55532    -22.0 1.492e+04 5.793e-09
  7.56535    -21.7 1.473e+04 5.835e-09
  7.58379    -21.2 1.488e+04 4.484e-09
  7.59791    -22.1 1.415e+04 2.986e-09
  7.60794    -20.5 1.439e+04 3.736e-09
  7.62389    -21.7 1.358e+04 2.518e-09
  7.64111    -22.5 1.231e+04 1.784e-09
  7.65113    -21.9 1.265e+04 1.785e-09
  7.66399    -22.4 1.177e+04 1.387e-09
  7.68403    -22.3 1.132e+04 1.193e-09
  7.70408    -21.9 1.105e+04 1.074e-09
  7.72413    -21.4 1.086e+04 1.001e-09
  7.73702    -19.7 1.099e+04 9.653e-10
  7.74704    -21.1 1.083e+04 8.795e-10
  7.76423    -21.0 1.080e+04 8.620e-10
  7.78428    -21.1 1.108e+04 9.044e-10
  7.80433    -22.2 1.166e+04 9.993e-10
  7.82270    -24.0 1.235e+04 1.306e-09
  7.83273    -25.9 1.381e+04 2.031e-09
  7.84443    -26.8 1.343e+04 2.537e-09
  7.86196    -26.9 1.309e+04 2.903e-09
  7.87198    -26.4 1.409e+04 3.952e-09
  7.88453    -26.2 1.386e+04 4.002e-09
  7.90458    -25.5 1.388e+04 3.742e-09
  7.91851    -26.0 1.349e+04 2.747e-09
  7.92854    -26.0 1.384e+04 3.000e-09
  7.94468    -29.4 1.291e+04 1.991e-09
  7.96473    -32.1 1.157e+04 1.382e-09
  7.98478    -33.2 1.101e+04 1.142e-09
  8.00430    -33.5 1.076e+04 1.025e-09
  8.01432    -33.6 1.057e+04 8.635e-10
  8.02488    -34.3 1.035e+04 7.514e-10
  8.04493    -35.0 1.013e+04 6.795e-10
  8.06497    -35.8 9.970e+03 6.585e-10
  8.08502    -36.4 9.917e+03 6.592e-10
  8.10011    -36.8 9.982e+03 7.230e-10
  8.11013    -36.7 9.912e+03 7.094e-10
  8.12512    -36.7 1.013e+04 8.268e-10
  8.13603    -36.7 1.040e+04 9.709e-10
  8.14606    -37.1 1.044e+04 1.001e-09
  8.16522    -37.1 1.073e+04 1.167e-09
  8.18527    -37.0 1.101e+04 1.346e-09
  8.19592    -36.9 1.130e+04 1.536e-09
  8.20594    -36.5 1.115e+04 1.445e-09
  8.22537    -36.6 1.155e+04 1.683e-09
  8.24542    -37.0 1.217e+04 2.052e-09
  8.26547    -37.9 1.296e+04 2.623e-09
  8.28170    -38.7 1.372e+04 3.393e-09
  8.29173    -38.0 1.330e+04 2.692e-09
  8.30557    -38.3 1.375e+04 3.284e-09
  8.32562    -38.4 1.386e+04 3.547e-09
  8.34567    -38.4 1.374e+04 3.562e-09
  8.36572    -38.1 1.321e+04 3.141e-09
  8.37751    -37.9 1.252e+04 2.411e-09
  8.38754    -37.6 1.206e+04 1.992e-09
  8.40008    -37.5 1.157e+04 1.573e-09
  8.41011    -38.4 1.127e+04 1.342e-09
  8.42586    -38.6 1.076e+04 1.025e-09
  8.44591    -38.7 1.029e+04 7.904e-10
  8.46330    -38.8 9.878e+03 6.301e-10
  8.47332    -38.5 1.006e+04 7.076e-10
  8.48601    -38.2 9.769e+03 6.293e-10
  8.50606    -37.6 9.530e+03 5.602e-10
  8.52611    -36.9 9.335e+03 4.842e-10
  8.54616    -36.3 9.138e+03 4.024e-10
  8.55911    -35.7 8.978e+03 3.442e-10
  8.56913    -35.3 9.269e+03 4.061e-10
  8.59638    -34.8 8.959e+03 3.139e-10
  8.63506    -33.2 8.327e+03 1.845e-10
  8.65511    -32.7 9.274e+03 3.377e-10
  8.66433    -31.8 8.637e+03 2.201e-10
  8.68438    -32.6 8.642e+03 2.300e-10
  8.71678    -31.0 8.399e+03 1.997e-10
  8.75688    -29.2 8.249e+03 1.814e-10
  8.79697    -27.0 8.186e+03 1.654e-10
  8.82668    -24.7 8.193e+03 1.467e-10
  8.84673    -24.4 8.583e+03 1.539e-10
  8.87717    -23.0 8.508e+03 1.196e-10
  8.91727    -21.8 8.539e+03 1.144e-10
  8.95737    -21.1 8.903e+03 1.389e-10
  8.99747    -20.4 9.087e+03 2.515e-10
  9.01830    -18.7 9.538e+03 4.813e-10
  9.03835    -18.6 1.060e+04 9.767e-10
  9.06754    -17.0 1.155e+04 1.508e-09
  9.08750    -17.6 1.170e+04 1.757e-09
  9.10389    -16.5 1.225e+04 2.487e-09
  9.11391    -16.2 1.222e+04 2.595e-09
  9.12760    -15.4 1.233e+04 2.985e-09
  9.14764    -14.0 1.257e+04 3.379e-09
  9.16769    -12.6 1.277e+04 3.509e-09
  9.18774    -11.4 1.290e+04 3.399e-09
  9.19970    -10.1 1.306e+04 2.995e-09
  9.20418    -10.3 1.212e+04 1.621e-09
  9.21228    -10.1 1.231e+04 1.561e-09
  9.22784     -9.7 1.191e+04 1.060e-09
  9.24789     -9.8 1.106e+04 6.428e-10
  9.26794    -10.4 1.022e+04 4.005e-10
  9.28548    -11.0 9.600e+03 2.844e-10
  9.29551    -10.8 8.836e+03 2.063e-10
  9.30804    -10.8 8.573e+03 1.643e-10
  9.32809    -10.0 8.560e+03 1.620e-10
  9.34814     -9.4 8.501e+03 1.595e-10
  9.36819     -9.3 8.687e+03 1.978e-10
  9.38129     -8.7 9.460e+03 2.890e-10
  9.40144     -8.0 8.460e+03 1.751e-10
  9.42843     -6.7 9.149e+03 2.947e-10
  9.44839     -6.5 9.576e+03 3.521e-10
  9.47856     -4.0 1.012e+04 5.855e-10
  9.50863     -2.1 1.000e+04 6.915e-10
  9.52858     -1.6 1.004e+04 6.937e-10
  9.54863     -0.6 1.007e+04 7.633e-10
  9.56289     -0.2 1.012e+04 7.743e-10
  9.57291      0.3 9.612e+03 5.513e-10
  9.58873      1.7 9.693e+03 6.660e-10
  9.60878      2.3 9.892e+03 7.098e-10
  9.62883      3.0 1.032e+04 8.256e-10
  9.64867      2.9 1.064e+04 9.124e-10
  9.65870      3.0 1.050e+04 8.757e-10
  9.67905      2.5 1.141e+04 1.303e-09
  9.70913      1.4 1.237e+04 1.996e-09
  9.72908      1.1 1.277e+04 2.814e-09
  9.74038      2.0 1.299e+04 3.678e-09
  9.74576      2.2 1.286e+04 3.326e-09
  9.75451      1.9 1.320e+04 3.654e-09
  9.76918      3.1 1.360e+04 4.414e-09
  9.78923      4.0 1.402e+04 4.789e-09
  9.80928      4.4 1.411e+04 4.583e-09
  9.82933      4.1 1.400e+04 4.261e-09
  9.84029      3.1 1.399e+04 4.074e-09
  9.85032      2.7 1.421e+04 3.111e-09
  9.86943     -0.5 1.520e+04 3.217e-09
  9.88947     -3.6 1.589e+04 3.724e-09
  9.90952     -6.6 1.506e+04 4.091e-09
  9.92608     -8.1 1.373e+04 4.218e-09
  9.93610     -8.3 1.247e+04 2.799e-09
  9.94962     -7.3 1.262e+04 3.179e-09
  9.96967     -6.0 1.284e+04 3.435e-09
  9.98972     -4.7 1.299e+04 3.350e-09
 10.00443     -3.3 1.321e+04 2.766e-09
 10.01445     -4.2 1.262e+04 1.804e-09
 10.02189     -5.4 1.186e+04 1.226e-09
 10.03191     -5.6 1.131e+04 1.052e-09
 10.04987     -6.6 1.066e+04 7.805e-10
 10.08004     -7.0 1.042e+04 7.344e-10
 10.10787     -6.5 1.019e+04 7.626e-10
 10.12791     -6.2 9.801e+03 6.370e-10
 10.16034     -6.4 1.097e+04 1.189e-09
 10.19031     -5.9 1.159e+04 1.907e-09
 10.20348     -4.8 1.224e+04 2.629e-09
 10.21350     -4.2 1.209e+04 2.181e-09
 10.23032     -2.9 1.265e+04 2.742e-09
 10.25036     -1.2 1.311e+04 3.206e-09
 10.26848      0.1 1.338e+04 3.362e-09
 10.27850     -1.2 1.281e+04 2.385e-09
 10.28926     -0.7 1.287e+04 2.200e-09
 10.29939     -3.1 1.117e+04 8.433e-10
 10.32073     -4.5 1.057e+04 7.352e-10
 10.36083     -5.9 1.028e+04 8.300e-10
 10.38517     -5.0 1.079e+04 1.158e-09
 10.39510     -6.2 1.004e+04 9.013e-10
 10.41076     -5.9 1.018e+04 1.002e-09
 10.43081     -5.2 1.063e+04 1.217e-09
 10.45086     -4.4 1.093e+04 1.313e-09
 10.47086     -4.6 1.177e+04 1.456e-09
 10.49091    -22.7 2.548e+04 3.600e-09
 10.50595    -34.0 2.683e+04 1.846e-08
 10.51592    -36.4 2.309e+04 6.153e-08
 10.52368    -37.1 2.125e+04 1.445e-07
 10.52869    -37.5 2.067e+04 1.121e-07
 10.53597    -36.4 2.066e+04 1.721e-07
 10.54245    -35.7 2.069e+04 1.874e-07
 10.54747    -35.2 2.073e+04 2.085e-07
 10.55602    -34.1 2.057e+04 1.933e-07
 10.56605    -32.3 2.019e+04 8.646e-08
 10.57158    -31.4 2.016e+04 3.548e-08
 10.57660    -32.2 1.982e+04 2.711e-08
 10.58610    -32.7 2.039e+04 1.210e-08
 10.59612    -38.1 1.974e+04 5.103e-09
 10.61121    -46.4 1.361e+04 1.794e-09
 10.63130    -47.6 1.129e+04 1.013e-09
 10.65135    -47.0 1.028e+04 6.229e-10
 10.66248    -45.9 1.002e+04 4.811e-10
 10.67250    -45.7 1.027e+04 6.164e-10
 10.69145    -44.8 1.005e+04 4.860e-10
 10.71150    -44.1 9.811e+03 3.814e-10
 10.73155    -43.4 9.633e+03 3.066e-10
 10.74826    -42.7 9.539e+03 2.570e-10
 10.75829    -42.7 9.786e+03 3.354e-10
 10.77165    -42.0 9.633e+03 2.711e-10
 10.79667    -41.2 9.436e+03 2.089e-10
 10.81682    -40.7 9.553e+03 2.377e-10
 10.83424    -38.6 9.067e+03 1.438e-10
 10.85429    -39.2 9.898e+03 3.008e-10
 10.88212    -36.6 9.252e+03 1.347e-10
 10.92222    -34.7 8.960e+03 9.060e-11
 10.96232    -32.6 8.707e+03 6.876e-11
 11.00241    -30.4 8.676e+03 6.075e-11
 11.02586    -28.2 8.716e+03 5.971e-11
 11.04591    -28.7 9.051e+03 1.294e-10
 11.08261    -26.1 8.943e+03 1.417e-10
 11.12271    -23.2 8.828e+03 1.529e-10
 11.16281    -20.0 8.800e+03 1.547e-10
 11.19743    -17.1 8.839e+03 1.500e-10
 11.21748    -16.7 9.021e+03 2.021e-10
 11.24301    -14.2 9.017e+03 1.852e-10
 11.28311    -11.7 9.091e+03 1.851e-10
 11.32321     -9.5 9.200e+03 2.106e-10
 11.34492     -7.3 9.449e+03 2.542e-10
 11.36497     -9.2 9.546e+03 2.577e-10
 11.38905     -7.3 1.001e+04 3.657e-10
 11.40910     -7.3 1.036e+04 5.516e-10
 11.44350     -6.0 1.099e+04 7.768e-10
 11.48360     -4.8 1.139e+04 9.802e-10
 11.52370     -3.4 1.139e+04 1.101e-09
