# Columns:
#   distance along LOS (in CHIMPs)
#   peculiar velocity  (in km/s)
#   temperature (K)
#   HI number density
# pos=(116.071,97.055,63.2753), angles=(0.261146,5.17495)
  0.00816   -124.4 1.020e+04 5.302e-10
  0.02643   -123.7 1.016e+04 5.245e-10
  0.03696   -123.1 1.015e+04 5.250e-10
  0.04707   -123.8 1.013e+04 5.264e-10
  0.06517   -123.3 1.016e+04 5.601e-10
  0.07527   -123.8 1.011e+04 6.491e-10
  0.08708   -123.1 1.007e+04 6.270e-10
  0.10730   -122.3 1.004e+04 6.059e-10
  0.11966   -121.5 1.010e+04 5.846e-10
  0.12977   -122.1 1.030e+04 6.299e-10
  0.14773   -121.4 1.048e+04 5.969e-10
  0.16795   -120.9 1.055e+04 5.554e-10
  0.18817   -120.5 1.051e+04 5.115e-10
  0.20236   -120.2 1.043e+04 4.717e-10
  0.21247   -121.1 1.063e+04 5.176e-10
  0.22860   -120.8 1.049e+04 4.940e-10
  0.24090   -120.3 1.038e+04 4.870e-10
  0.26122   -120.9 9.455e+03 2.708e-10
  0.29955   -119.6 9.581e+03 3.054e-10
  0.33999   -118.3 9.711e+03 3.552e-10
  0.36795   -116.7 9.763e+03 4.017e-10
  0.38817   -117.9 9.899e+03 4.884e-10
  0.42085   -116.1 9.849e+03 4.965e-10
  0.46129   -114.2 9.785e+03 4.915e-10
  0.50172   -112.2 9.706e+03 4.624e-10
  0.53335   -110.2 9.588e+03 4.134e-10
  0.55356   -111.0 9.425e+03 3.826e-10
  0.57235   -109.2 9.279e+03 3.125e-10
  0.59257   -109.2 9.407e+03 3.252e-10
  0.62302   -107.5 9.258e+03 2.732e-10
  0.66346   -106.0 9.163e+03 2.340e-10
  0.69874   -104.5 9.172e+03 2.156e-10
  0.71896   -105.0 9.100e+03 1.877e-10
  0.74432   -103.5 9.124e+03 1.808e-10
  0.78476   -102.0 9.255e+03 1.818e-10
  0.82519   -100.7 9.507e+03 1.991e-10
  0.86414    -99.3 9.731e+03 2.352e-10
  0.88436    -99.5 9.591e+03 1.818e-10
  0.90360    -98.3 9.784e+03 2.382e-10
  0.92382    -99.2 1.027e+04 5.459e-10
  0.94649    -97.9 1.050e+04 6.559e-10
  0.98692    -96.7 1.074e+04 7.649e-10
  1.02736    -95.8 1.104e+04 8.649e-10
  1.04966    -95.4 1.125e+04 9.712e-10
  1.06988    -95.8 1.133e+04 9.979e-10
  1.08935    -95.5 1.146e+04 1.092e-09
  1.09936    -95.6 1.152e+04 1.101e-09
  1.11814    -95.6 1.158e+04 1.143e-09
  1.14856    -95.9 1.180e+04 1.227e-09
  1.17888    -96.5 1.203e+04 1.302e-09
  1.19900    -96.6 1.206e+04 1.308e-09
  1.21496    -96.7 1.216e+04 1.317e-09
  1.22507    -97.8 1.232e+04 1.370e-09
  1.23944    -97.9 1.237e+04 1.370e-09
  1.25488    -98.1 1.245e+04 1.377e-09
  1.26499    -97.4 1.192e+04 9.817e-10
  1.27987    -98.0 1.204e+04 9.800e-10
  1.29766    -98.9 1.221e+04 1.038e-09
  1.30777   -100.0 1.236e+04 1.283e-09
  1.32030   -100.5 1.234e+04 1.400e-09
  1.34052   -100.8 1.228e+04 1.510e-09
  1.36074   -100.8 1.222e+04 1.541e-09
  1.38036   -100.6 1.207e+04 1.475e-09
  1.39046   -101.3 1.216e+04 1.534e-09
  1.40117   -101.1 1.199e+04 1.375e-09
  1.42051   -100.9 1.181e+04 1.224e-09
  1.43061   -100.3 1.183e+04 1.295e-09
  1.44160   -100.0 1.163e+04 1.136e-09
  1.46182    -99.5 1.134e+04 9.626e-10
  1.47316    -99.0 1.107e+04 8.104e-10
  1.48327    -99.7 1.115e+04 8.145e-10
  1.50225    -99.0 1.076e+04 6.568e-10
  1.52247    -98.3 1.055e+04 5.566e-10
  1.54269    -97.7 1.023e+04 4.608e-10
  1.55586    -97.1 1.009e+04 4.113e-10
  1.56597    -97.5 1.004e+04 4.227e-10
  1.58623    -97.1 9.889e+03 3.831e-10
  1.60654    -96.1 9.842e+03 3.037e-10
  1.63386    -94.9 9.767e+03 2.921e-10
  1.67429    -94.3 9.986e+03 3.690e-10
  1.70452    -94.0 1.022e+04 4.946e-10
  1.72126    -94.0 1.036e+04 6.033e-10
  1.73137    -94.2 1.023e+04 5.427e-10
  1.74485    -93.8 1.038e+04 6.653e-10
  1.76187    -93.6 1.055e+04 7.409e-10
  1.77198    -93.8 1.149e+04 1.048e-09
  1.78529    -93.7 1.166e+04 1.137e-09
  1.80396    -93.7 1.167e+04 1.152e-09
  1.81407    -93.9 1.138e+04 9.866e-10
  1.82572    -93.6 1.117e+04 9.456e-10
  1.84594    -92.9 1.076e+04 7.881e-10
  1.86615    -92.2 1.034e+04 6.083e-10
  1.88637    -91.5 9.992e+03 4.589e-10
  1.89686    -91.1 9.735e+03 3.558e-10
  1.91718    -91.1 9.703e+03 3.533e-10
  1.93780    -90.0 9.342e+03 2.553e-10
  1.95801    -90.4 9.550e+03 3.177e-10
  1.99776    -88.8 9.125e+03 2.306e-10
  2.03819    -86.9 8.879e+03 1.738e-10
  2.06236    -85.2 8.823e+03 1.435e-10
  2.08257    -85.1 8.805e+03 1.311e-10
  2.11906    -83.5 8.807e+03 1.230e-10
  2.15949    -81.7 8.812e+03 1.218e-10
  2.19992    -79.9 8.858e+03 1.246e-10
  2.22775    -78.0 8.862e+03 1.276e-10
  2.24797    -77.8 8.773e+03 1.165e-10
  2.26905    -75.6 8.695e+03 1.140e-10
  2.28927    -75.5 8.749e+03 1.186e-10
  2.32122    -73.2 8.672e+03 1.063e-10
  2.36166    -70.9 8.589e+03 9.563e-11
  2.39315    -68.6 8.514e+03 8.672e-11
  2.41337    -68.2 8.467e+03 7.517e-11
  2.44253    -65.8 8.437e+03 7.006e-11
  2.48296    -63.4 8.453e+03 6.528e-11
  2.52339    -61.1 8.503e+03 6.053e-11
  2.55855    -58.9 8.566e+03 5.736e-11
  2.57877    -58.6 8.515e+03 5.604e-11
  2.60031    -56.5 8.615e+03 5.618e-11
  2.62052    -56.4 8.712e+03 5.993e-11
  2.64469    -54.5 8.780e+03 6.536e-11
  2.68513    -52.5 8.758e+03 7.618e-11
  2.72395    -50.3 8.746e+03 8.809e-11
  2.74416    -49.9 8.701e+03 8.548e-11
  2.76599    -47.7 8.750e+03 9.135e-11
  2.80643    -45.7 8.795e+03 9.329e-11
  2.84686    -43.7 8.855e+03 9.228e-11
  2.88729    -41.6 8.953e+03 9.086e-11
  2.90956    -39.5 9.001e+03 8.570e-11
  2.92978    -39.2 8.959e+03 7.394e-11
  2.95178    -37.0 8.964e+03 6.806e-11
  2.97199    -36.6 8.918e+03 5.619e-11
  3.00859    -34.5 8.876e+03 5.123e-11
  3.04903    -32.7 8.849e+03 4.618e-11
  3.07496    -30.9 8.919e+03 4.501e-11
  3.09517    -30.6 8.920e+03 4.581e-11
  3.12989    -29.0 8.983e+03 5.217e-11
  3.17033    -27.1 8.983e+03 6.383e-11
  3.21076    -24.9 8.982e+03 7.728e-11
  3.24036    -22.6 8.995e+03 8.767e-11
  3.26057    -22.1 8.937e+03 8.387e-11
  3.28303    -19.9 8.967e+03 8.719e-11
  3.30325    -19.2 8.958e+03 8.815e-11
  3.33206    -17.4 8.986e+03 9.006e-11
  3.37249    -15.6 8.996e+03 9.840e-11
  3.40575    -13.6 8.976e+03 1.109e-10
  3.42597    -12.9 8.927e+03 9.649e-11
  3.45336    -10.8 8.928e+03 1.031e-10
  3.49379     -8.7 8.954e+03 1.085e-10
  3.53423     -6.7 8.984e+03 1.159e-10
  3.57115     -4.8 9.046e+03 1.291e-10
  3.59137     -4.3 9.026e+03 1.263e-10
  3.61428     -2.3 9.131e+03 1.496e-10
  3.63450     -1.8 9.022e+03 1.294e-10
  3.65553      0.1 9.134e+03 1.621e-10
  3.69596      2.0 9.333e+03 2.110e-10
  3.73639      3.9 9.616e+03 2.883e-10
  3.77683      6.6 9.741e+03 3.468e-10
  3.81726      8.6 1.002e+04 4.148e-10
  3.85769     10.3 1.025e+04 4.610e-10
  3.89813     11.7 1.072e+04 5.454e-10
  3.92206     12.2 1.094e+04 5.867e-10
  3.93207     12.5 1.080e+04 5.337e-10
  3.94847     12.6 1.102e+04 6.136e-10
  3.96556     12.5 1.125e+04 7.591e-10
  3.97567     13.2 1.117e+04 6.492e-10
  3.98891     13.2 1.142e+04 8.211e-10
  4.00466     13.0 1.168e+04 1.060e-09
  4.01477     13.3 1.164e+04 1.040e-09
  4.02934     12.9 1.217e+04 1.444e-09
  4.04956     12.5 1.264e+04 1.890e-09
  4.06977     12.3 1.284e+04 2.038e-09
  4.08736     12.1 1.278e+04 1.971e-09
  4.09747     12.4 1.329e+04 2.587e-09
  4.11021     12.4 1.307e+04 2.283e-09
  4.13042     11.8 1.262e+04 1.651e-09
  4.14129     11.1 1.213e+04 1.228e-09
  4.15140     11.6 1.235e+04 1.404e-09
  4.17006     10.4 1.179e+04 1.023e-09
  4.18017     10.7 1.197e+04 1.075e-09
  4.19107      9.4 1.125e+04 8.686e-10
  4.21129      9.2 1.111e+04 8.643e-10
  4.23151      9.2 1.116e+04 8.937e-10
  4.25286      8.0 1.187e+04 1.176e-09
  4.27317      7.7 1.197e+04 1.225e-09
  4.29226      4.9 1.323e+04 2.345e-09
  4.30692      4.8 1.375e+04 3.623e-09
  4.31703      4.9 1.383e+04 3.852e-09
  4.33259      5.4 1.387e+04 4.331e-09
  4.34557      6.5 1.351e+04 3.885e-09
  4.35568      7.8 1.292e+04 3.107e-09
  4.37303      8.7 1.236e+04 2.066e-09
  4.39324      8.1 1.191e+04 1.190e-09
  4.41346      6.0 1.128e+04 6.459e-10
  4.42827      3.2 1.022e+04 4.009e-10
  4.43837      3.0 9.735e+03 2.899e-10
  4.45389      2.6 9.271e+03 2.793e-10
  4.47255      2.7 9.240e+03 2.795e-10
  4.48266      2.8 9.359e+03 3.073e-10
  4.50453      3.5 9.141e+03 2.684e-10
  4.54506      4.9 8.837e+03 2.140e-10
  4.58375      6.0 8.633e+03 1.785e-10
  4.60397      7.5 8.478e+03 1.519e-10
  4.62593      8.6 8.495e+03 1.550e-10
  4.64848      9.6 8.664e+03 1.821e-10
  4.66869      9.8 8.772e+03 1.893e-10
  4.70680     10.5 9.190e+03 2.665e-10
  4.73702     11.1 9.403e+03 3.391e-10
  4.75714     11.2 9.657e+03 4.266e-10
  4.76917     11.3 1.021e+04 6.843e-10
  4.77928     12.0 1.007e+04 6.045e-10
  4.79758     12.4 1.066e+04 9.493e-10
  4.81391     13.3 1.123e+04 1.338e-09
  4.82402     13.4 1.118e+04 1.275e-09
  4.83801     14.3 1.159e+04 1.513e-09
  4.85187     14.5 1.179e+04 1.539e-09
  4.86198     15.4 1.184e+04 1.604e-09
  4.87844     15.4 1.195e+04 1.597e-09
  4.89866     15.2 1.203e+04 1.571e-09
  4.91888     14.7 1.207e+04 1.525e-09
  4.93457     14.3 1.199e+04 1.457e-09
  4.94467     15.5 1.221e+04 1.658e-09
  4.95931     15.2 1.215e+04 1.589e-09
  4.97953     15.1 1.205e+04 1.465e-09
  4.99984     15.1 1.170e+04 1.192e-09
  5.03026     14.5 1.131e+04 8.570e-10
  5.07070     12.9 1.083e+04 6.512e-10
  5.10016     11.0 1.081e+04 7.125e-10
  5.12038     13.6 1.106e+04 7.526e-10
  5.15156     11.9 1.081e+04 7.984e-10
  5.19200     12.1 1.060e+04 7.792e-10
  5.23243     13.0 1.008e+04 6.260e-10
  5.26556     14.3 9.420e+03 3.733e-10
  5.28577     15.7 9.479e+03 3.897e-10
  5.31098     16.8 8.944e+03 2.200e-10
  5.33120     17.3 9.195e+03 3.002e-10
  5.35373     18.2 8.719e+03 1.484e-10
  5.39416     18.6 8.355e+03 8.076e-11
  5.43095     19.4 8.074e+03 6.324e-11
  5.45117     21.1 8.349e+03 8.228e-11
  5.47503     22.1 8.167e+03 7.113e-11
  5.51546     23.3 8.044e+03 6.947e-11
  5.55590     24.8 8.033e+03 6.590e-11
  5.59633     26.3 8.005e+03 5.992e-11
  5.63676     28.2 8.040e+03 4.347e-11
  5.66245     28.9 7.969e+03 3.866e-11
  5.68267     28.5 8.002e+03 4.600e-11
  5.71763     29.4 7.923e+03 4.531e-11
  5.75806     30.4 7.925e+03 4.634e-11
  5.78197     31.4 7.977e+03 5.085e-11
  5.80218     31.9 8.031e+03 5.103e-11
  5.83893     32.7 8.203e+03 6.717e-11
  5.87937     33.5 8.381e+03 9.657e-11
  5.91980     34.6 8.579e+03 1.403e-10
  5.94736     35.8 8.798e+03 1.928e-10
  5.96758     36.4 8.889e+03 2.236e-10
  5.99371     37.5 9.065e+03 2.338e-10
  6.01393     37.3 8.932e+03 2.116e-10
  6.04110     38.1 8.933e+03 2.056e-10
  6.08153     38.9 8.882e+03 1.848e-10
  6.11276     39.7 8.780e+03 1.567e-10
  6.13298     40.0 8.707e+03 1.502e-10
  6.16240     40.8 8.599e+03 1.255e-10
  6.20283     41.6 8.473e+03 1.078e-10
  6.24327     42.6 8.426e+03 1.060e-10
  6.27816     43.7 8.441e+03 1.094e-10
  6.29837     44.2 8.395e+03 1.043e-10
  6.32413     45.2 8.453e+03 1.168e-10
  6.34518     46.2 8.657e+03 1.571e-10
  6.36540     46.0 8.749e+03 1.722e-10
  6.40500     46.9 9.195e+03 2.752e-10
  6.44355     47.8 9.716e+03 4.344e-10
  6.46377     48.3 9.547e+03 3.996e-10
  6.48587     49.2 1.003e+04 5.530e-10
  6.52630     50.0 1.036e+04 6.500e-10
  6.56673     50.7 1.058e+04 6.935e-10
  6.60717     51.4 1.078e+04 7.417e-10
  6.62917     52.0 1.111e+04 8.821e-10
  6.64939     53.3 1.135e+04 1.032e-09
  6.67643     53.9 1.196e+04 1.453e-09
  6.69665     54.1 1.178e+04 1.439e-09
  6.71177     54.2 1.216e+04 1.704e-09
  6.72178     54.5 1.242e+04 1.950e-09
  6.73838     55.0 1.277e+04 2.327e-09
  6.75860     55.1 1.303e+04 2.650e-09
  6.77881     55.5 1.331e+04 2.839e-09
  6.79437     55.7 1.337e+04 2.755e-09
  6.80448     56.0 1.440e+04 4.607e-09
  6.81925     56.1 1.452e+04 4.231e-09
  6.83946     56.0 1.472e+04 3.471e-09
  6.85197     55.6 1.488e+04 2.601e-09
  6.86208     54.9 1.427e+04 3.048e-09
  6.87707     54.5 1.457e+04 2.622e-09
  6.88718     54.5 1.556e+04 5.172e-09
  6.90011     54.1 1.569e+04 4.089e-09
  6.92033     53.6 1.532e+04 2.757e-09
  6.94055     52.7 1.411e+04 1.669e-09
  6.95987     51.3 1.163e+04 7.379e-10
  6.96997     52.4 1.340e+04 1.515e-09
  6.98098     51.6 1.200e+04 9.663e-10
  7.00759     50.7 1.081e+04 6.112e-10
  7.02781     51.0 1.108e+04 6.889e-10
  7.05184     51.0 1.074e+04 6.217e-10
  7.09237     51.2 1.037e+04 4.752e-10
  7.12536     52.0 1.028e+04 3.917e-10
  7.14558     52.4 1.028e+04 4.019e-10
  7.17323     53.3 1.030e+04 3.347e-10
  7.21367     54.0 1.038e+04 3.212e-10
  7.25410     54.6 1.042e+04 3.257e-10
  7.29076     55.0 1.047e+04 3.577e-10
  7.31097     55.8 1.030e+04 3.129e-10
  7.33497     56.5 1.023e+04 3.432e-10
  7.35916     57.1 1.026e+04 3.898e-10
  7.37937     56.7 1.028e+04 4.391e-10
  7.41583     56.9 1.059e+04 6.177e-10
  7.45616     56.8 1.109e+04 8.926e-10
  7.49659     57.7 1.171e+04 1.086e-09
  7.52469     57.1 1.204e+04 1.310e-09
  7.53470     57.2 1.207e+04 1.298e-09
  7.54705     56.6 1.214e+04 1.319e-09
  7.55888     55.7 1.206e+04 1.281e-09
  7.56898     56.5 1.278e+04 1.588e-09
  7.58748     55.4 1.257e+04 1.376e-09
  7.60770     53.6 1.197e+04 1.205e-09
  7.62791     51.8 1.160e+04 1.192e-09
  7.64157     50.6 1.155e+04 1.226e-09
  7.65168     51.4 1.153e+04 1.211e-09
  7.66835     50.4 1.135e+04 1.196e-09
  7.68856     50.1 1.131e+04 1.188e-09
  7.70032     50.1 1.112e+04 1.109e-09
  7.71053     50.5 1.040e+04 7.080e-10
  7.73930     50.9 9.804e+03 5.528e-10
  7.77974     51.6 9.191e+03 3.583e-10
  7.80717     52.3 8.548e+03 2.057e-10
  7.82738     53.2 8.458e+03 1.907e-10
  7.86060     53.6 7.929e+03 1.227e-10
  7.90104     54.7 7.820e+03 1.165e-10
  7.94147     56.3 7.820e+03 1.188e-10
  7.97256     58.1 7.863e+03 1.287e-10
  7.99278     58.6 7.918e+03 1.307e-10
  8.02166     60.1 8.058e+03 1.488e-10
  8.04188     60.5 8.216e+03 1.859e-10
  8.06277     61.9 8.386e+03 2.193e-10
  8.10320     63.2 8.563e+03 2.529e-10
  8.13796     64.4 8.767e+03 2.936e-10
  8.15808     64.3 9.167e+03 3.935e-10
  8.17377     64.6 9.195e+03 4.021e-10
  8.19398     64.9 9.308e+03 4.423e-10
  8.20731     65.2 9.591e+03 5.340e-10
  8.21742     65.6 9.484e+03 5.297e-10
  8.23057     65.8 9.908e+03 6.407e-10
  8.24068     64.8 1.077e+04 8.748e-10
  8.25463     64.3 1.153e+04 1.187e-09
  8.27485     63.9 1.223e+04 1.648e-09
  8.29507     63.5 1.283e+04 2.245e-09
  8.31327     63.3 1.327e+04 2.945e-09
  8.32338     62.4 1.358e+04 3.575e-09
  8.33550     62.6 1.384e+04 4.184e-09
  8.35572     62.9 1.415e+04 4.749e-09
  8.37294     63.4 1.441e+04 5.658e-09
  8.38305     63.7 1.431e+04 5.369e-09
  8.39597     64.7 1.451e+04 5.313e-09
  8.40608     64.9 1.383e+04 3.433e-09
  8.41637     65.3 1.385e+04 2.872e-09
  8.43658     64.9 1.361e+04 2.203e-09
  8.45680     64.1 1.300e+04 1.595e-09
  8.47702     63.3 1.213e+04 1.144e-09
  8.48878     62.5 1.131e+04 8.506e-10
  8.49889     61.2 1.005e+04 5.823e-10
  8.51745     61.6 9.929e+03 5.278e-10
  8.53767     62.2 9.953e+03 5.187e-10
  8.54867     62.8 1.003e+04 5.256e-10
  8.55878     62.3 9.486e+03 3.926e-10
  8.57148     62.7 9.546e+03 4.071e-10
  8.58158     62.8 9.345e+03 3.457e-10
  8.59832     62.9 9.466e+03 3.688e-10
  8.61853     62.8 9.711e+03 4.330e-10
  8.63875     62.7 1.017e+04 5.757e-10
  8.65417     62.8 1.074e+04 8.207e-10
  8.66428     63.4 1.020e+04 5.266e-10
  8.67918     63.6 1.075e+04 6.951e-10
  8.69940     64.0 1.123e+04 8.802e-10
  8.71430     64.3 1.138e+04 9.565e-10
  8.72441     63.3 1.062e+04 6.076e-10
  8.73687     63.5 1.070e+04 6.523e-10
  8.74698     64.0 1.036e+04 5.099e-10
  8.76005     64.2 1.045e+04 5.328e-10
  8.78027     64.5 1.036e+04 5.012e-10
  8.80048     64.6 1.027e+04 4.678e-10
  8.81967     65.1 1.006e+04 4.024e-10
  8.83998     65.6 9.678e+03 3.209e-10
  8.87144     66.8 9.591e+03 2.745e-10
  8.91187     68.3 9.536e+03 2.220e-10
  8.95230     70.0 9.582e+03 1.883e-10
  8.98516     72.0 9.619e+03 1.874e-10
  9.00538     72.9 9.574e+03 1.972e-10
  9.03317     74.8 9.656e+03 2.036e-10
  9.05586     76.3 9.894e+03 2.395e-10
  9.07607     76.8 1.005e+04 2.827e-10
  9.11404     77.7 1.038e+04 3.490e-10
  9.14427     78.6 1.058e+04 4.198e-10
  9.16048     79.3 1.075e+04 4.880e-10
  9.17058     80.0 1.059e+04 4.441e-10
  9.18460     80.9 1.081e+04 5.149e-10
  9.20482     81.5 1.100e+04 5.651e-10
  9.22129     81.8 1.117e+04 5.816e-10
  9.23140     81.8 1.117e+04 5.723e-10
  9.24317     81.9 1.121e+04 5.716e-10
  9.25328     82.7 1.119e+04 5.571e-10
  9.26547     82.8 1.120e+04 5.442e-10
  9.28568     82.8 1.120e+04 5.430e-10
  9.31586     82.0 1.137e+04 6.168e-10
  9.33618     84.1 1.123e+04 5.581e-10
  9.35664     83.8 1.159e+04 7.575e-10
  9.38711     83.5 1.193e+04 1.025e-09
  9.40733     82.5 1.273e+04 1.627e-09
  9.43751     82.6 1.265e+04 1.644e-09
  9.47794     83.2 1.205e+04 1.221e-09
  9.50157     84.0 1.104e+04 5.079e-10
  9.52179     86.0 1.149e+04 6.386e-10
  9.55881     86.0 1.024e+04 1.954e-10
  9.59924     85.0 9.455e+03 9.602e-11
  9.63967     85.2 9.410e+03 9.678e-11
  9.66697     85.9 9.395e+03 1.103e-10
  9.68719     87.5 9.690e+03 1.168e-10
  9.71836     88.3 9.811e+03 1.643e-10
  9.73858     87.5 1.006e+04 2.802e-10
  9.76097     88.6 1.038e+04 4.552e-10
  9.80141     89.9 1.065e+04 6.492e-10
  9.83237     91.1 1.081e+04 7.207e-10
  9.85258     92.0 1.131e+04 8.682e-10
  9.88227     92.8 1.129e+04 8.599e-10
  9.92271     93.6 1.114e+04 7.894e-10
  9.96314     94.7 1.082e+04 6.309e-10
  9.99777     96.0 1.045e+04 4.518e-10
 10.01798     96.6 1.043e+04 5.005e-10
 10.04401     98.0 1.006e+04 3.195e-10
 10.06984     99.4 9.825e+03 2.106e-10
 10.09005     98.1 9.532e+03 2.023e-10
 10.12487     99.8 9.414e+03 2.008e-10
 10.16316    101.9 9.384e+03 2.055e-10
 10.18338    102.6 9.265e+03 1.831e-10
 10.20574    104.9 9.245e+03 1.876e-10
 10.24617    107.2 9.275e+03 1.884e-10
 10.28661    109.4 9.302e+03 1.850e-10
 10.32704    111.7 9.354e+03 1.734e-10
 10.34878    113.9 9.417e+03 1.578e-10
 10.36899    114.3 9.287e+03 1.006e-10
 10.40109    116.4 9.322e+03 9.911e-11
 10.42131    115.9 9.330e+03 1.014e-10
 10.44834    117.9 9.307e+03 1.009e-10
 10.48877    120.0 9.297e+03 1.016e-10
 10.51417    122.1 9.298e+03 1.040e-10
 10.53439    122.9 9.235e+03 9.711e-11
 10.56964    125.0 9.309e+03 1.003e-10
 10.61007    127.1 9.369e+03 1.047e-10
 10.65051    129.1 9.422e+03 1.128e-10
 10.67957    131.0 9.486e+03 1.275e-10
 10.69979    131.6 9.515e+03 1.273e-10
 10.73137    133.4 9.621e+03 1.524e-10
 10.75256    135.2 9.773e+03 1.909e-10
 10.77278    134.7 9.726e+03 1.623e-10
 10.81224    136.4 9.867e+03 1.853e-10
 10.84497    137.9 9.996e+03 2.132e-10
 10.86519    138.2 1.004e+04 2.368e-10
 10.89311    139.5 1.012e+04 2.777e-10
 10.93354    140.8 1.022e+04 3.184e-10
 10.97397    141.8 1.032e+04 3.277e-10
 11.01037    142.8 1.032e+04 3.232e-10
 11.03058    143.2 1.066e+04 5.594e-10
 11.05484    144.3 1.068e+04 5.511e-10
 11.08381    145.4 1.066e+04 5.077e-10
 11.10403    145.2 1.036e+04 3.790e-10
 11.13571    146.4 1.028e+04 3.263e-10
 11.17576    147.6 1.014e+04 2.649e-10
 11.19598    148.1 1.110e+04 7.543e-10
 11.21658    149.0 1.096e+04 6.340e-10
 11.25701    149.9 1.067e+04 4.725e-10
 11.29744    151.0 1.027e+04 3.180e-10
 11.33788    152.4 9.840e+03 2.028e-10
 11.36138    153.9 9.468e+03 1.322e-10
 11.38159    154.1 9.909e+03 2.490e-10
 11.41507    155.6 9.444e+03 1.399e-10
 11.43528    156.0 9.658e+03 1.901e-10
 11.45918    157.5 9.491e+03 1.388e-10
 11.49961    159.2 9.412e+03 1.157e-10
 11.52678    161.1 9.339e+03 1.055e-10
 11.54699    160.7 9.583e+03 1.194e-10
 11.58048    162.5 9.460e+03 1.072e-10
 11.62091    164.4 9.298e+03 1.023e-10
 11.66134    166.3 9.242e+03 1.022e-10
 11.69217    168.1 9.237e+03 1.029e-10
 11.71239    167.7 9.352e+03 1.227e-10
 11.74221    169.3 9.350e+03 1.276e-10
 11.76654    170.6 9.398e+03 1.456e-10
 11.78675    170.7 9.429e+03 1.663e-10
 11.82308    171.7 9.672e+03 2.103e-10
 11.85757    172.5 1.004e+04 2.840e-10
 11.87779    171.0 1.051e+04 3.562e-10
 11.90394    171.1 1.095e+04 4.879e-10
 11.94438    170.9 1.113e+04 5.648e-10
 11.98481    170.7 1.111e+04 5.607e-10
 12.02297    170.4 1.091e+04 5.102e-10
 12.04318    169.4 1.096e+04 7.028e-10
 12.06568    169.6 1.059e+04 5.548e-10
 12.09779    169.9 1.017e+04 4.083e-10
 12.11801    168.9 9.890e+03 3.579e-10
 12.14654    169.5 9.503e+03 2.902e-10
 12.18698    170.5 9.220e+03 2.476e-10
