# Columns:
#   distance along LOS (in CHIMPs)
#   peculiar velocity  (in km/s)
#   temperature (K)
#   HI number density
# pos=(208.257,216.996,32.1133), angles=(1.52517,4.69363)
  0.00955    127.4 1.220e+04 1.017e-09
  0.02888    127.2 1.211e+04 9.409e-10
  0.03944    127.1 1.202e+04 8.566e-10
  0.04921    127.7 1.201e+04 8.264e-10
  0.05885    127.7 1.194e+04 7.168e-10
  0.06863    128.3 1.182e+04 6.211e-10
  0.08755    128.1 1.176e+04 5.248e-10
  0.10710    127.9 1.175e+04 4.685e-10
  0.13653    127.3 1.180e+04 4.032e-10
  0.17574    126.8 1.176e+04 3.122e-10
  0.21485    126.8 1.148e+04 2.634e-10
  0.25396    127.1 1.106e+04 2.651e-10
  0.29307    127.7 1.098e+04 2.709e-10
  0.33218    128.9 1.082e+04 2.970e-10
  0.37129    130.2 1.082e+04 3.346e-10
  0.41040    131.6 1.089e+04 3.834e-10
  0.44929    132.9 1.096e+04 4.025e-10
  0.46885    134.3 1.108e+04 4.729e-10
  0.48862    135.5 1.116e+04 4.907e-10
  0.52773    136.5 1.113e+04 4.652e-10
  0.56684    137.4 1.099e+04 4.059e-10
  0.60595    138.2 1.078e+04 3.505e-10
  0.64506    139.0 1.061e+04 3.339e-10
  0.68417    139.6 1.061e+04 3.485e-10
  0.72328    139.9 1.069e+04 4.165e-10
  0.76239    139.9 1.089e+04 5.504e-10
  0.80150    139.9 1.118e+04 7.451e-10
  0.84061    139.8 1.143e+04 9.635e-10
  0.87972    139.5 1.152e+04 1.049e-09
  0.91883    139.1 1.148e+04 1.023e-09
  0.95794    139.1 1.123e+04 8.917e-10
  0.99705    139.3 1.081e+04 6.591e-10
  1.03616    139.6 1.029e+04 4.050e-10
  1.07527    139.9 9.728e+03 2.191e-10
  1.11438    140.1 9.170e+03 1.256e-10
  1.15349    140.6 8.831e+03 1.046e-10
  1.19260    141.6 8.804e+03 1.045e-10
  1.23171    142.8 8.772e+03 1.091e-10
  1.27082    143.8 8.821e+03 1.290e-10
  1.30773    144.6 9.042e+03 1.654e-10
  1.32728    146.3 9.750e+03 2.609e-10
  1.34904    146.4 1.002e+04 3.351e-10
  1.37828    146.2 9.996e+03 3.448e-10
  1.39774    146.1 1.002e+04 3.834e-10
  1.41729    146.2 1.015e+04 4.702e-10
  1.43685    146.2 1.038e+04 5.933e-10
  1.45640    146.3 1.066e+04 7.440e-10
  1.47596    146.3 1.097e+04 9.153e-10
  1.49551    146.1 1.128e+04 1.097e-09
  1.51507    145.9 1.154e+04 1.268e-09
  1.53462    145.6 1.174e+04 1.408e-09
  1.55418    145.0 1.192e+04 1.530e-09
  1.57373    143.9 1.227e+04 1.727e-09
  1.59329    142.0 1.299e+04 2.186e-09
  1.61284    139.2 1.428e+04 3.219e-09
  1.63240    135.8 1.593e+04 5.188e-09
  1.65195    131.8 1.766e+04 8.063e-09
  1.67151    127.7 1.886e+04 9.893e-09
  1.69106    122.9 1.899e+04 9.669e-09
  1.71062    118.3 1.870e+04 7.806e-09
  1.73017    113.8 1.763e+04 4.644e-09
  1.74653    108.4 1.575e+04 2.289e-09
  1.75630    111.5 1.679e+04 3.181e-09
  1.76928    104.3 1.399e+04 1.329e-09
  1.78884     97.9 1.214e+04 1.003e-09
  1.80839     94.3 1.157e+04 8.763e-10
  1.82795     92.5 1.135e+04 7.869e-10
  1.85738     90.9 1.096e+04 5.730e-10
  1.89658     88.8 1.036e+04 3.123e-10
  1.93569     86.1 9.792e+03 1.654e-10
  1.97480     83.6 9.274e+03 1.305e-10
  2.01392     81.9 9.224e+03 1.313e-10
  2.05303     80.6 9.206e+03 1.384e-10
  2.09214     79.5 9.243e+03 1.510e-10
  2.12793     78.5 9.316e+03 1.600e-10
  2.14749     78.9 9.318e+03 1.602e-10
  2.16616     78.0 9.391e+03 1.635e-10
  2.18572     79.8 9.310e+03 1.540e-10
  2.20947     79.1 9.378e+03 1.602e-10
  2.24858     78.4 9.477e+03 1.716e-10
  2.28769     77.6 9.619e+03 1.904e-10
  2.32680     76.8 9.808e+03 2.115e-10
  2.36591     75.7 1.003e+04 2.330e-10
  2.40502     74.1 1.030e+04 2.636e-10
  2.43425     72.6 1.050e+04 2.914e-10
  2.45371     70.8 1.072e+04 3.575e-10
  2.47326     69.0 1.080e+04 5.032e-10
  2.49282     68.3 1.092e+04 7.156e-10
  2.51237     68.4 1.112e+04 9.261e-10
  2.53193     68.4 1.128e+04 9.714e-10
  2.55148     68.2 1.123e+04 9.482e-10
  2.57104     68.1 1.106e+04 8.558e-10
  2.59059     68.2 1.079e+04 7.124e-10
  2.60496     68.1 1.052e+04 5.670e-10
  2.61474     68.5 1.050e+04 5.901e-10
  2.63958     68.1 1.028e+04 4.303e-10
  2.67879     68.0 9.919e+03 3.131e-10
  2.71790     68.4 9.817e+03 2.844e-10
  2.75701     69.2 9.850e+03 2.841e-10
  2.78624     70.0 9.820e+03 2.772e-10
  2.80570     70.3 9.940e+03 2.934e-10
  2.82525     70.5 1.009e+04 3.230e-10
  2.84481     70.7 1.027e+04 3.728e-10
  2.86436     70.9 1.054e+04 4.689e-10
  2.88392     70.8 1.095e+04 6.217e-10
  2.90347     70.6 1.145e+04 8.725e-10
  2.92303     70.5 1.203e+04 1.285e-09
  2.94258     70.4 1.265e+04 1.921e-09
  2.96214     70.5 1.322e+04 2.763e-09
  2.98169     70.9 1.372e+04 3.667e-09
  3.00125     71.2 1.414e+04 3.845e-09
  3.02080     71.4 1.413e+04 3.706e-09
  3.03418     71.8 1.402e+04 3.125e-09
  3.04396     71.8 1.322e+04 1.521e-09
  3.05991     71.2 1.257e+04 9.790e-10
  3.07947     70.5 1.218e+04 8.067e-10
  3.10890     69.3 1.139e+04 5.328e-10
  3.14811     69.2 1.076e+04 4.397e-10
  3.18722     69.6 1.073e+04 4.433e-10
  3.22633     70.5 1.075e+04 4.713e-10
  3.26544     71.4 1.077e+04 4.947e-10
  3.30455     72.4 1.072e+04 4.848e-10
  3.34366     73.5 1.055e+04 4.396e-10
  3.38277     74.7 1.032e+04 3.781e-10
  3.42188     76.0 1.012e+04 3.253e-10
  3.46099     77.4 9.971e+03 2.886e-10
  3.50010     78.9 9.877e+03 2.658e-10
  3.53921     80.5 9.823e+03 2.536e-10
  3.57832     82.1 9.805e+03 2.530e-10
  3.61743     83.7 9.807e+03 2.568e-10
  3.65654     85.1 9.851e+03 2.592e-10
  3.69565     86.3 9.881e+03 2.580e-10
  3.73476     87.2 9.894e+03 2.498e-10
  3.77387     87.7 9.862e+03 2.251e-10
  3.81298     88.2 9.773e+03 1.864e-10
  3.85209     88.7 9.670e+03 1.472e-10
  3.88303     89.3 9.572e+03 1.141e-10
  3.90259     89.1 9.649e+03 1.420e-10
  3.93031     90.2 9.572e+03 1.088e-10
  3.96942     91.5 9.539e+03 7.943e-11
  4.00853     93.0 9.552e+03 5.719e-11
  4.04764     94.4 9.564e+03 4.336e-11
  4.08675     96.1 9.499e+03 3.883e-11
  4.12586     98.0 9.513e+03 3.890e-11
  4.16497     99.9 9.609e+03 4.099e-11
  4.20408    101.9 9.716e+03 5.027e-11
  4.22615    104.0 9.732e+03 6.714e-11
  4.24571    104.8 9.649e+03 5.478e-11
  4.28230    106.9 9.682e+03 7.250e-11
  4.32141    109.0 9.703e+03 9.409e-11
  4.36052    111.2 9.736e+03 1.165e-10
  4.39963    113.3 9.789e+03 1.365e-10
  4.43874    115.4 9.866e+03 1.525e-10
  4.47785    117.4 9.992e+03 1.663e-10
  4.51696    119.1 1.015e+04 1.829e-10
  4.55607    120.6 1.033e+04 2.145e-10
  4.59518    121.9 1.053e+04 2.752e-10
  4.63429    123.0 1.084e+04 3.965e-10
  4.67340    124.1 1.122e+04 5.963e-10
  4.71251    125.1 1.152e+04 8.076e-10
  4.74146    125.9 1.156e+04 8.669e-10
  4.76102    125.9 1.138e+04 8.041e-10
  4.79073    126.6 1.133e+04 7.876e-10
  4.82984    127.5 1.109e+04 6.990e-10
  4.86895    128.8 1.059e+04 4.963e-10
  4.90806    130.3 1.001e+04 2.876e-10
  4.94717    132.0 9.495e+03 1.455e-10
  4.98628    133.4 9.132e+03 7.379e-11
  5.02539    134.8 8.728e+03 5.001e-11
  5.06450    136.4 8.471e+03 4.759e-11
  5.10361    138.3 8.444e+03 4.700e-11
  5.14272    140.5 8.448e+03 4.723e-11
  5.18183    142.6 8.451e+03 4.895e-11
  5.22094    144.7 8.442e+03 5.369e-11
  5.26005    146.7 8.425e+03 6.193e-11
  5.29916    148.8 8.421e+03 7.380e-11
  5.33827    150.9 8.445e+03 8.877e-11
  5.37738    153.0 8.487e+03 1.075e-10
  5.41649    155.1 8.565e+03 1.295e-10
  5.45560    157.2 8.659e+03 1.525e-10
  5.49471    159.2 8.778e+03 1.768e-10
  5.53382    161.0 8.926e+03 2.061e-10
  5.57293    162.7 9.110e+03 2.457e-10
  5.59990    164.1 9.305e+03 2.965e-10
  5.61945    163.9 9.149e+03 2.614e-10
  5.65115    165.1 9.329e+03 3.131e-10
  5.69026    165.7 9.379e+03 3.428e-10
  5.71950    166.5 9.380e+03 3.675e-10
  5.73895    167.3 9.470e+03 4.036e-10
  5.75851    167.8 9.668e+03 4.539e-10
  5.77806    167.9 9.929e+03 5.134e-10
  5.79762    167.9 1.022e+04 5.860e-10
  5.81717    168.0 1.049e+04 6.729e-10
  5.83673    168.1 1.067e+04 7.740e-10
  5.85628    168.1 1.090e+04 9.146e-10
  5.87584    168.0 1.165e+04 1.203e-09
  5.89539    167.4 1.341e+04 1.817e-09
  5.91495    166.6 1.559e+04 2.886e-09
  5.93450    165.8 1.714e+04 3.975e-09
  5.94912    166.2 1.836e+04 4.665e-09
  5.95885    165.7 1.990e+04 6.232e-09
  5.96863    164.7 2.059e+04 8.924e-09
  5.97841    164.4 2.032e+04 1.271e-08
  5.98818    164.5 1.979e+04 1.750e-08
  5.99796    164.9 1.941e+04 2.304e-08
  6.00774    165.2 1.941e+04 2.821e-08
  6.01752    165.3 1.981e+04 3.123e-08
  6.02729    165.3 2.071e+04 3.090e-08
  6.03371    165.1 2.160e+04 2.941e-08
  6.03860    166.5 1.984e+04 3.682e-08
  6.04685    166.6 2.095e+04 3.586e-08
  6.05663    166.5 2.210e+04 3.362e-08
  6.06640    166.1 2.352e+04 2.811e-08
  6.07618    165.3 2.621e+04 1.894e-08
  6.08596    163.7 2.925e+04 1.063e-08
  6.09574    161.4 3.075e+04 5.625e-09
  6.11045    158.8 3.199e+04 3.161e-09
  6.13006    150.9 2.703e+04 9.631e-10
  6.14961    140.6 1.329e+04 6.055e-10
  6.16917    133.4 1.030e+04 5.847e-10
  6.18872    128.8 1.008e+04 5.500e-10
  6.20828    124.6 1.000e+04 5.202e-10
  6.22783    120.8 9.824e+03 4.753e-10
  6.24739    117.7 9.532e+03 4.180e-10
  6.26694    116.1 9.226e+03 3.840e-10
  6.28650    116.0 9.200e+03 3.850e-10
  6.30462    116.2 9.282e+03 3.973e-10
  6.31440    113.7 1.020e+04 5.207e-10
  6.32561    113.3 1.160e+04 7.733e-10
  6.34516    113.8 1.275e+04 1.206e-09
  6.35978    115.6 1.303e+04 1.477e-09
  6.36951    116.6 1.313e+04 1.585e-09
  6.37928    118.1 1.344e+04 1.905e-09
  6.38906    119.3 1.366e+04 2.208e-09
  6.39884    120.9 1.404e+04 2.665e-09
  6.40862    122.6 1.480e+04 3.275e-09
  6.41839    124.2 1.662e+04 4.324e-09
  6.42817    124.2 2.201e+04 6.276e-09
  6.43795    123.7 3.034e+04 1.294e-08
  6.44773    124.6 3.156e+04 5.190e-08
  6.45750    127.5 2.841e+04 2.139e-07
  6.46290    128.5 2.775e+04 3.932e-07
  6.46532    126.5 2.196e+04 1.339e-06
  6.46968    127.2 2.068e+04 2.475e-06
  6.47457    128.5 1.875e+04 9.670e-06
  6.47946    129.0 1.416e+04 2.184e-04
  6.48434    126.9 1.084e+04 6.815e-03
  6.48800    121.8 1.096e+04 6.865e-03
  6.49043    116.4 1.104e+04 6.209e-03
  6.49287    113.0 1.181e+04 4.308e-03
  6.49532    110.7 1.281e+04 1.724e-03
  6.49900    110.3 1.488e+04 1.622e-04
  6.50390    111.0 1.953e+04 8.946e-06
  6.50879    109.9 3.143e+04 6.297e-07
  6.51615    100.5 4.406e+04 6.412e-08
  6.52595     89.4 5.306e+04 1.603e-08
  6.53572     79.0 5.119e+04 5.743e-09
  6.54550     73.4 4.392e+04 3.601e-09
  6.56022     71.9 3.063e+04 7.023e-10
  6.57982     69.3 1.550e+04 4.052e-10
  6.59938     68.9 1.219e+04 3.065e-10
  6.62881     70.4 8.880e+03 1.262e-10
  6.66801     71.8 7.603e+03 1.287e-10
  6.70712     72.7 7.642e+03 1.489e-10
  6.74623     72.5 8.461e+03 2.599e-10
  6.78534     71.6 9.700e+03 4.905e-10
  6.82445     69.7 1.064e+04 7.191e-10
  6.86356     67.0 1.113e+04 7.114e-10
  6.90267     63.9 1.116e+04 5.940e-10
  6.94178     61.3 1.087e+04 4.286e-10
  6.98089     58.9 1.037e+04 3.428e-10
  7.02000     58.1 9.954e+03 3.129e-10
  7.05911     58.5 9.944e+03 3.329e-10
  7.09822     58.9 1.007e+04 3.775e-10
  7.13733     59.3 1.046e+04 4.697e-10
  7.17645     60.0 1.078e+04 5.846e-10
  7.20568     59.9 1.104e+04 6.804e-10
  7.22514     59.7 1.127e+04 7.448e-10
  7.24469     59.2 1.176e+04 9.047e-10
  7.26425     58.7 1.226e+04 1.136e-09
  7.28380     58.2 1.273e+04 1.457e-09
  7.30336     57.9 1.314e+04 1.791e-09
  7.31657     57.5 1.330e+04 2.047e-09
  7.33622     58.5 1.283e+04 1.565e-09
  7.37200     58.5 1.260e+04 1.518e-09
  7.41111     58.9 1.230e+04 1.347e-09
  7.44034     59.7 1.216e+04 1.280e-09
  7.45980     59.8 1.185e+04 1.109e-09
  7.47935     59.8 1.151e+04 8.754e-10
  7.49891     59.7 1.121e+04 6.945e-10
  7.51846     59.7 1.101e+04 5.953e-10
  7.53802     59.7 1.092e+04 5.776e-10
  7.55757     59.7 1.093e+04 6.124e-10
  7.57713     59.8 1.108e+04 7.120e-10
  7.59668     59.9 1.135e+04 8.959e-10
  7.61624     59.8 1.179e+04 1.193e-09
  7.63579     59.6 1.234e+04 1.627e-09
  7.65535     59.4 1.293e+04 2.198e-09
  7.67490     59.4 1.345e+04 2.807e-09
  7.69446     59.5 1.361e+04 3.119e-09
  7.71401     59.9 1.350e+04 2.914e-09
  7.73357     60.4 1.315e+04 2.283e-09
  7.74579     60.5 1.267e+04 1.484e-09
  7.75557     61.0 1.317e+04 2.120e-09
  7.77268     60.8 1.269e+04 1.241e-09
  7.79223     59.4 1.211e+04 6.933e-10
  7.81179     57.1 1.120e+04 4.276e-10
  7.83134     55.3 1.038e+04 3.429e-10
  7.85090     54.6 1.004e+04 3.240e-10
  7.88033     54.4 1.002e+04 3.311e-10
  7.91954     54.9 1.002e+04 3.639e-10
  7.95865     55.4 1.002e+04 3.756e-10
  7.99776     55.6 9.995e+03 3.602e-10
  8.03687     55.6 9.976e+03 3.302e-10
  8.07598     55.3 9.930e+03 2.998e-10
  8.11509     54.5 9.929e+03 2.912e-10
  8.14432     53.5 1.004e+04 3.107e-10
  8.16378     52.4 1.018e+04 3.410e-10
  8.17501     50.9 1.041e+04 4.620e-10
  8.18478     51.8 1.042e+04 4.492e-10
  8.20289     50.6 1.065e+04 6.450e-10
  8.22244     50.4 1.088e+04 8.264e-10
  8.24200     50.0 1.115e+04 8.635e-10
  8.26155     49.2 1.123e+04 8.383e-10
  8.28111     47.7 1.131e+04 7.844e-10
  8.30066     45.7 1.123e+04 7.777e-10
  8.32022     43.9 1.116e+04 8.104e-10
  8.33977     42.9 1.106e+04 8.454e-10
  8.35933     42.0 1.106e+04 8.402e-10
  8.38338     42.7 1.086e+04 7.222e-10
  8.40303     40.8 1.160e+04 1.111e-09
  8.42797     40.8 1.109e+04 7.283e-10
  8.46708     40.0 1.066e+04 5.499e-10
  8.50619     39.8 1.062e+04 5.536e-10
  8.54530     40.1 1.060e+04 5.933e-10
  8.58441     40.9 1.058e+04 6.215e-10
  8.62352     42.0 1.044e+04 5.738e-10
  8.66263     42.5 1.039e+04 5.159e-10
  8.70174     42.4 1.044e+04 5.233e-10
  8.74085     42.0 1.064e+04 6.081e-10
  8.77996     41.8 1.066e+04 6.873e-10
  8.81907     41.9 1.052e+04 6.607e-10
  8.85818     42.4 1.016e+04 5.433e-10
  8.89729     43.0 9.795e+03 4.001e-10
  8.93640     43.6 9.468e+03 3.088e-10
  8.97551     44.5 9.319e+03 2.650e-10
  9.01408     45.8 9.312e+03 2.575e-10
  9.03364     45.9 9.344e+03 2.712e-10
  9.05373     47.3 9.408e+03 2.937e-10
  9.09284     48.6 9.591e+03 3.417e-10
  9.13195     49.7 9.835e+03 4.098e-10
  9.17106     50.6 1.013e+04 4.889e-10
  9.21017     51.0 1.038e+04 5.350e-10
  9.24928     51.1 1.037e+04 5.246e-10
  9.28839     51.4 1.023e+04 4.553e-10
  9.32750     51.9 1.002e+04 3.254e-10
  9.36661     52.2 9.811e+03 2.140e-10
  9.40572     52.4 9.579e+03 1.575e-10
  9.44483     53.1 9.418e+03 1.505e-10
  9.48394     54.2 9.409e+03 1.523e-10
  9.52305     55.5 9.434e+03 1.633e-10
  9.56216     56.8 9.519e+03 1.855e-10
  9.60127     58.0 9.666e+03 2.216e-10
  9.64038     59.1 9.961e+03 2.836e-10
  9.67949     59.8 1.036e+04 3.541e-10
  9.70872     60.0 1.053e+04 4.109e-10
  9.72818     60.1 1.065e+04 4.760e-10
  9.74774     60.4 1.071e+04 5.589e-10
  9.76729     60.8 1.082e+04 6.458e-10
  9.78685     61.2 1.097e+04 7.117e-10
  9.80640     61.7 1.113e+04 7.260e-10
  9.82596     62.1 1.113e+04 7.168e-10
  9.84551     62.5 1.113e+04 6.788e-10
  9.86507     63.0 1.115e+04 6.105e-10
  9.88210     63.1 1.124e+04 5.329e-10
  9.89187     63.5 1.096e+04 5.063e-10
  9.91405     63.9 1.090e+04 4.152e-10
  9.95326     64.6 1.075e+04 3.211e-10
  9.99237     64.7 1.077e+04 3.221e-10
 10.03148     64.5 1.090e+04 3.930e-10
 10.07059     64.6 1.100e+04 5.444e-10
 10.10970     64.8 1.091e+04 5.978e-10
 10.14881     65.2 1.079e+04 5.569e-10
 10.18792     65.5 1.053e+04 4.527e-10
 10.22703     65.8 1.026e+04 3.692e-10
 10.26614     66.2 1.007e+04 3.295e-10
 10.30525     67.0 9.948e+03 3.137e-10
 10.34436     68.0 9.886e+03 3.043e-10
 10.38347     69.0 9.845e+03 2.912e-10
 10.42258     70.0 9.813e+03 2.784e-10
 10.46169     71.0 9.789e+03 2.738e-10
 10.48170     72.0 9.779e+03 2.762e-10
 10.50125     71.6 9.531e+03 2.075e-10
 10.53991     72.7 9.599e+03 2.462e-10
 10.57902     73.7 9.834e+03 3.089e-10
 10.61813     74.3 1.010e+04 3.789e-10
 10.64737     74.2 1.035e+04 4.710e-10
 10.66682     74.1 1.055e+04 5.686e-10
 10.68638     74.0 1.079e+04 6.900e-10
 10.70593     73.9 1.105e+04 8.419e-10
 10.72549     73.8 1.125e+04 9.677e-10
 10.74053     73.6 1.136e+04 1.011e-09
 10.75041     74.1 1.154e+04 1.170e-09
 10.77457     73.3 1.160e+04 1.175e-09
 10.81368     72.3 1.130e+04 9.782e-10
 10.84292     72.1 1.097e+04 8.156e-10
 10.86237     71.8 1.064e+04 6.541e-10
 10.88193     71.0 1.042e+04 5.323e-10
 10.90148     70.1 1.043e+04 5.180e-10
 10.92104     69.1 1.052e+04 5.390e-10
 10.94059     67.6 1.078e+04 6.458e-10
 10.96015     66.2 1.103e+04 8.857e-10
 10.97970     65.5 1.129e+04 1.265e-09
 10.99926     65.6 1.167e+04 1.737e-09
 11.01881     66.0 1.195e+04 2.070e-09
 11.03837     66.3 1.197e+04 2.072e-09
 11.05792     66.5 1.189e+04 1.887e-09
 11.07748     66.4 1.172e+04 1.458e-09
 11.09703     65.5 1.156e+04 1.023e-09
 11.11659     63.2 1.129e+04 7.378e-10
 11.13614     60.7 1.078e+04 6.669e-10
 11.15570     58.8 1.065e+04 6.730e-10
 11.16975     57.7 1.054e+04 7.144e-10
 11.17953     57.4 1.056e+04 7.764e-10
 11.19481     56.9 1.044e+04 7.723e-10
 11.21437     56.7 1.028e+04 7.411e-10
 11.23392     56.4 1.016e+04 6.486e-10
 11.25348     55.5 1.011e+04 5.282e-10
 11.27303     53.6 1.009e+04 4.609e-10
 11.29259     51.6 9.907e+03 4.392e-10
 11.31214     50.0 9.846e+03 4.424e-10
 11.33170     49.0 9.807e+03 4.565e-10
 11.35125     47.8 9.879e+03 5.056e-10
 11.37081     46.8 1.000e+04 5.647e-10
 11.39036     45.4 1.035e+04 6.708e-10
 11.40992     43.9 1.070e+04 8.040e-10
 11.42947     42.4 1.111e+04 9.638e-10
 11.44903     40.5 1.153e+04 1.156e-09
 11.46858     38.0 1.208e+04 1.444e-09
 11.48814     34.8 1.304e+04 1.984e-09
 11.50769     32.7 1.343e+04 2.472e-09
 11.52083     30.5 1.340e+04 2.470e-09
 11.53061     29.8 1.295e+04 1.930e-09
 11.54680     28.8 1.251e+04 1.623e-09
 11.56636     27.2 1.207e+04 1.293e-09
 11.58929     24.6 1.155e+04 9.565e-10
 11.60894     24.6 1.145e+04 8.906e-10
 11.63499     21.7 1.035e+04 6.001e-10
 11.67410     21.2 9.744e+03 4.189e-10
 11.71321     20.7 9.510e+03 2.949e-10
 11.75232     19.7 9.402e+03 2.678e-10
 11.79143     18.5 9.456e+03 3.060e-10
 11.83054     18.0 9.521e+03 3.800e-10
 11.86965     17.9 9.425e+03 3.713e-10
 11.90876     18.1 9.059e+03 2.980e-10
 11.94787     17.7 8.822e+03 2.278e-10
 11.98698     17.5 8.526e+03 1.854e-10
 12.02609     17.8 8.235e+03 1.461e-10
 12.06520     18.1 8.040e+03 1.238e-10
 12.10431     18.4 8.035e+03 1.260e-10
 12.14342     18.8 8.102e+03 1.472e-10
 12.18253     19.6 8.161e+03 1.652e-10
 12.22164     20.8 8.113e+03 1.544e-10
 12.26075     21.6 8.020e+03 1.253e-10
 12.29986     21.8 7.847e+03 1.012e-10
 12.33898     22.0 7.681e+03 9.803e-11
 12.37809     22.7 7.625e+03 1.043e-10
 12.41720     23.8 7.560e+03 1.111e-10
 12.44782     25.1 7.517e+03 1.091e-10
 12.46737     24.6 7.496e+03 1.086e-10
 12.49542     25.8 7.505e+03 1.049e-10
 12.53453     26.7 7.494e+03 9.936e-11
 12.56036     27.5 7.497e+03 9.930e-11
 12.57992     28.1 7.585e+03 1.075e-10
 12.61275     28.8 7.618e+03 1.130e-10
 12.65186     29.5 7.667e+03 1.254e-10
 12.69097     30.3 7.750e+03 1.394e-10
 12.73008     31.0 7.835e+03 1.528e-10
 12.76919     31.5 7.943e+03 1.701e-10
 12.80830     31.9 8.230e+03 2.107e-10
 12.84741     31.7 8.764e+03 2.809e-10
 12.87664     30.7 9.182e+03 3.802e-10
 12.88662     28.4 1.020e+04 6.635e-10
 12.89639     29.4 9.483e+03 4.916e-10
 12.91565     26.9 1.073e+04 8.839e-10
 12.93521     25.4 1.168e+04 1.510e-09
 12.95476     25.2 1.204e+04 2.009e-09
 12.97432     25.2 1.195e+04 1.981e-09
 12.99387     25.0 1.162e+04 1.742e-09
 13.01343     23.9 1.145e+04 1.390e-09
 13.03298     21.2 1.150e+04 1.170e-09
 13.05254     16.4 1.209e+04 1.335e-09
 13.07209     10.9 1.334e+04 2.104e-09
 13.09165      7.7 1.375e+04 3.379e-09
 13.11120      8.0 1.390e+04 4.550e-09
 13.13076      8.3 1.383e+04 4.434e-09
 13.15031      8.9 1.340e+04 3.524e-09
 13.16987      6.9 1.388e+04 2.455e-09
 13.18942      1.2 1.299e+04 1.394e-09
 13.20898     -6.1 1.102e+04 9.281e-10
 13.22853     -8.5 1.122e+04 1.122e-09
 13.24809     -9.8 1.205e+04 1.464e-09
 13.26764    -11.4 1.221e+04 1.638e-09
 13.28720    -13.2 1.185e+04 1.608e-09
 13.30606    -14.2 1.164e+04 1.530e-09
 13.31583    -12.6 1.182e+04 1.676e-09
 13.32631    -13.3 1.174e+04 1.559e-09
 13.34586    -13.9 1.150e+04 1.259e-09
