# Columns:
#   distance along LOS (in CHIMPs)
#   peculiar velocity  (in km/s)
#   temperature (K)
#   HI number density
# pos=(147.091,51.3471,124.92), angles=(2.95505,5.90531)
  0.01374   -104.6 9.713e+03 2.981e-10
  0.04736   -105.1 1.085e+04 6.360e-10
  0.08711   -106.0 1.232e+04 1.421e-09
  0.11683   -106.8 1.322e+04 2.336e-09
  0.13540   -107.7 1.403e+04 3.304e-09
  0.14533   -107.5 1.344e+04 2.492e-09
  0.15649   -108.1 1.387e+04 2.908e-09
  0.17636   -108.8 1.417e+04 3.029e-09
  0.19624   -109.5 1.431e+04 3.028e-09
  0.21400   -110.3 1.444e+04 2.998e-09
  0.22393   -112.4 1.568e+04 2.910e-09
  0.23599   -116.9 1.847e+04 4.141e-09
  0.25168   -122.9 2.087e+04 8.204e-09
  0.26161   -124.4 2.015e+04 3.461e-09
  0.27072   -129.3 2.216e+04 9.277e-09
  0.28061   -133.0 2.247e+04 1.824e-08
  0.29055   -136.1 2.249e+04 3.668e-08
  0.30049   -138.4 2.245e+04 6.257e-08
  0.30972   -141.0 2.256e+04 8.048e-08
  0.31469   -142.1 2.213e+04 6.194e-08
  0.32037   -144.8 2.210e+04 6.541e-08
  0.33030   -147.5 2.163e+04 6.139e-08
  0.34024   -149.8 2.079e+04 4.027e-08
  0.35018   -152.2 1.978e+04 2.174e-08
  0.35979   -155.0 1.836e+04 1.150e-08
  0.36476   -155.4 1.813e+04 1.126e-08
  0.36786   -158.0 1.642e+04 6.828e-09
  0.37283   -156.4 1.669e+04 6.379e-09
  0.37999   -158.2 1.524e+04 4.213e-09
  0.39495   -159.2 1.429e+04 3.131e-09
  0.41487   -160.1 1.299e+04 2.023e-09
  0.43475   -160.7 1.147e+04 1.196e-09
  0.45463   -160.9 1.047e+04 8.198e-10
  0.47430   -160.8 9.987e+03 6.441e-10
  0.48424   -160.2 9.709e+03 4.545e-10
  0.49438   -159.0 9.480e+03 3.931e-10
  0.50578   -158.0 9.367e+03 3.675e-10
  0.51572   -158.1 9.415e+03 3.797e-10
  0.53413   -157.4 9.336e+03 3.715e-10
  0.56404   -156.8 9.277e+03 3.678e-10
  0.59078   -155.8 9.217e+03 3.524e-10
  0.61065   -154.5 9.093e+03 2.683e-10
  0.64364   -153.6 9.038e+03 2.788e-10
  0.68340   -153.3 9.345e+03 3.932e-10
  0.72315   -153.2 1.028e+04 6.452e-10
  0.76290   -153.0 1.117e+04 1.041e-09
  0.78783   -152.8 1.182e+04 1.460e-09
  0.79767   -152.8 1.172e+04 1.410e-09
  0.81240   -152.8 1.208e+04 1.639e-09
  0.82314   -152.9 1.236e+04 1.796e-09
  0.83308   -152.1 1.239e+04 2.058e-09
  0.85215   -152.2 1.250e+04 2.147e-09
  0.87202   -152.4 1.252e+04 2.162e-09
  0.89190   -152.6 1.250e+04 2.098e-09
  0.91178   -152.7 1.231e+04 1.918e-09
  0.92948   -152.8 1.211e+04 1.762e-09
  0.93942   -152.0 1.190e+04 1.950e-09
  0.95153   -152.1 1.164e+04 1.744e-09
  0.97140   -152.2 1.153e+04 1.633e-09
  0.99128   -152.2 1.152e+04 1.610e-09
  1.01116   -152.2 1.159e+04 1.615e-09
  1.03103   -152.2 1.180e+04 1.676e-09
  1.04576   -152.1 1.196e+04 1.739e-09
  1.05570   -150.9 1.140e+04 1.505e-09
  1.06948   -150.9 1.154e+04 1.526e-09
  1.07942   -151.0 1.124e+04 1.303e-09
  1.09066   -150.9 1.130e+04 1.308e-09
  1.11054   -150.8 1.134e+04 1.294e-09
  1.13041   -150.6 1.128e+04 1.225e-09
  1.15029   -150.2 1.112e+04 1.155e-09
  1.16204   -149.8 1.098e+04 1.087e-09
  1.17198   -149.6 1.100e+04 1.119e-09
  1.19004   -149.1 1.088e+04 1.060e-09
  1.20992   -148.6 1.076e+04 1.004e-09
  1.22979   -148.0 1.065e+04 9.447e-10
  1.24967   -147.4 1.053e+04 8.777e-10
  1.26839   -146.7 1.039e+04 8.023e-10
  1.27832   -146.1 1.032e+04 8.538e-10
  1.28942   -145.3 1.014e+04 7.768e-10
  1.30930   -144.5 9.958e+03 6.939e-10
  1.32917   -143.6 9.767e+03 6.056e-10
  1.34905   -142.4 9.565e+03 5.176e-10
  1.36127   -141.2 9.425e+03 4.550e-10
  1.37121   -141.9 9.389e+03 4.232e-10
  1.39884   -141.3 9.323e+03 3.865e-10
  1.43869   -139.7 9.148e+03 3.355e-10
  1.47844   -138.0 9.034e+03 3.158e-10
  1.50114   -136.5 9.002e+03 3.124e-10
  1.52102   -134.7 8.861e+03 2.779e-10
  1.55794   -133.4 8.875e+03 2.819e-10
  1.59770   -132.0 8.900e+03 2.945e-10
  1.63745   -130.8 8.896e+03 2.969e-10
  1.67720   -129.5 8.831e+03 2.835e-10
  1.71383   -128.2 8.742e+03 2.600e-10
  1.73370   -127.1 9.365e+03 3.991e-10
  1.75670   -125.9 9.348e+03 3.978e-10
  1.79646   -125.0 9.339e+03 3.987e-10
  1.83621   -124.6 9.356e+03 4.494e-10
  1.87596   -124.8 1.033e+04 6.999e-10
  1.90568   -125.5 1.181e+04 1.351e-09
  1.92497   -125.9 1.265e+04 1.884e-09
  1.93491   -127.0 1.288e+04 2.106e-09
  1.94533   -127.5 1.381e+04 2.982e-09
  1.95613   -128.2 1.457e+04 4.005e-09
  1.96607   -128.0 1.506e+04 5.379e-09
  1.98508   -128.2 1.526e+04 5.978e-09
  2.00496   -128.6 1.530e+04 6.100e-09
  2.02484   -129.0 1.512e+04 5.958e-09
  2.04471   -129.3 1.462e+04 5.047e-09
  2.06247   -129.6 1.400e+04 4.055e-09
  2.07241   -129.1 1.355e+04 3.613e-09
  2.08446   -129.5 1.287e+04 2.790e-09
  2.10434   -129.9 1.234e+04 2.143e-09
  2.12422   -130.5 1.223e+04 1.768e-09
  2.14409   -132.7 1.374e+04 1.585e-09
  2.16397   -139.0 2.529e+04 1.352e-09
  2.17875   -147.0 3.015e+04 3.089e-09
  2.18367   -154.3 3.221e+04 8.474e-09
  2.18872   -157.6 2.882e+04 1.827e-08
  2.19865   -160.2 2.653e+04 3.594e-08
  2.20859   -161.9 2.537e+04 5.933e-08
  2.21666   -163.1 2.486e+04 8.001e-08
  2.22163   -165.9 2.411e+04 8.989e-08
  2.22847   -166.8 2.399e+04 8.927e-08
  2.23680   -168.1 2.382e+04 7.056e-08
  2.24177   -169.7 2.357e+04 4.576e-08
  2.24834   -171.7 2.332e+04 2.499e-08
  2.25828   -174.0 2.221e+04 1.314e-08
  2.26822   -176.3 2.028e+04 7.184e-09
  2.27816   -178.4 1.801e+04 4.295e-09
  2.28810   -179.8 1.603e+04 2.901e-09
  2.29494   -180.5 1.471e+04 2.247e-09
  2.30492   -183.1 1.304e+04 1.280e-09
  2.32298   -182.7 1.212e+04 9.536e-10
  2.34285   -182.4 1.106e+04 6.764e-10
  2.36273   -181.9 1.046e+04 5.468e-10
  2.38261   -181.1 1.022e+04 5.025e-10
  2.40138   -179.9 1.015e+04 4.964e-10
  2.41131   -180.2 1.002e+04 4.249e-10
  2.42236   -179.0 1.002e+04 4.446e-10
  2.44223   -177.9 1.021e+04 4.772e-10
  2.46211   -177.0 1.047e+04 5.424e-10
  2.48199   -176.1 1.079e+04 6.483e-10
  2.49861   -175.2 1.118e+04 8.087e-10
  2.50854   -176.1 1.159e+04 1.096e-09
  2.51766   -175.2 1.205e+04 1.430e-09
  2.52760   -175.4 1.202e+04 1.361e-09
  2.54161   -174.5 1.247e+04 1.685e-09
  2.56149   -173.7 1.287e+04 2.008e-09
  2.58137   -173.2 1.318e+04 2.293e-09
  2.60124   -172.7 1.338e+04 2.524e-09
  2.62112   -172.3 1.353e+04 2.719e-09
  2.63394   -171.9 1.368e+04 2.839e-09
  2.64388   -172.3 1.309e+04 2.003e-09
  2.66087   -172.0 1.303e+04 1.870e-09
  2.68075   -171.8 1.290e+04 1.684e-09
  2.70062   -171.8 1.270e+04 1.482e-09
  2.72050   -171.9 1.243e+04 1.284e-09
  2.74028   -172.1 1.211e+04 1.109e-09
  2.76016   -172.5 1.095e+04 6.780e-10
  2.78013   -172.5 1.078e+04 6.229e-10
  2.79039   -172.3 1.066e+04 5.888e-10
  2.80033   -172.7 1.034e+04 4.693e-10
  2.81988   -172.3 1.035e+04 4.681e-10
  2.83976   -171.8 1.040e+04 4.720e-10
  2.85656   -171.4 1.044e+04 4.854e-10
  2.86650   -170.4 1.013e+04 3.808e-10
  2.87951   -170.1 1.018e+04 3.912e-10
  2.89938   -169.7 1.026e+04 4.126e-10
  2.91926   -169.6 1.031e+04 4.298e-10
  2.93914   -169.6 1.039e+04 4.660e-10
  2.95901   -169.5 1.044e+04 4.779e-10
  2.97284   -169.7 1.052e+04 4.941e-10
  2.98278   -168.7 1.035e+04 4.400e-10
  2.99876   -169.0 1.047e+04 4.672e-10
  3.01864   -169.5 1.064e+04 5.124e-10
  3.03852   -170.0 1.091e+04 5.864e-10
  3.05839   -170.7 1.123e+04 6.977e-10
  3.07224   -171.3 1.154e+04 8.282e-10
  3.08218   -171.3 1.160e+04 9.000e-10
  3.08912   -172.1 1.170e+04 9.741e-10
  3.09906   -170.9 1.171e+04 9.483e-10
  3.11802   -171.7 1.175e+04 9.855e-10
  3.13790   -172.3 1.171e+04 9.906e-10
  3.15777   -172.5 1.140e+04 9.148e-10
  3.17765   -172.5 1.104e+04 7.538e-10
  3.19546   -172.3 1.072e+04 5.826e-10
  3.20540   -171.8 1.085e+04 6.186e-10
  3.21740   -172.0 1.055e+04 4.644e-10
  3.23728   -172.2 1.035e+04 3.744e-10
  3.26719   -172.6 1.024e+04 3.226e-10
  3.30200   -172.3 1.012e+04 2.709e-10
  3.32188   -172.1 1.038e+04 2.942e-10
  3.34679   -172.0 1.039e+04 2.845e-10
  3.38654   -172.4 1.070e+04 3.223e-10
  3.42629   -173.0 1.111e+04 4.664e-10
  3.46605   -173.4 1.135e+04 6.566e-10
  3.50580   -173.7 1.145e+04 8.122e-10
  3.53456   -173.8 1.146e+04 8.697e-10
  3.55444   -173.4 1.136e+04 7.709e-10
  3.58530   -173.4 1.128e+04 7.587e-10
  3.62506   -173.1 1.118e+04 7.362e-10
  3.64608   -172.3 1.114e+04 7.208e-10
  3.66595   -173.7 1.103e+04 6.069e-10
  3.70456   -172.6 1.096e+04 5.792e-10
  3.74431   -171.1 1.093e+04 5.439e-10
  3.76712   -169.4 1.093e+04 5.016e-10
  3.78700   -169.9 1.089e+04 4.727e-10
  3.82382   -168.4 1.090e+04 4.444e-10
  3.86357   -167.0 1.091e+04 4.036e-10
  3.90332   -165.6 1.088e+04 3.668e-10
  3.94307   -164.0 1.084e+04 3.303e-10
  3.97981   -162.3 1.076e+04 2.917e-10
  3.99968   -161.9 1.086e+04 3.095e-10
  4.02258   -160.2 1.075e+04 2.821e-10
  4.06233   -158.5 1.062e+04 2.541e-10
  4.10208   -156.7 1.053e+04 2.339e-10
  4.14183   -154.8 1.048e+04 2.257e-10
  4.18159   -152.7 1.045e+04 2.236e-10
  4.20978   -150.5 1.046e+04 2.282e-10
  4.22068   -150.9 1.083e+04 3.696e-10
  4.23224   -150.9 1.116e+04 4.260e-10
  4.26109   -148.7 1.109e+04 4.272e-10
  4.30084   -146.5 1.106e+04 4.355e-10
  4.34059   -144.3 1.102e+04 4.467e-10
  4.38035   -142.0 1.097e+04 4.559e-10
  4.42010   -139.8 1.092e+04 4.590e-10
  4.44493   -137.5 1.083e+04 4.500e-10
  4.46481   -137.5 1.088e+04 4.129e-10
  4.49960   -135.0 1.079e+04 3.945e-10
  4.53936   -132.6 1.068e+04 3.708e-10
  4.57911   -130.1 1.057e+04 3.410e-10
  4.61886   -127.6 1.047e+04 3.122e-10
  4.65761   -125.0 1.042e+04 2.896e-10
  4.67749   -125.3 1.079e+04 3.379e-10
  4.69836   -122.9 1.080e+04 3.434e-10
  4.73812   -120.4 1.084e+04 3.536e-10
  4.77348   -118.0 1.092e+04 3.708e-10
  4.79335   -119.0 1.120e+04 4.938e-10
  4.81762   -116.6 1.119e+04 4.923e-10
  4.85737   -114.1 1.120e+04 4.889e-10
  4.89017   -111.7 1.127e+04 4.942e-10
  4.91005   -112.5 1.130e+04 4.813e-10
  4.93688   -110.1 1.129e+04 5.118e-10
  4.97663   -107.7 1.130e+04 5.471e-10
  5.01638   -105.5 1.132e+04 5.841e-10
  5.05613   -103.4 1.138e+04 6.384e-10
  5.09589   -101.5 1.152e+04 7.394e-10
  5.12274    -99.8 1.172e+04 9.038e-10
  5.14261   -100.2 1.172e+04 9.335e-10
  5.17539    -98.7 1.182e+04 1.026e-09
  5.21514    -97.5 1.179e+04 1.079e-09
  5.25489    -96.5 1.156e+04 1.059e-09
  5.29465    -95.4 1.112e+04 8.488e-10
  5.33440    -94.4 1.058e+04 5.781e-10
  5.35530    -93.4 1.018e+04 3.964e-10
  5.35807    -93.2 1.016e+04 3.760e-10
  5.37693    -93.5 1.090e+04 6.206e-10
  5.41390    -92.4 1.063e+04 4.991e-10
  5.45365    -91.3 1.035e+04 4.072e-10
  5.49341    -90.1 1.018e+04 3.566e-10
  5.53316    -88.9 1.008e+04 3.386e-10
  5.56798    -87.7 1.002e+04 3.334e-10
  5.58786    -88.0 1.069e+04 5.976e-10
  5.60263    -87.1 1.074e+04 6.129e-10
  5.62241    -87.0 1.080e+04 6.230e-10
  5.63871    -86.7 1.088e+04 6.580e-10
  5.64864    -86.8 1.090e+04 7.094e-10
  5.66216    -86.6 1.093e+04 7.435e-10
  5.68203    -86.1 1.093e+04 7.741e-10
  5.69400    -85.6 1.092e+04 8.026e-10
  5.70394    -86.3 1.132e+04 1.055e-09
  5.72179    -85.7 1.132e+04 1.071e-09
  5.74166    -85.3 1.140e+04 1.099e-09
  5.76154    -85.0 1.149e+04 1.142e-09
  5.78141    -84.6 1.156e+04 1.196e-09
  5.80035    -84.0 1.162e+04 1.257e-09
  5.81028    -84.8 1.196e+04 1.458e-09
  5.82117    -84.1 1.192e+04 1.440e-09
  5.84104    -83.3 1.186e+04 1.398e-09
  5.86092    -82.5 1.177e+04 1.319e-09
  5.88079    -81.6 1.167e+04 1.197e-09
  5.90067    -80.8 1.159e+04 1.073e-09
  5.91663    -80.2 1.151e+04 9.743e-10
  5.92657    -81.3 1.135e+04 8.279e-10
  5.94042    -80.7 1.129e+04 8.041e-10
  5.96030    -80.1 1.133e+04 8.192e-10
  5.98018    -79.6 1.148e+04 9.108e-10
  6.00005    -79.0 1.165e+04 1.023e-09
  6.01993    -78.4 1.180e+04 1.136e-09
  6.03291    -77.7 1.195e+04 1.229e-09
  6.04285    -78.6 1.206e+04 1.289e-09
  6.05968    -78.3 1.214e+04 1.336e-09
  6.08959    -78.0 1.222e+04 1.361e-09
  6.12944    -77.1 1.208e+04 1.296e-09
  6.16919    -76.0 1.180e+04 1.151e-09
  6.20895    -74.7 1.149e+04 9.545e-10
  6.24579    -73.3 1.120e+04 7.639e-10
  6.26566    -75.2 1.075e+04 5.097e-10
  6.28845    -73.8 1.045e+04 3.694e-10
  6.32820    -72.2 1.021e+04 2.694e-10
  6.36795    -70.3 1.001e+04 2.052e-10
  6.40771    -68.7 9.691e+03 1.553e-10
  6.44746    -66.9 9.418e+03 1.257e-10
  6.47835    -65.1 9.348e+03 1.160e-10
  6.49546    -65.9 9.177e+03 8.955e-11
  6.50433    -66.3 9.204e+03 8.702e-11
  6.52696    -64.6 9.240e+03 8.891e-11
  6.56671    -63.2 9.321e+03 1.186e-10
  6.60647    -61.6 9.420e+03 1.761e-10
  6.64622    -59.9 9.564e+03 2.459e-10
  6.68597    -58.2 9.669e+03 3.077e-10
  6.71091    -56.9 9.678e+03 3.353e-10
  6.73079    -58.9 9.641e+03 3.647e-10
  6.76548    -57.8 9.599e+03 3.618e-10
  6.80523    -56.9 9.532e+03 3.511e-10
  6.84498    -56.5 9.544e+03 3.493e-10
  6.88473    -56.4 9.711e+03 3.877e-10
  6.92359    -56.4 9.822e+03 4.361e-10
  6.94347    -58.1 9.610e+03 4.110e-10
  6.96424    -57.8 9.570e+03 4.080e-10
  7.00399    -57.2 9.279e+03 3.240e-10
  7.04374    -56.7 8.905e+03 2.319e-10
  7.06803    -56.0 8.573e+03 1.746e-10
  7.08790    -56.8 8.650e+03 1.746e-10
  7.12325    -55.7 8.423e+03 1.347e-10
  7.15615    -54.3 8.301e+03 1.102e-10
  7.17603    -54.6 8.183e+03 9.406e-11
  7.20275    -53.1 8.178e+03 8.650e-11
  7.24250    -51.5 8.194e+03 8.543e-11
  7.28225    -50.1 8.297e+03 9.340e-11
  7.32201    -48.7 8.434e+03 1.133e-10
  7.36176    -46.9 8.598e+03 1.391e-10
  7.38872    -45.5 8.851e+03 1.541e-10
  7.40859    -46.4 9.202e+03 1.998e-10
  7.44126    -46.4 9.817e+03 2.677e-10
  7.48101    -47.0 1.042e+04 4.476e-10
  7.52077    -47.1 1.093e+04 7.727e-10
  7.56052    -46.1 1.130e+04 1.014e-09
  7.60027    -45.3 1.136e+04 9.807e-10
  7.62128    -44.3 1.112e+04 6.605e-10
  7.63285    -44.9 1.121e+04 6.645e-10
  7.65160    -45.3 1.107e+04 5.750e-10
  7.66974    -44.7 1.109e+04 4.570e-10
  7.68952    -44.7 1.108e+04 4.530e-10
  7.70939    -44.3 1.127e+04 4.544e-10
  7.72742    -44.5 1.126e+04 5.095e-10
  7.73736    -44.8 1.135e+04 5.468e-10
  7.74915    -44.3 1.143e+04 6.860e-10
  7.76902    -43.7 1.152e+04 8.041e-10
  7.78890    -42.9 1.167e+04 8.949e-10
  7.80877    -42.2 1.172e+04 9.214e-10
  7.82865    -41.6 1.171e+04 9.151e-10
  7.84370    -41.1 1.162e+04 8.429e-10
  7.85364    -41.2 1.164e+04 8.459e-10
  7.86840    -40.8 1.162e+04 7.773e-10
  7.88828    -40.7 1.161e+04 7.230e-10
  7.90815    -40.7 1.157e+04 6.941e-10
  7.92332    -40.7 1.151e+04 6.831e-10
  7.93326    -40.4 1.148e+04 6.470e-10
  7.94791    -40.2 1.146e+04 6.518e-10
  7.95998    -40.0 1.135e+04 6.550e-10
  7.96992    -39.9 1.133e+04 6.457e-10
  7.98766    -39.3 1.114e+04 6.104e-10
  8.00754    -38.8 1.099e+04 5.331e-10
  8.03745    -38.4 1.089e+04 4.537e-10
  8.06652    -37.6 1.065e+04 3.194e-10
  8.08640    -37.7 1.055e+04 2.548e-10
  8.11705    -36.8 1.021e+04 1.935e-10
  8.15680    -35.8 1.000e+04 1.644e-10
  8.19542    -34.4 9.999e+03 1.366e-10
  8.21530    -33.8 1.012e+04 1.438e-10
  8.23631    -32.6 1.016e+04 1.241e-10
  8.27606    -31.4 1.021e+04 1.184e-10
  8.29908    -30.1 1.014e+04 1.326e-10
  8.31896    -30.7 1.016e+04 1.323e-10
  8.35556    -28.8 1.013e+04 1.625e-10
  8.39531    -26.6 1.024e+04 1.675e-10
  8.43507    -24.8 1.060e+04 1.384e-10
  8.47482    -23.7 1.072e+04 1.447e-10
  8.51177    -22.9 1.099e+04 2.115e-10
  8.53164    -23.2 1.101e+04 2.090e-10
  8.55432    -21.6 1.142e+04 2.802e-10
  8.59407    -19.9 1.163e+04 3.690e-10
  8.62379    -18.5 1.157e+04 4.589e-10
  8.63779    -17.6 1.184e+04 5.352e-10
  8.64773    -18.2 1.186e+04 4.773e-10
  8.66345    -17.4 1.224e+04 5.765e-10
  8.68332    -17.1 1.277e+04 7.518e-10
  8.70320    -18.1 1.384e+04 1.156e-09
  8.72307    -20.0 1.509e+04 2.263e-09
  8.74295    -21.9 1.625e+04 4.957e-09
  8.75407    -21.5 1.738e+04 1.159e-08
  8.76401    -21.2 1.598e+04 7.434e-09
  8.77880    -20.4 1.711e+04 9.042e-09
  8.78874    -19.9 1.718e+04 1.177e-08
  8.80258    -21.0 1.882e+04 1.061e-08
  8.81744    -25.3 2.095e+04 8.678e-09
  8.82733    -29.6 2.073e+04 8.851e-09
  8.83726    -33.0 1.861e+04 1.080e-08
  8.84720    -34.4 1.750e+04 1.184e-08
  8.85714    -35.0 1.756e+04 1.474e-08
  8.86529    -35.0 1.853e+04 1.705e-08
  8.87025    -36.0 1.756e+04 1.170e-08
  8.87702    -37.2 1.890e+04 1.313e-08
  8.88695    -38.9 1.977e+04 1.324e-08
  8.90191    -41.6 1.912e+04 1.164e-08
  8.92183    -45.0 1.756e+04 9.866e-09
  8.94171    -45.7 1.601e+04 6.713e-09
  8.96159    -45.5 1.510e+04 3.635e-09
  8.97669    -47.3 1.415e+04 1.712e-09
  8.98663    -47.1 1.350e+04 1.347e-09
  9.00134    -49.1 1.232e+04 7.258e-10
  9.02121    -49.7 1.164e+04 5.308e-10
  9.04109    -49.7 1.137e+04 4.523e-10
  9.06065    -48.7 1.117e+04 4.054e-10
  9.07059    -49.1 1.114e+04 4.047e-10
  9.08084    -48.1 1.105e+04 3.890e-10
  9.11075    -46.7 1.108e+04 3.739e-10
  9.15060    -45.0 1.108e+04 4.055e-10
  9.18957    -43.2 1.105e+04 4.539e-10
  9.20945    -42.8 1.069e+04 3.481e-10
  9.23011    -40.9 1.065e+04 3.938e-10
  9.26986    -38.6 1.074e+04 4.313e-10
  9.30961    -37.0 1.086e+04 4.543e-10
  9.34270    -35.6 1.106e+04 5.122e-10
  9.36258    -35.5 1.101e+04 5.190e-10
  9.38912    -34.3 1.122e+04 6.274e-10
  9.42214    -32.9 1.161e+04 8.190e-10
  9.44201    -33.1 1.216e+04 1.340e-09
  9.46862    -32.0 1.270e+04 1.735e-09
  9.50837    -31.4 1.297e+04 1.981e-09
  9.54813    -30.9 1.304e+04 2.029e-09
  9.58788    -30.7 1.305e+04 2.014e-09
  9.62763    -30.6 1.310e+04 2.117e-09
  9.65470    -30.9 1.325e+04 2.359e-09
  9.67457    -31.7 1.305e+04 2.297e-09
  9.69710    -31.4 1.330e+04 2.718e-09
  9.71688    -30.8 1.308e+04 2.699e-09
  9.73675    -30.0 1.289e+04 2.395e-09
  9.75663    -29.6 1.282e+04 1.900e-09
  9.77078    -29.5 1.246e+04 1.591e-09
  9.78072    -29.5 1.218e+04 1.420e-09
  9.79638    -29.2 1.179e+04 1.180e-09
  9.81626    -28.5 1.153e+04 9.964e-10
  9.83613    -28.0 1.159e+04 8.097e-10
  9.85601    -27.6 1.132e+04 7.008e-10
  9.87589    -27.5 1.117e+04 6.633e-10
  9.88716    -26.4 1.105e+04 6.371e-10
  9.90713    -26.2 1.083e+04 5.256e-10
  9.92628    -25.1 1.110e+04 5.027e-10
  9.94615    -25.8 1.087e+04 4.196e-10
  9.98540    -25.7 1.100e+04 5.362e-10
 10.01512    -24.8 1.094e+04 6.800e-10
 10.03489    -24.6 1.109e+04 7.265e-10
 10.05477    -24.4 1.121e+04 8.015e-10
 10.07465    -23.8 1.118e+04 8.675e-10
 10.09452    -23.3 1.144e+04 8.128e-10
 10.10968    -23.5 1.168e+04 7.541e-10
 10.11962    -23.3 1.175e+04 8.444e-10
 10.13428    -23.6 1.172e+04 8.092e-10
 10.15415    -23.7 1.149e+04 8.041e-10
 10.17403    -23.5 1.152e+04 7.436e-10
 10.19390    -23.6 1.157e+04 7.331e-10
 10.20793    -24.0 1.188e+04 7.466e-10
 10.21787    -23.5 1.149e+04 6.394e-10
 10.22596    -23.9 1.174e+04 6.662e-10
 10.23590    -24.3 1.225e+04 9.084e-10
 10.25353    -25.6 1.240e+04 1.178e-09
 10.27341    -25.8 1.265e+04 1.267e-09
 10.29328    -26.4 1.261e+04 1.676e-09
 10.31316    -26.3 1.275e+04 1.808e-09
 10.33231    -26.0 1.284e+04 1.795e-09
 10.34225    -26.0 1.293e+04 1.789e-09
 10.35291    -25.6 1.269e+04 1.531e-09
 10.37279    -25.0 1.270e+04 1.078e-09
 10.39266    -25.3 1.250e+04 8.161e-10
 10.41254    -25.6 1.217e+04 5.984e-10
 10.43242    -25.7 1.200e+04 5.235e-10
 10.46233    -25.0 1.160e+04 4.780e-10
 10.48997    -23.4 1.156e+04 4.114e-10
 10.50985    -23.1 1.150e+04 3.961e-10
 10.54193    -21.7 1.135e+04 3.164e-10
 10.56506    -20.5 1.118e+04 2.641e-10
 10.58494    -20.3 1.110e+04 2.514e-10
 10.62143    -18.9 1.112e+04 2.105e-10
 10.66119    -17.9 1.107e+04 1.970e-10
 10.70094    -16.9 1.099e+04 1.965e-10
 10.74069    -15.7 1.096e+04 1.928e-10
 10.77775    -14.8 1.111e+04 1.863e-10
 10.79762    -14.5 1.111e+04 1.823e-10
 10.82020    -14.3 1.125e+04 1.914e-10
 10.85995    -14.4 1.138e+04 2.480e-10
 10.89970    -13.9 1.135e+04 3.312e-10
 10.93945    -13.3 1.136e+04 3.697e-10
 10.97920    -12.4 1.119e+04 3.414e-10
 11.01031    -11.0 1.105e+04 2.495e-10
 11.03018    -10.6 1.101e+04 2.433e-10
 11.05367     -9.3 1.098e+04 1.476e-10
 11.07355     -8.3 1.091e+04 1.516e-10
 11.09846     -7.8 1.105e+04 9.482e-11
 11.13821     -7.3 1.087e+04 7.726e-11
 11.17796     -6.1 1.077e+04 7.649e-11
 11.21772     -4.5 1.077e+04 7.779e-11
 11.24287     -3.0 1.079e+04 7.899e-11
 11.26275     -2.6 1.075e+04 7.500e-11
 11.29722     -1.2 1.075e+04 7.878e-11
 11.33697     -0.0 1.072e+04 8.418e-11
