# Columns:
#   distance along LOS (in CHIMPs)
#   peculiar velocity  (in km/s)
#   temperature (K)
#   HI number density
# pos=(132.942,251.11,106.986), angles=(1.92731,6.21002)
  0.00502   -232.2 9.255e+03 3.685e-11
  0.03093   -230.7 9.283e+03 3.868e-11
  0.07272   -229.1 9.298e+03 4.163e-11
  0.09984   -227.5 9.309e+03 4.575e-11
  0.12074   -227.0 9.348e+03 3.821e-11
  0.15631   -225.4 9.353e+03 4.210e-11
  0.19759   -223.9 9.368e+03 4.660e-11
  0.21849   -223.3 9.400e+03 3.991e-11
  0.23548   -221.7 9.423e+03 4.321e-11
  0.25638   -221.1 9.367e+03 3.605e-11
  0.28170   -219.5 9.369e+03 3.877e-11
  0.31625   -217.8 9.359e+03 4.076e-11
  0.33715   -217.1 9.378e+03 3.475e-11
  0.36529   -215.4 9.420e+03 3.548e-11
  0.40709   -213.9 9.581e+03 3.639e-11
  0.43490   -212.5 9.774e+03 4.086e-11
  0.45580   -212.0 9.844e+03 4.057e-11
  0.49068   -210.8 9.958e+03 5.672e-11
  0.53247   -209.5 1.007e+04 8.830e-11
  0.57427   -208.0 1.028e+04 1.546e-10
  0.61606   -207.0 1.041e+04 1.986e-10
  0.65132   -206.2 1.047e+04 2.199e-10
  0.67221   -205.8 1.044e+04 2.200e-10
  0.69966   -204.9 1.041e+04 2.181e-10
  0.74145   -203.8 1.032e+04 1.941e-10
  0.76997   -202.4 1.025e+04 1.649e-10
  0.79087   -201.6 1.020e+04 1.463e-10
  0.81317   -200.0 1.019e+04 1.230e-10
  0.83407   -199.4 1.022e+04 1.501e-10
  0.86684   -197.7 1.024e+04 1.287e-10
  0.88863   -196.0 1.029e+04 1.152e-10
  0.90952   -195.2 1.029e+04 9.970e-11
  0.95043   -193.5 1.036e+04 9.176e-11
  0.98638   -191.8 1.043e+04 8.759e-11
  1.00728   -190.9 1.045e+04 7.932e-11
  1.03402   -189.3 1.048e+04 7.912e-11
  1.07581   -187.7 1.058e+04 7.971e-11
  1.10504   -186.2 1.065e+04 8.202e-11
  1.12594   -185.5 1.070e+04 8.071e-11
  1.15941   -184.2 1.074e+04 8.344e-11
  1.20120   -182.8 1.076e+04 8.430e-11
  1.22369   -181.4 1.076e+04 8.401e-11
  1.24459   -180.9 1.079e+04 8.410e-11
  1.28479   -179.4 1.077e+04 7.853e-11
  1.32145   -177.7 1.076e+04 7.068e-11
  1.34235   -177.1 1.076e+04 7.008e-11
  1.36838   -175.5 1.076e+04 6.388e-11
  1.39086   -173.9 1.081e+04 6.081e-11
  1.41175   -173.4 1.080e+04 6.919e-11
  1.44011   -171.9 1.082e+04 6.905e-11
  1.46100   -171.6 1.089e+04 7.195e-11
  1.49377   -170.8 1.128e+04 7.920e-11
  1.53556   -170.2 1.140e+04 1.115e-10
  1.55876   -169.7 1.145e+04 1.640e-10
  1.57966   -169.9 1.155e+04 2.283e-10
  1.61915   -169.4 1.162e+04 3.134e-10
  1.65652   -169.0 1.167e+04 3.911e-10
  1.67742   -169.4 1.172e+04 4.808e-10
  1.70275   -169.0 1.170e+04 5.009e-10
  1.74454   -168.6 1.160e+04 4.828e-10
  1.77517   -168.1 1.148e+04 4.357e-10
  1.79607   -168.4 1.128e+04 3.948e-10
  1.82813   -167.7 1.111e+04 3.307e-10
  1.86993   -167.0 1.098e+04 2.891e-10
  1.89383   -166.2 1.091e+04 2.674e-10
  1.91473   -166.0 1.075e+04 2.186e-10
  1.94764   -165.1 1.072e+04 2.152e-10
  1.96854   -165.3 1.075e+04 2.496e-10
  1.99158   -164.3 1.074e+04 2.375e-10
  2.01248   -163.9 1.061e+04 2.008e-10
  2.03711   -162.9 1.061e+04 1.887e-10
  2.07890   -162.0 1.061e+04 1.727e-10
  2.11024   -161.1 1.064e+04 1.566e-10
  2.13114   -160.6 1.057e+04 1.425e-10
  2.16250   -159.9 1.060e+04 1.406e-10
  2.20429   -159.5 1.072e+04 1.423e-10
  2.22889   -159.4 1.093e+04 1.586e-10
  2.24979   -159.2 1.090e+04 1.696e-10
  2.28788   -159.3 1.106e+04 2.139e-10
  2.32665   -159.6 1.125e+04 2.675e-10
  2.34755   -159.6 1.130e+04 2.845e-10
  2.37147   -160.2 1.151e+04 3.414e-10
  2.41327   -161.1 1.169e+04 3.834e-10
  2.44531   -162.0 1.182e+04 4.148e-10
  2.46620   -163.0 1.201e+04 5.341e-10
  2.49686   -163.7 1.211e+04 5.788e-10
  2.52533   -164.3 1.214e+04 5.938e-10
  2.54623   -164.3 1.237e+04 8.240e-10
  2.56396   -164.4 1.231e+04 8.083e-10
  2.58486   -165.6 1.251e+04 9.517e-10
  2.62225   -165.3 1.235e+04 8.121e-10
  2.66172   -164.8 1.219e+04 6.969e-10
  2.68262   -166.7 1.248e+04 8.574e-10
  2.70584   -166.1 1.242e+04 8.401e-10
  2.74763   -165.1 1.235e+04 8.545e-10
  2.78037   -164.1 1.230e+04 8.996e-10
  2.80127   -165.6 1.239e+04 1.069e-09
  2.83122   -164.5 1.229e+04 1.137e-09
  2.87302   -163.7 1.233e+04 1.263e-09
  2.89903   -163.0 1.235e+04 1.415e-09
  2.91993   -164.3 1.250e+04 1.627e-09
  2.95661   -164.0 1.259e+04 1.816e-09
  2.99679   -164.1 1.267e+04 2.006e-09
  3.01768   -166.0 1.278e+04 2.174e-09
  3.04020   -166.6 1.279e+04 2.256e-09
  3.08200   -167.3 1.276e+04 2.273e-09
  3.11324   -167.2 1.251e+04 2.189e-09
  3.12569   -167.1 1.221e+04 1.870e-09
  3.13614   -167.7 1.186e+04 1.566e-09
  3.15494   -167.4 1.148e+04 1.214e-09
  3.17457   -167.1 1.110e+04 9.044e-10
  3.18502   -167.3 1.083e+04 6.847e-10
  3.19674   -167.0 1.060e+04 5.413e-10
  3.21763   -166.8 1.049e+04 4.912e-10
  3.23400   -166.5 1.030e+04 4.213e-10
  3.25499   -166.8 1.009e+04 3.191e-10
  3.29097   -165.6 9.711e+03 2.308e-10
  3.33185   -164.4 9.562e+03 1.891e-10
  3.35275   -164.6 9.575e+03 1.758e-10
  3.37456   -163.5 9.550e+03 1.645e-10
  3.41636   -162.4 9.538e+03 1.587e-10
  3.45051   -161.4 9.526e+03 1.546e-10
  3.47141   -161.7 9.508e+03 1.433e-10
  3.49995   -160.7 9.486e+03 1.370e-10
  3.54174   -159.7 9.457e+03 1.320e-10
  3.56916   -158.7 9.416e+03 1.279e-10
  3.59006   -159.0 9.378e+03 1.154e-10
  3.62534   -157.9 9.311e+03 1.101e-10
  3.65981   -156.8 9.240e+03 1.056e-10
  3.68049   -156.5 9.284e+03 1.138e-10
  3.68782   -156.6 9.251e+03 1.046e-10
  3.70893   -155.4 9.188e+03 1.014e-10
  3.75072   -154.3 9.130e+03 9.877e-11
  3.78557   -153.0 9.083e+03 9.682e-11
  3.80647   -153.0 9.085e+03 9.244e-11
  3.83431   -151.7 9.057e+03 9.264e-11
  3.87611   -150.4 9.006e+03 9.236e-11
  3.90423   -149.1 8.971e+03 8.945e-11
  3.92513   -149.0 8.979e+03 8.877e-11
  3.95970   -147.6 8.940e+03 8.282e-11
  4.00149   -146.2 8.950e+03 7.802e-11
  4.02288   -144.9 8.961e+03 7.665e-11
  4.04378   -144.9 8.972e+03 7.664e-11
  4.08509   -144.1 9.089e+03 7.821e-11
  4.12064   -143.8 9.382e+03 1.145e-10
  4.14154   -144.0 9.508e+03 1.289e-10
  4.16868   -143.5 9.733e+03 2.137e-10
  4.21047   -143.0 9.962e+03 3.096e-10
  4.23749   -142.6 1.014e+04 3.623e-10
  4.24542   -142.4 1.020e+04 3.840e-10
  4.26019   -142.7 1.012e+04 3.349e-10
  4.29406   -142.3 1.011e+04 3.306e-10
  4.33586   -141.4 9.990e+03 2.698e-10
  4.35795   -140.4 9.794e+03 1.923e-10
  4.37885   -140.2 9.719e+03 1.648e-10
  4.41945   -139.0 9.603e+03 1.230e-10
  4.45571   -137.9 9.537e+03 9.834e-11
  4.47661   -137.4 9.554e+03 9.269e-11
  4.50304   -136.2 9.529e+03 8.040e-11
  4.54484   -134.9 9.516e+03 7.375e-11
  4.57436   -133.5 9.506e+03 7.072e-11
  4.59526   -133.0 9.509e+03 6.534e-11
  4.62843   -131.6 9.495e+03 6.317e-11
  4.67022   -130.2 9.486e+03 6.228e-11
  4.69302   -128.9 9.487e+03 6.315e-11
  4.71392   -128.2 9.464e+03 5.585e-11
  4.75381   -126.8 9.428e+03 5.738e-11
  4.79078   -125.4 9.398e+03 6.326e-11
  4.81035   -124.6 9.406e+03 5.229e-11
  4.81518   -124.4 9.426e+03 5.468e-11
  4.83740   -123.1 9.423e+03 6.057e-11
  4.87920   -122.1 9.494e+03 7.504e-11
  4.90943   -121.2 9.602e+03 1.006e-10
  4.93033   -120.8 9.629e+03 8.709e-11
  4.96279   -120.1 9.744e+03 1.249e-10
  5.00458   -119.5 9.866e+03 1.678e-10
  5.02809   -119.1 9.933e+03 2.002e-10
  5.04898   -118.7 9.937e+03 1.835e-10
  5.08818   -118.4 9.945e+03 1.888e-10
  5.12584   -118.1 9.874e+03 1.839e-10
  5.14674   -117.7 9.842e+03 1.596e-10
  5.17177   -117.2 9.697e+03 1.226e-10
  5.21356   -116.8 9.563e+03 8.992e-11
  5.24450   -116.5 9.472e+03 7.155e-11
  5.26540   -116.3 9.497e+03 6.491e-11
  5.29715   -115.9 9.493e+03 6.182e-11
  5.33895   -115.7 9.533e+03 6.150e-11
  5.36315   -115.8 9.739e+03 7.552e-11
  5.37527   -115.8 9.749e+03 7.651e-11
  5.39286   -115.3 9.830e+03 8.139e-11
  5.42254   -115.4 9.936e+03 1.434e-10
  5.46091   -114.9 1.010e+04 2.353e-10
  5.48181   -114.8 1.008e+04 2.307e-10
  5.50613   -114.2 1.024e+04 2.972e-10
  5.54793   -113.6 1.031e+04 3.181e-10
  5.57956   -113.1 1.030e+04 3.177e-10
  5.60046   -112.9 1.022e+04 2.861e-10
  5.63152   -112.1 1.017e+04 2.704e-10
  5.67331   -111.2 1.016e+04 2.556e-10
  5.69822   -110.3 1.017e+04 2.523e-10
  5.71912   -110.4 1.026e+04 2.454e-10
  5.75690   -109.9 1.041e+04 2.704e-10
  5.79598   -109.7 1.065e+04 3.750e-10
  5.81687   -110.2 1.074e+04 4.022e-10
  5.84049   -110.0 1.108e+04 6.122e-10
  5.88229   -109.7 1.152e+04 9.078e-10
  5.91463   -109.7 1.193e+04 1.189e-09
  5.93553   -110.5 1.198e+04 1.086e-09
  5.94965   -110.8 1.222e+04 1.189e-09
  5.97055   -111.1 1.279e+04 1.579e-09
  6.00768   -111.6 1.279e+04 1.588e-09
  6.03329   -111.7 1.246e+04 1.337e-09
  6.04364   -112.0 1.236e+04 1.213e-09
  6.05972   -111.7 1.224e+04 1.104e-09
  6.08062   -111.5 1.203e+04 9.313e-10
  6.09242   -111.2 1.198e+04 8.505e-10
  6.10287   -111.3 1.197e+04 8.235e-10
  6.13095   -111.3 1.199e+04 7.123e-10
  6.15184   -111.0 1.207e+04 6.292e-10
  6.16421   -111.1 1.220e+04 5.701e-10
  6.18511   -112.1 1.303e+04 6.081e-10
  6.20063   -114.1 1.413e+04 8.167e-10
  6.21107   -115.6 1.478e+04 1.405e-09
  6.22691   -116.9 1.539e+04 2.525e-09
  6.23830   -117.7 1.577e+04 5.072e-09
  6.24875   -117.9 1.622e+04 9.161e-09
  6.25995   -117.3 1.642e+04 1.144e-08
  6.27040   -117.1 1.672e+04 1.317e-08
  6.28960   -116.9 1.671e+04 1.311e-08
  6.30883   -116.6 1.641e+04 1.087e-08
  6.31928   -116.8 1.638e+04 9.475e-09
  6.33139   -117.3 1.584e+04 5.718e-09
  6.35229   -118.9 1.521e+04 3.536e-09
  6.36816   -120.8 1.433e+04 2.572e-09
  6.37861   -121.9 1.373e+04 2.204e-09
  6.39409   -122.6 1.322e+04 2.104e-09
  6.41499   -122.6 1.300e+04 2.105e-09
  6.42749   -122.1 1.291e+04 2.090e-09
  6.43793   -122.2 1.286e+04 2.154e-09
  6.45678   -121.7 1.284e+04 2.068e-09
  6.47636   -121.3 1.280e+04 1.949e-09
  6.48681   -121.4 1.278e+04 1.983e-09
  6.49858   -121.1 1.268e+04 1.724e-09
  6.51669   -120.9 1.255e+04 1.419e-09
  6.52714   -121.8 1.242e+04 1.024e-09
  6.53569   -121.8 1.219e+04 7.919e-10
  6.54614   -121.7 1.214e+04 7.879e-10
  6.56127   -121.7 1.184e+04 5.953e-10
  6.58217   -121.7 1.153e+04 4.829e-10
  6.59502   -121.7 1.142e+04 4.571e-10
  6.60557   -121.7 1.147e+04 4.695e-10
  6.63461   -121.1 1.124e+04 4.042e-10
  6.67640   -120.0 1.122e+04 3.756e-10
  6.70342   -119.2 1.129e+04 3.759e-10
  6.72432   -118.7 1.126e+04 3.694e-10
  6.75999   -118.4 1.142e+04 4.296e-10
  6.80118   -118.1 1.157e+04 5.862e-10
  6.82208   -117.7 1.147e+04 5.161e-10
  6.84358   -117.3 1.157e+04 6.550e-10
  6.88538   -116.8 1.174e+04 8.135e-10
  6.91983   -116.3 1.191e+04 9.447e-10
  6.94073   -115.7 1.169e+04 8.026e-10
  6.96897   -115.3 1.182e+04 8.954e-10
  7.01077   -114.9 1.186e+04 9.155e-10
  7.03849   -114.4 1.169e+04 7.429e-10
  7.05939   -113.9 1.168e+04 7.718e-10
  7.08413   -113.2 1.147e+04 5.786e-10
  7.10503   -113.4 1.151e+04 6.058e-10
  7.13615   -112.6 1.131e+04 4.027e-10
  7.17795   -111.3 1.122e+04 3.097e-10
  7.21974   -110.4 1.110e+04 1.967e-10
  7.25490   -109.4 1.096e+04 1.418e-10
  7.27580   -108.9 1.108e+04 1.790e-10
  7.30333   -107.9 1.096e+04 1.413e-10
  7.34513   -106.9 1.089e+04 1.328e-10
  7.37356   -105.9 1.086e+04 1.389e-10
  7.39445   -105.7 1.093e+04 1.487e-10
  7.42872   -104.8 1.092e+04 1.767e-10
  7.47052   -103.9 1.096e+04 2.242e-10
  7.49221   -102.9 1.101e+04 2.688e-10
  7.51311   -103.1 1.113e+04 3.060e-10
  7.55411   -102.5 1.128e+04 3.794e-10
  7.58997   -102.1 1.149e+04 4.667e-10
  7.61086   -102.7 1.172e+04 6.476e-10
  7.63770   -102.6 1.190e+04 7.664e-10
  7.66181   -102.5 1.195e+04 8.053e-10
  7.68271   -103.6 1.236e+04 1.254e-09
  7.70862   -103.2 1.207e+04 9.675e-10
  7.72952   -103.3 1.197e+04 9.720e-10
  7.76308   -102.7 1.154e+04 5.972e-10
  7.80488   -102.4 1.127e+04 4.284e-10
  7.82728   -101.9 1.119e+04 3.938e-10
  7.84817   -101.5 1.119e+04 3.711e-10
  7.88847   -100.9 1.122e+04 3.785e-10
  7.92503   -100.4 1.131e+04 4.451e-10
  7.94593    -99.9 1.134e+04 4.493e-10
  7.97206    -99.4 1.141e+04 5.031e-10
  8.01386    -98.9 1.142e+04 5.089e-10
  8.04369    -98.6 1.141e+04 4.105e-10
  8.06459    -98.1 1.159e+04 5.420e-10
  8.09745    -98.2 1.157e+04 4.303e-10
  8.13924    -98.6 1.157e+04 4.013e-10
  8.16234    -99.1 1.157e+04 4.172e-10
  8.18324    -98.7 1.181e+04 6.609e-10
  8.21860    -98.9 1.182e+04 7.729e-10
  8.23950    -99.7 1.151e+04 5.113e-10
  8.26010    -99.6 1.152e+04 5.854e-10
  8.28100    -99.3 1.175e+04 7.949e-10
  8.30642    -99.5 1.161e+04 7.077e-10
  8.34822    -99.8 1.145e+04 5.297e-10
  8.37876   -100.3 1.136e+04 4.478e-10
  8.39965   -100.2 1.149e+04 5.195e-10
  8.43181   -100.5 1.147e+04 5.060e-10
  8.47361   -100.6 1.147e+04 5.442e-10
  8.49741   -100.5 1.150e+04 6.374e-10
  8.51831   -100.4 1.154e+04 6.613e-10
  8.55720   -100.2 1.159e+04 7.494e-10
  8.59517   -100.0 1.164e+04 8.143e-10
  8.61607    -99.8 1.164e+04 8.169e-10
  8.64079    -99.5 1.165e+04 8.325e-10
  8.68258    -98.9 1.143e+04 7.589e-10
  8.71382    -97.8 1.110e+04 5.240e-10
  8.73472    -97.3 1.115e+04 5.540e-10
  8.76617    -96.0 1.092e+04 3.480e-10
  8.79629    -94.8 1.088e+04 2.045e-10
  8.81719    -94.6 1.090e+04 1.717e-10
  8.83248    -93.7 1.091e+04 1.208e-10
  8.85338    -93.0 1.098e+04 1.548e-10
  8.89156    -92.1 1.095e+04 1.224e-10
  8.93024    -91.2 1.091e+04 1.091e-10
  8.95113    -90.5 1.097e+04 1.379e-10
  8.97515    -89.7 1.102e+04 1.289e-10
  9.01695    -89.0 1.096e+04 1.332e-10
  9.04889    -88.6 1.107e+04 1.721e-10
  9.06979    -88.2 1.116e+04 2.214e-10
  9.10054    -87.8 1.120e+04 2.712e-10
  9.14233    -87.6 1.125e+04 3.205e-10
  9.16755    -87.4 1.127e+04 3.641e-10
  9.18844    -87.0 1.132e+04 3.752e-10
  9.22592    -86.9 1.128e+04 3.805e-10
  9.26530    -86.6 1.121e+04 3.562e-10
  9.28620    -86.4 1.124e+04 3.567e-10
  9.30951    -86.0 1.118e+04 2.813e-10
  9.35131    -85.6 1.112e+04 2.331e-10
  9.37398    -85.1 1.110e+04 2.250e-10
  9.38572    -85.4 1.120e+04 3.488e-10
  9.40486    -85.0 1.115e+04 3.447e-10
  9.43490    -84.2 1.110e+04 3.815e-10
  9.47670    -83.1 1.105e+04 4.003e-10
  9.50261    -81.8 1.090e+04 3.767e-10
  9.52351    -81.2 1.094e+04 3.920e-10
  9.56029    -80.0 1.085e+04 3.211e-10
  9.60037    -79.0 1.076e+04 2.496e-10
  9.62127    -78.3 1.078e+04 2.552e-10
  9.64388    -77.3 1.071e+04 1.961e-10
  9.68567    -76.1 1.054e+04 1.554e-10
  9.71902    -74.6 1.035e+04 1.214e-10
  9.73992    -74.0 1.045e+04 1.266e-10
  9.76926    -72.3 1.033e+04 9.728e-11
  9.81106    -70.6 1.026e+04 7.169e-11
  9.83768    -69.1 1.019e+04 5.510e-11
  9.85858    -68.4 1.024e+04 6.219e-11
  9.89465    -66.9 1.013e+04 5.303e-11
  9.93076    -65.3 1.008e+04 5.078e-11
  9.95065    -65.1 1.008e+04 4.205e-11
  9.95633    -64.5 1.021e+04 4.242e-11
  9.97824    -62.7 1.022e+04 4.240e-11
 10.02004    -61.2 1.031e+04 4.780e-11
 10.05409    -59.7 1.035e+04 5.976e-11
 10.07499    -59.1 1.044e+04 6.047e-11
 10.10363    -57.6 1.049e+04 8.119e-11
 10.14542    -56.1 1.054e+04 1.094e-10
 10.17275    -54.6 1.063e+04 1.383e-10
 10.19364    -53.9 1.065e+04 1.497e-10
 10.22901    -52.4 1.085e+04 1.790e-10
 10.27050    -51.4 1.105e+04 1.914e-10
 10.29140    -50.6 1.103e+04 2.255e-10
 10.31260    -50.0 1.118e+04 2.338e-10
 10.35440    -49.4 1.122e+04 2.400e-10
 10.38916    -48.8 1.125e+04 2.437e-10
 10.41006    -48.0 1.129e+04 2.665e-10
 10.43799    -47.7 1.144e+04 2.624e-10
 10.47979    -47.8 1.139e+04 3.191e-10
 10.50781    -47.5 1.119e+04 4.378e-10
 10.51558    -46.5 1.117e+04 4.275e-10
 10.52935    -46.4 1.130e+04 8.416e-10
 10.56338    -45.1 1.119e+04 8.401e-10
 10.60517    -43.5 1.106e+04 5.510e-10
 10.62647    -42.9 1.118e+04 3.262e-10
 10.64737    -42.1 1.115e+04 2.984e-10
 10.68876    -42.4 1.112e+04 2.455e-10
 10.72423    -42.1 1.098e+04 2.577e-10
 10.74512    -41.5 1.104e+04 2.961e-10
 10.77235    -40.7 1.093e+04 3.905e-10
 10.81415    -39.5 1.097e+04 4.225e-10
 10.84288    -38.7 1.098e+04 3.810e-10
 10.86378    -37.8 1.110e+04 4.858e-10
 10.89774    -37.3 1.094e+04 3.848e-10
 10.93954    -36.4 1.075e+04 3.416e-10
 10.96154    -34.8 1.065e+04 2.936e-10
 10.98243    -34.2 1.062e+04 2.974e-10
 11.02313    -32.5 1.068e+04 2.322e-10
 11.05929    -31.7 1.080e+04 1.837e-10
 11.08019    -30.8 1.072e+04 1.808e-10
 11.08614    -29.9 1.071e+04 1.733e-10
 11.10703    -29.8 1.058e+04 1.770e-10
 11.14851    -28.5 1.046e+04 1.895e-10
 11.17795    -27.0 1.040e+04 2.021e-10
 11.19885    -26.3 1.041e+04 1.853e-10
 11.23210    -24.6 1.033e+04 1.770e-10
 11.27390    -22.4 1.029e+04 1.346e-10
 11.29660    -20.4 1.046e+04 8.346e-11
 11.31750    -19.7 1.039e+04 9.005e-11
 11.35749    -18.3 1.055e+04 5.997e-11
 11.39436    -17.0 1.049e+04 4.670e-11
 11.41526    -16.0 1.041e+04 5.611e-11
 11.44108    -14.4 1.036e+04 4.946e-11
 11.48288    -12.4 1.030e+04 4.939e-11
 11.51301    -10.4 1.029e+04 5.153e-11
 11.53391     -9.7 1.035e+04 6.027e-11
 11.56647     -7.9 1.036e+04 6.740e-11
 11.60826     -6.1 1.033e+04 8.102e-11
 11.63167     -4.1 1.027e+04 1.003e-10
 11.64543     -3.5 1.022e+04 1.492e-10
 11.66382     -3.3 1.021e+04 1.125e-10
 11.69185     -1.2 1.016e+04 1.369e-10
 11.72943      1.0 1.021e+04 1.557e-10
 11.75032      1.8 1.025e+04 1.910e-10
 11.77544      3.7 1.035e+04 1.922e-10
 11.81724      5.6 1.039e+04 1.826e-10
 11.84808      7.2 1.042e+04 1.584e-10
 11.86898      7.8 1.050e+04 1.745e-10
 11.90083      9.1 1.045e+04 1.562e-10
 11.94263     10.3 1.048e+04 1.583e-10
 11.96674     11.2 1.059e+04 1.839e-10
 11.98763     11.0 1.075e+04 2.290e-10
 12.02622     11.8 1.090e+04 3.924e-10
 12.06449     12.8 1.129e+04 7.583e-10
 12.08539     12.7 1.146e+04 8.712e-10
 12.10981     13.6 1.193e+04 1.370e-09
 12.15160     14.0 1.220e+04 1.542e-09
 12.18315     14.4 1.203e+04 1.360e-09
 12.20405     14.0 1.154e+04 8.999e-10
 12.22061     14.4 1.123e+04 6.393e-10
 12.24151     15.0 1.137e+04 6.452e-10
 12.27699     14.9 1.096e+04 3.638e-10
 12.30180     14.9 1.075e+04 2.763e-10
 12.32270     15.2 1.053e+04 3.464e-10
 12.36058     16.2 1.056e+04 3.565e-10
 12.39956     17.3 1.064e+04 3.552e-10
 12.42046     17.8 1.075e+04 4.980e-10
 12.44417     18.8 1.078e+04 4.855e-10
 12.48597     19.6 1.080e+04 4.508e-10
 12.51822     20.4 1.079e+04 4.076e-10
 12.53911     20.9 1.089e+04 5.498e-10
 12.56956     21.5 1.087e+04 4.509e-10
 12.61135     21.8 1.081e+04 3.850e-10
 12.63687     22.2 1.076e+04 3.789e-10
 12.65777     22.2 1.089e+04 4.354e-10
 12.69494     22.5 1.087e+04 4.586e-10
 12.73463     22.9 1.090e+04 5.567e-10
 12.75553     23.1 1.103e+04 6.339e-10
 12.77740     23.7 1.118e+04 7.514e-10
 12.79830     23.7 1.103e+04 6.005e-10
 12.82033     23.9 1.124e+04 7.093e-10
 12.85328     23.9 1.135e+04 7.428e-10
 12.87418     23.9 1.132e+04 7.303e-10
 12.90392     24.0 1.124e+04 6.832e-10
 12.94572     24.3 1.104e+04 5.342e-10
 12.97194     24.6 1.082e+04 3.655e-10
 12.99284     24.4 1.081e+04 3.668e-10
 13.02931     24.6 1.060e+04 2.735e-10
 13.06969     25.1 1.043e+04 2.253e-10
 13.09059     25.4 1.044e+04 2.326e-10
 13.11290     26.2 1.035e+04 1.857e-10
 13.15469     27.2 1.044e+04 1.604e-10
 13.18835     28.0 1.052e+04 1.621e-10
 13.20925     27.5 1.061e+04 1.616e-10
 13.23828     27.7 1.080e+04 2.205e-10
 13.28008     28.0 1.093e+04 3.762e-10
 13.30700     28.5 1.108e+04 5.941e-10
 13.32790     28.2 1.120e+04 6.980e-10
 13.35509     28.0 1.126e+04 7.248e-10
 13.37598     28.4 1.116e+04 6.964e-10
 13.40476     28.0 1.115e+04 6.475e-10
 13.42566     27.2 1.116e+04 5.843e-10
 13.44726     26.6 1.106e+04 5.290e-10
 13.48906     26.3 1.104e+04 5.385e-10
 13.52342     26.1 1.112e+04 6.356e-10
 13.54431     25.8 1.115e+04 6.810e-10
 13.57265     25.8 1.162e+04 1.075e-09
 13.61444     26.1 1.225e+04 1.755e-09
 13.64207     26.1 1.269e+04 2.276e-09
 13.66297     25.7 1.271e+04 2.329e-09
 13.69803     25.4 1.266e+04 2.203e-09
 13.73983     25.3 1.233e+04 1.672e-09
 13.78162     24.8 1.172e+04 9.400e-10
 13.82342     23.9 1.149e+04 7.298e-10
 13.85848     23.2 1.148e+04 7.325e-10
 13.87938     23.5 1.146e+04 7.234e-10
 13.90701     23.0 1.155e+04 7.501e-10
 13.93277     22.3 1.157e+04 7.327e-10
 13.95367     23.3 1.174e+04 8.083e-10
 13.97714     22.3 1.167e+04 7.303e-10
 13.99804     22.4 1.165e+04 7.235e-10
 14.03240     21.1 1.165e+04 7.397e-10
 14.07419     19.8 1.169e+04 8.363e-10
 14.09579     19.3 1.163e+04 8.360e-10
