# Columns:
#   distance along LOS (in CHIMPs)
#   peculiar velocity  (in km/s)
#   temperature (K)
#   HI number density
# pos=(32.156,168.579,49.908), angles=(1.80221,4.44091)
  0.00666     19.1 1.073e+04 5.380e-10
  0.01603     18.9 1.065e+04 4.855e-10
  0.02071     18.5 1.055e+04 4.510e-10
  0.02841     18.1 1.039e+04 3.917e-10
  0.04456     18.2 1.030e+04 3.939e-10
  0.06539     18.3 1.034e+04 3.962e-10
  0.08469     18.3 1.036e+04 3.980e-10
  0.09520     18.2 1.039e+04 4.115e-10
  0.10233     18.4 1.035e+04 4.102e-10
  0.12316     18.7 9.972e+03 3.190e-10
  0.15932     19.4 1.014e+04 4.191e-10
  0.20098     20.5 1.022e+04 4.796e-10
  0.23262     21.8 1.025e+04 4.943e-10
  0.25345     22.3 9.754e+03 3.399e-10
  0.27091     23.9 9.609e+03 2.877e-10
  0.29174     24.7 9.509e+03 2.607e-10
  0.32595     26.3 9.392e+03 2.143e-10
  0.36761     27.9 9.289e+03 1.718e-10
  0.39076     29.6 9.223e+03 1.469e-10
  0.41159     29.8 8.982e+03 1.035e-10
  0.43938     31.6 9.006e+03 1.062e-10
  0.46021     32.3 9.007e+03 1.164e-10
  0.49258     34.2 9.089e+03 1.266e-10
  0.52808     36.0 9.230e+03 1.513e-10
  0.54891     35.9 9.061e+03 1.332e-10
  0.57590     37.7 9.256e+03 1.726e-10
  0.60786     39.5 9.489e+03 2.256e-10
  0.62869     40.1 9.338e+03 1.837e-10
  0.65921     41.7 9.529e+03 2.185e-10
  0.68622     43.1 9.719e+03 2.518e-10
  0.70705     43.1 9.570e+03 2.343e-10
  0.74253     44.5 9.680e+03 2.449e-10
  0.77633     45.8 9.741e+03 2.511e-10
  0.79716     46.2 9.574e+03 2.078e-10
  0.82354     47.5 9.657e+03 2.243e-10
  0.84437     47.6 9.526e+03 2.009e-10
  0.86750     49.0 9.788e+03 2.334e-10
  0.90916     49.8 1.016e+04 2.833e-10
  0.94031     49.6 1.052e+04 3.383e-10
  0.95503     48.6 1.105e+04 4.652e-10
  0.96544     48.9 1.094e+04 4.489e-10
  0.98149     47.9 1.145e+04 6.629e-10
  0.99190     47.6 1.173e+04 8.723e-10
  1.00270     47.2 1.220e+04 1.232e-09
  1.02353     46.9 1.241e+04 1.394e-09
  1.03926     46.5 1.237e+04 1.344e-09
  1.04968     46.8 1.202e+04 1.086e-09
  1.06056     46.3 1.191e+04 9.391e-10
  1.07098     46.4 1.201e+04 8.537e-10
  1.08601     45.0 1.186e+04 6.029e-10
  1.10684     42.9 1.169e+04 4.931e-10
  1.12350     40.8 1.165e+04 4.981e-10
  1.13392     41.2 1.152e+04 4.938e-10
  1.13963     39.6 1.158e+04 5.619e-10
  1.15005     39.1 1.142e+04 5.372e-10
  1.16933     38.5 1.154e+04 6.572e-10
  1.19016     38.1 1.173e+04 7.032e-10
  1.20774     37.7 1.176e+04 6.915e-10
  1.21546     38.2 1.166e+04 6.615e-10
  1.21871     38.1 1.164e+04 6.471e-10
  1.23182     37.3 1.169e+04 5.645e-10
  1.25265     36.1 1.156e+04 4.705e-10
  1.27705     35.4 1.110e+04 3.820e-10
  1.29565     35.7 1.114e+04 3.955e-10
  1.30259     36.1 1.108e+04 3.486e-10
  1.32574     35.9 1.070e+04 2.705e-10
  1.36740     36.0 1.040e+04 2.468e-10
  1.40906     36.7 1.036e+04 2.512e-10
  1.43529     37.5 1.037e+04 2.806e-10
  1.45564     38.0 1.043e+04 2.798e-10
  1.47106     38.0 1.056e+04 2.714e-10
  1.49237     38.9 1.074e+04 3.625e-10
  1.53403     39.9 1.093e+04 4.703e-10
  1.57261     40.8 1.108e+04 5.553e-10
  1.59344     41.5 1.126e+04 5.767e-10
  1.61735     42.5 1.142e+04 6.579e-10
  1.63954     43.4 1.167e+04 7.474e-10
  1.64985     42.4 1.178e+04 7.935e-10
  1.66190     42.6 1.183e+04 8.212e-10
  1.67231     42.6 1.192e+04 8.504e-10
  1.69005     42.7 1.212e+04 9.436e-10
  1.71088     42.6 1.228e+04 1.035e-09
  1.73066     42.0 1.252e+04 1.131e-09
  1.74107     42.3 1.263e+04 1.224e-09
  1.75254     42.0 1.285e+04 1.353e-09
  1.77337     41.7 1.310e+04 1.503e-09
  1.79420     41.0 1.344e+04 1.712e-09
  1.80782     40.2 1.373e+04 1.926e-09
  1.81283     38.7 1.412e+04 2.466e-09
  1.82004     38.7 1.420e+04 2.840e-09
  1.83586     38.2 1.429e+04 3.139e-09
  1.85669     37.7 1.422e+04 3.108e-09
  1.87752     37.4 1.396e+04 2.875e-09
  1.88870     37.1 1.356e+04 2.360e-09
  1.89283     37.5 1.361e+04 2.513e-09
  1.90247     36.7 1.349e+04 2.332e-09
  1.91917     36.2 1.296e+04 1.766e-09
  1.95052     36.1 1.243e+04 1.290e-09
  1.97649     35.8 1.160e+04 7.908e-10
  1.99732     34.5 1.096e+04 4.872e-10
  2.02621     34.5 1.042e+04 3.545e-10
  2.04704     35.1 1.017e+04 2.878e-10
  2.07559     35.8 1.016e+04 2.920e-10
  2.11724     36.5 1.031e+04 3.383e-10
  2.14496     37.1 1.064e+04 4.734e-10
  2.16579     36.4 1.049e+04 4.470e-10
  2.18436     37.2 1.086e+04 6.237e-10
  2.20519     37.9 1.112e+04 7.473e-10
  2.24222     38.4 1.123e+04 7.857e-10
  2.28388     39.0 1.101e+04 6.983e-10
  2.31344     39.7 1.050e+04 4.722e-10
  2.33041     39.0 1.038e+04 4.239e-10
  2.34250     39.5 1.078e+04 4.903e-10
  2.36719     38.6 1.013e+04 3.155e-10
  2.40885     37.2 1.035e+04 3.672e-10
  2.45051     36.5 1.090e+04 5.125e-10
  2.47972     34.8 1.170e+04 8.877e-10
  2.49004     33.9 1.225e+04 1.281e-09
  2.49213     33.8 1.257e+04 1.663e-09
  2.50255     33.1 1.269e+04 1.798e-09
  2.52322     32.9 1.280e+04 1.890e-09
  2.54404     32.5 1.278e+04 1.822e-09
  2.55870     31.5 1.274e+04 1.649e-09
  2.56911     30.5 1.290e+04 1.687e-09
  2.57637     28.7 1.267e+04 1.461e-09
  2.58678     27.6 1.255e+04 1.401e-09
  2.60653     25.7 1.235e+04 1.365e-09
  2.62736     24.1 1.235e+04 1.388e-09
  2.64819     22.0 1.244e+04 1.508e-09
  2.66061     20.3 1.280e+04 1.774e-09
  2.67102     19.9 1.273e+04 1.663e-09
  2.68985     17.9 1.321e+04 2.130e-09
  2.70643     16.3 1.339e+04 2.486e-09
  2.71684     15.8 1.348e+04 2.626e-09
  2.73151     14.8 1.338e+04 2.600e-09
  2.74484     14.2 1.307e+04 2.299e-09
  2.75526     14.2 1.313e+04 2.522e-09
  2.77316     13.4 1.263e+04 1.683e-09
  2.78550     12.4 1.216e+04 1.248e-09
  2.79592     12.8 1.235e+04 1.339e-09
  2.81482     11.7 1.191e+04 9.757e-10
  2.82908      9.9 1.165e+04 8.438e-10
  2.83950     10.4 1.160e+04 7.650e-10
  2.85416      8.1 1.172e+04 7.954e-10
  2.86457      8.3 1.171e+04 7.931e-10
  2.87731      5.9 1.205e+04 9.854e-10
  2.89814      4.8 1.237e+04 1.511e-09
  2.91332      4.7 1.253e+04 2.243e-09
  2.92373      4.8 1.237e+04 2.051e-09
  2.93323      3.0 1.447e+04 3.629e-09
  2.94365      4.6 1.401e+04 2.871e-09
  2.95537     -2.1 1.768e+04 8.004e-09
  2.96573     -2.2 1.805e+04 9.371e-09
  2.98140     -3.6 1.776e+04 1.348e-08
  2.99756     -4.3 1.735e+04 1.186e-08
  3.00758     -5.9 1.770e+04 1.437e-08
  3.01231     -6.5 1.795e+04 1.705e-08
  3.02311     -7.8 1.892e+04 1.302e-08
  3.04394    -12.1 2.079e+04 5.438e-09
  3.06477    -21.2 1.595e+04 1.851e-09
  3.08096    -26.9 1.148e+04 1.067e-09
  3.08757    -26.4 1.185e+04 1.102e-09
  3.09221    -25.9 1.264e+04 1.134e-09
  3.10643    -27.8 1.121e+04 8.698e-10
  3.12726    -28.3 1.123e+04 7.916e-10
  3.14809    -31.1 1.252e+04 8.782e-10
  3.16004    -36.1 1.425e+04 1.489e-09
  3.16757    -36.2 1.475e+04 1.561e-09
  3.17645    -37.7 1.547e+04 2.090e-09
  3.18974    -39.9 1.521e+04 4.622e-09
  3.21057    -39.5 1.523e+04 7.618e-09
  3.22869    -37.3 1.527e+04 8.302e-09
  3.23911    -37.4 1.581e+04 9.992e-09
  3.25027    -34.9 1.576e+04 8.587e-09
  3.26068    -34.3 1.590e+04 8.411e-09
  3.27306    -33.1 1.538e+04 3.083e-09
  3.29389    -40.9 1.278e+04 6.211e-10
  3.30777    -45.2 9.970e+03 2.844e-10
  3.31818    -45.1 1.044e+04 3.537e-10
  3.33451    -45.7 9.763e+03 2.700e-10
  3.34492    -45.6 9.889e+03 2.965e-10
  3.36611    -45.1 9.707e+03 2.478e-10
  3.38703    -45.3 1.021e+04 3.744e-10
  3.40864    -44.7 9.905e+03 3.243e-10
  3.45030    -44.1 9.847e+03 3.147e-10
  3.49196    -43.7 9.903e+03 3.218e-10
  3.51359    -43.6 9.994e+03 3.292e-10
  3.52515    -43.7 9.974e+03 3.197e-10
  3.54518    -43.4 1.064e+04 5.675e-10
  3.57528    -43.5 1.049e+04 4.968e-10
  3.61693    -43.6 1.033e+04 4.297e-10
  3.65859    -43.7 1.033e+04 3.811e-10
  3.68207    -46.0 1.129e+04 4.011e-10
  3.68514    -48.1 1.176e+04 3.560e-10
  3.70332    -46.1 1.150e+04 3.258e-10
  3.74191    -52.9 1.372e+04 8.875e-10
  3.76621    -56.6 1.408e+04 2.344e-09
  3.77652    -57.1 1.396e+04 2.416e-09
  3.79378    -58.2 1.416e+04 3.093e-09
  3.81461    -59.5 1.419e+04 3.083e-09
  3.83003    -61.8 1.364e+04 1.591e-09
  3.84045    -60.4 1.508e+04 2.569e-09
  3.85035    -64.0 1.382e+04 8.006e-10
  3.86076    -63.5 1.309e+04 7.685e-10
  3.87710    -67.2 1.212e+04 3.690e-10
  3.90844    -70.4 1.101e+04 2.163e-10
  3.95020    -71.3 1.033e+04 1.481e-10
  3.97796    -71.1 1.030e+04 1.450e-10
  3.99879    -70.9 1.094e+04 2.905e-10
  4.01902    -70.0 1.099e+04 3.632e-10
  4.03985    -69.1 1.113e+04 3.797e-10
  4.07517    -68.5 1.149e+04 5.315e-10
  4.11527    -68.3 1.190e+04 6.931e-10
  4.13610    -69.3 1.315e+04 1.531e-09
  4.14798    -69.2 1.331e+04 1.746e-09
  4.16871    -69.2 1.353e+04 2.008e-09
  4.18730    -69.1 1.364e+04 2.110e-09
  4.19771    -68.8 1.344e+04 1.854e-09
  4.20457    -68.7 1.333e+04 1.745e-09
  4.21498    -68.7 1.400e+04 2.498e-09
  4.24171    -68.7 1.307e+04 1.453e-09
  4.27342    -68.7 1.239e+04 9.889e-10
  4.29425    -69.5 1.285e+04 1.091e-09
  4.32512    -69.0 1.199e+04 7.279e-10
  4.35597    -67.4 1.141e+04 5.221e-10
  4.37680    -66.8 1.129e+04 4.208e-10
  4.40844    -65.2 1.101e+04 3.442e-10
  4.43156    -63.4 1.072e+04 2.838e-10
  4.45239    -63.3 1.062e+04 2.643e-10
  4.49175    -61.3 1.028e+04 1.977e-10
  4.52444    -59.2 9.979e+03 1.439e-10
  4.54527    -58.4 1.001e+04 1.424e-10
  4.56888    -56.4 9.776e+03 1.083e-10
  4.58971    -56.2 9.730e+03 1.062e-10
  4.61673    -54.2 9.583e+03 8.352e-11
  4.65838    -52.2 9.453e+03 6.810e-11
  4.69292    -50.2 9.338e+03 5.910e-11
  4.71375    -49.4 9.408e+03 7.018e-11
  4.72703    -47.4 9.297e+03 6.528e-11
  4.74785    -47.0 9.235e+03 7.001e-11
  4.78336    -45.0 9.123e+03 6.534e-11
  4.82502    -43.0 9.029e+03 6.118e-11
  4.86139    -41.0 8.967e+03 5.795e-11
  4.87989    -40.2 9.049e+03 7.012e-11
  4.88517    -39.8 8.980e+03 7.051e-11
  4.90833    -37.9 8.921e+03 6.574e-11
  4.94999    -36.3 8.905e+03 6.421e-11
  4.99165    -34.7 8.912e+03 6.918e-11
  5.02249    -33.4 8.952e+03 8.496e-11
  5.03988    -32.6 8.790e+03 6.956e-11
  5.05070    -31.6 8.853e+03 7.606e-11
  5.07496    -30.2 8.891e+03 8.605e-11
  5.11662    -29.2 8.981e+03 1.115e-10
  5.15828    -28.6 9.125e+03 1.661e-10
  5.18063    -27.9 9.344e+03 2.608e-10
  5.19987    -27.5 9.403e+03 2.422e-10
  5.21917    -26.6 9.511e+03 2.444e-10
  5.24160    -25.6 9.901e+03 4.016e-10
  5.28325    -24.7 1.013e+04 5.109e-10
  5.31795    -24.2 1.016e+04 5.184e-10
  5.33878    -23.5 1.039e+04 6.515e-10
  5.36657    -23.2 1.001e+04 5.296e-10
  5.38765    -22.9 9.499e+03 3.744e-10
  5.40848    -22.6 9.711e+03 3.862e-10
  5.44989    -22.0 9.210e+03 2.734e-10
  5.47609    -21.0 8.790e+03 1.882e-10
  5.49692    -20.3 9.014e+03 2.407e-10
  5.53320    -19.5 8.681e+03 1.717e-10
  5.55612    -18.9 8.533e+03 1.429e-10
  5.57695    -19.0 8.629e+03 1.430e-10
  5.61341    -18.1 8.565e+03 1.372e-10
  5.63424    -17.4 8.882e+03 2.028e-10
  5.65818    -16.2 8.884e+03 2.054e-10
  5.69983    -14.8 8.923e+03 1.885e-10
  5.72460    -13.9 8.958e+03 1.581e-10
  5.74543    -14.0 8.932e+03 1.437e-10
  5.77155    -13.7 8.926e+03 1.526e-10
  5.79238    -12.5 9.028e+03 1.535e-10
  5.82481    -12.1 8.919e+03 1.851e-10
  5.86647    -10.9 9.009e+03 2.271e-10
  5.89307     -9.3 9.052e+03 2.307e-10
  5.91390     -8.9 9.079e+03 2.244e-10
  5.92970     -7.3 9.132e+03 1.496e-10
  5.95053     -6.0 9.286e+03 1.982e-10
  5.99144     -5.2 9.159e+03 1.122e-10
  6.03310     -4.6 8.730e+03 8.384e-11
  6.06155     -2.9 8.578e+03 6.868e-11
  6.07464     -2.2 8.599e+03 6.536e-11
  6.08785     -1.0 8.620e+03 6.386e-11
  6.11641      1.0 8.748e+03 4.317e-11
  6.15807      2.3 8.957e+03 3.290e-11
  6.19973      3.8 8.935e+03 3.316e-11
  6.22516      5.5 8.919e+03 3.752e-11
  6.23462      6.5 8.846e+03 4.034e-11
  6.25085      7.3 8.931e+03 3.301e-11
  6.28305      9.2 8.967e+03 4.125e-11
  6.32470     11.1 9.087e+03 5.292e-11
  6.36248     12.7 9.248e+03 7.260e-11
  6.38331     13.8 9.191e+03 7.226e-11
  6.39850     15.6 9.368e+03 9.778e-11
  6.41933     16.3 9.427e+03 1.021e-10
  6.44968     17.9 9.720e+03 1.412e-10
  6.49134     19.2 1.007e+04 1.966e-10
  6.52062     19.8 1.047e+04 2.861e-10
  6.54145     21.1 1.024e+04 1.778e-10
  6.56697     21.1 1.061e+04 2.797e-10
  6.58780     21.1 1.081e+04 3.190e-10
  6.61631     21.5 1.102e+04 5.291e-10
  6.65794     21.9 1.105e+04 5.488e-10
  6.69960     23.0 1.081e+04 4.398e-10
  6.73545     22.4 1.073e+04 3.564e-10
  6.75628     23.1 1.076e+04 3.729e-10
  6.78294     22.5 1.052e+04 3.324e-10
  6.81608     22.7 1.031e+04 3.171e-10
  6.83691     23.6 1.029e+04 3.136e-10
  6.86626     24.2 1.015e+04 3.026e-10
  6.90392     25.0 1.011e+04 2.948e-10
  6.92475     25.3 1.016e+04 2.961e-10
  6.94957     25.6 1.021e+04 3.036e-10
  6.97423     25.7 1.027e+04 3.291e-10
  6.99506     27.0 1.057e+04 4.957e-10
  7.03289     27.6 1.073e+04 5.859e-10
  7.07240     28.7 1.073e+04 5.640e-10
  7.09323     28.2 1.064e+04 4.487e-10
  7.11155     28.2 1.058e+04 2.841e-10
  7.13237     29.8 1.111e+04 6.252e-10
  7.15786     28.9 1.122e+04 4.481e-10
  7.19952     27.0 1.114e+04 4.285e-10
  7.24087     25.4 1.065e+04 4.277e-10
  7.26170     24.2 9.742e+03 2.514e-10
  7.26969     23.1 9.591e+03 1.908e-10
  7.29052     20.7 1.039e+04 2.786e-10
  7.32450     18.2 1.034e+04 3.476e-10
  7.36615     17.4 1.023e+04 3.788e-10
  7.40701     17.5 1.004e+04 3.815e-10
  7.42784     16.7 1.056e+04 5.376e-10
  7.43018     17.0 1.007e+04 4.575e-10
  7.45101     17.5 1.026e+04 5.287e-10
  7.49113     18.4 9.694e+03 3.708e-10
  7.53279     19.4 9.226e+03 2.051e-10
  7.56515     19.1 9.036e+03 1.009e-10
  7.58598     18.2 9.390e+03 1.499e-10
  7.59865     17.6 9.051e+03 1.343e-10
  7.61948     17.7 9.169e+03 1.689e-10
  7.65776     17.7 9.089e+03 1.988e-10
  7.69942     18.5 9.048e+03 2.339e-10
  7.72330     19.7 8.997e+03 2.244e-10
  7.74413     19.1 9.587e+03 3.955e-10
  7.76713     20.0 9.448e+03 3.316e-10
  7.78796     19.5 9.643e+03 3.945e-10
  7.82439     20.1 9.325e+03 2.752e-10
  7.86061     20.5 8.938e+03 1.878e-10
  7.88144     20.4 9.229e+03 2.877e-10
  7.90771     20.8 8.859e+03 1.785e-10
  7.93560     21.2 8.533e+03 1.324e-10
  7.95643     20.6 8.489e+03 1.427e-10
  7.99102     21.5 8.453e+03 1.427e-10
  8.01876     22.4 8.518e+03 1.534e-10
  8.03959     21.2 8.431e+03 1.194e-10
  8.07434     21.5 8.595e+03 1.399e-10
  8.10408     21.6 8.773e+03 1.726e-10
  8.12491     21.2 8.785e+03 1.933e-10
  8.15608     21.3 8.911e+03 2.177e-10
  8.17690     19.3 8.924e+03 2.178e-10
  8.19931     19.2 9.012e+03 2.250e-10
  8.24097     18.9 9.077e+03 2.291e-10
  8.27255     17.9 9.336e+03 2.678e-10
  8.29338     17.4 9.642e+03 3.675e-10
  8.31378     16.8 9.787e+03 4.109e-10
  8.32444     16.0 1.008e+04 4.911e-10
  8.33485     14.3 1.035e+04 5.547e-10
  8.35534     12.3 1.120e+04 8.002e-10
  8.36701     10.2 1.195e+04 1.201e-09
  8.37742      9.6 1.221e+04 1.422e-09
  8.39310      8.9 1.245e+04 1.800e-09
  8.40351      7.9 1.232e+04 1.727e-09
  8.41782      8.0 1.211e+04 1.555e-09
  8.43865      7.5 1.180e+04 1.126e-09
  8.45125      6.1 1.163e+04 7.005e-10
  8.46166      4.8 1.157e+04 6.897e-10
  8.47217      2.1 1.094e+04 4.163e-10
  8.48259      0.8 1.059e+04 3.869e-10
  8.50114     -0.4 9.984e+03 3.276e-10
  8.53248     -0.7 9.722e+03 2.613e-10
  8.57424     -1.2 9.567e+03 2.099e-10
  8.60950     -1.9 9.585e+03 1.932e-10
  8.63033     -3.2 9.920e+03 1.899e-10
  8.65755     -4.8 1.000e+04 2.461e-10
  8.69921     -6.6 1.049e+04 3.424e-10
  8.74087     -8.9 1.089e+04 5.396e-10
  8.76773     -9.9 1.089e+04 8.012e-10
  8.78401    -10.0 1.079e+04 7.854e-10
  8.79881    -10.3 1.062e+04 7.336e-10
  8.82418    -10.0 1.046e+04 5.524e-10
  8.86584    -11.3 1.031e+04 2.734e-10
  8.90514    -14.4 9.773e+03 2.009e-10
  8.92597    -14.1 9.338e+03 1.471e-10
  8.94645    -15.8 9.669e+03 1.846e-10
  8.96728    -16.5 1.023e+04 2.889e-10
  8.99082    -17.6 1.017e+04 4.553e-10
  9.02196    -17.1 1.024e+04 5.999e-10
  9.04091    -17.1 1.035e+04 6.124e-10
  9.05132    -17.0 1.054e+04 6.929e-10
  9.06309    -17.4 1.065e+04 5.855e-10
  9.08402    -16.9 1.052e+04 5.798e-10
  9.11493    -17.8 1.029e+04 3.551e-10
  9.13576    -18.7 9.927e+03 2.381e-10
  9.15745    -20.3 9.436e+03 1.372e-10
  9.19911    -22.2 9.168e+03 9.968e-11
  9.22143    -24.4 9.460e+03 1.086e-10
  9.24226    -23.0 9.190e+03 9.196e-11
  9.28242    -25.6 9.535e+03 1.519e-10
  9.30423    -27.8 9.895e+03 3.159e-10
  9.32506    -27.7 9.850e+03 3.360e-10
  9.35875    -28.9 1.044e+04 4.871e-10
  9.37958    -27.7 1.016e+04 3.763e-10
  9.40740    -30.2 1.053e+04 4.116e-10
  9.44905    -34.5 1.067e+04 3.892e-10
  9.47271    -38.6 1.055e+04 4.329e-10
  9.49354    -38.5 1.051e+04 4.327e-10
  9.51690    -40.8 1.099e+04 5.549e-10
  9.53772    -39.2 1.084e+04 5.199e-10
  9.57403    -42.1 1.113e+04 5.456e-10
  9.61569    -46.6 1.118e+04 3.915e-10
  9.64118    -51.2 1.057e+04 2.890e-10
  9.65888    -50.4 1.061e+04 3.098e-10
  9.67504    -48.1 1.085e+04 3.446e-10
  9.69900    -52.1 1.015e+04 2.219e-10
  9.74066    -55.2 9.849e+03 1.522e-10
  9.78232    -58.0 9.525e+03 1.132e-10
  9.80966    -59.9 9.157e+03 9.493e-11
  9.81887    -59.4 9.100e+03 8.317e-11
  9.83319    -58.3 9.136e+03 8.125e-11
  9.86563    -59.3 8.858e+03 7.066e-11
  9.90729    -59.4 8.625e+03 5.864e-11
  9.94895    -59.4 8.464e+03 4.635e-11
  9.97050    -59.4 8.382e+03 3.699e-11
  9.97885    -59.3 8.449e+03 3.779e-11
  9.99896    -58.4 8.455e+03 3.871e-11
 10.03227    -58.2 8.432e+03 3.563e-11
 10.07392    -57.9 8.421e+03 3.543e-11
 10.10782    -57.6 8.387e+03 3.830e-11
 10.12865    -57.5 8.389e+03 4.088e-11
 10.14661    -57.0 8.355e+03 4.452e-11
 10.16744    -55.7 8.360e+03 4.498e-11
 10.19890    -55.0 8.353e+03 4.877e-11
 10.24056    -54.4 8.380e+03 5.237e-11
 10.26596    -54.0 8.420e+03 5.810e-11
 10.28679    -54.3 8.480e+03 6.294e-11
 10.31508    -53.9 8.551e+03 8.299e-11
 10.33591    -52.4 8.600e+03 8.573e-11
 10.36553    -51.8 8.727e+03 1.138e-10
 10.40328    -51.1 8.865e+03 1.464e-10
 10.42411    -50.9 8.882e+03 1.480e-10
 10.44885    -50.1 8.946e+03 1.600e-10
 10.48356    -49.4 8.943e+03 1.598e-10
 10.50439    -48.1 8.961e+03 1.428e-10
 10.53216    -47.3 8.859e+03 1.322e-10
 10.56142    -46.7 8.736e+03 1.175e-10
 10.58225    -46.4 8.699e+03 9.085e-11
 10.61548    -46.0 8.691e+03 9.133e-11
 10.65203    -45.9 8.746e+03 1.041e-10
 10.67286    -44.4 8.799e+03 9.907e-11
 10.69874    -44.6 8.948e+03 1.339e-10
 10.74040    -44.8 9.229e+03 2.092e-10
 10.78211    -45.3 9.540e+03 2.978e-10
 10.82051    -46.1 9.928e+03 3.790e-10
 10.84134    -44.7 1.026e+04 4.535e-10
 10.85491    -46.6 1.058e+04 4.875e-10
 10.86711    -47.2 1.063e+04 4.961e-10
 10.87752    -51.8 1.146e+04 6.062e-10
 10.89647    -52.6 1.199e+04 6.456e-10
 10.91496    -56.8 1.300e+04 9.539e-10
 10.92538    -57.3 1.357e+04 1.266e-09
 10.93576    -60.4 1.393e+04 1.845e-09
 10.94618    -62.9 1.448e+04 2.933e-09
 10.95896    -64.1 1.458e+04 3.406e-09
 10.97979    -64.6 1.468e+04 3.648e-09
 10.99920    -65.1 1.475e+04 3.764e-09
 11.00962    -65.4 1.499e+04 3.887e-09
 11.01484    -66.1 1.515e+04 3.311e-09
 11.02525    -69.7 1.461e+04 2.088e-09
 11.04228    -71.4 1.387e+04 1.631e-09
 11.06311    -73.0 1.309e+04 1.426e-09
 11.08344    -73.8 1.266e+04 1.395e-09
 11.09385    -75.7 1.210e+04 1.234e-09
 11.10476    -75.6 1.210e+04 1.325e-09
 11.12559    -75.4 1.216e+04 1.411e-09
 11.14642    -75.2 1.218e+04 1.439e-09
 11.16257    -75.2 1.216e+04 1.436e-09
 11.17298    -76.1 1.149e+04 9.604e-10
 11.17809    -76.0 1.135e+04 9.202e-10
 11.18851    -76.1 1.172e+04 9.651e-10
 11.20891    -76.0 1.159e+04 9.377e-10
 11.22974    -75.9 1.140e+04 8.972e-10
 11.24164    -75.7 1.115e+04 8.426e-10
 11.25205    -76.7 1.081e+04 5.895e-10
 11.26233    -76.5 1.068e+04 5.673e-10
 11.27274    -76.9 1.098e+04 5.874e-10
 11.29223    -76.8 1.085e+04 5.732e-10
 11.31030    -76.6 1.071e+04 5.563e-10
 11.32071    -77.6 1.054e+04 4.709e-10
 11.33388    -77.4 1.053e+04 4.733e-10
 11.34657    -77.3 1.057e+04 4.831e-10
 11.35698    -78.0 1.079e+04 5.169e-10
 11.37554    -78.2 1.090e+04 5.464e-10
 11.38937    -78.5 1.101e+04 5.820e-10
 11.39978    -80.5 1.129e+04 5.997e-10
