# Columns:
#   distance along LOS (in CHIMPs)
#   peculiar velocity  (in km/s)
#   temperature (K)
#   HI number density
# pos=(129.15,92.0231,151.758), angles=(1.20035,1.53477)
  0.01922     30.7 9.826e+03 2.256e-10
  0.05941     31.4 1.008e+04 2.937e-10
  0.09270     32.8 1.028e+04 4.449e-10
  0.11367     33.1 1.026e+04 4.240e-10
  0.14327     35.1 1.059e+04 5.596e-10
  0.18521     36.6 1.093e+04 6.485e-10
  0.20955     37.7 1.117e+04 7.024e-10
  0.23051     37.7 1.060e+04 4.326e-10
  0.26907     39.0 1.066e+04 4.588e-10
  0.30543     40.4 1.066e+04 4.541e-10
  0.32639     40.8 1.006e+04 2.387e-10
  0.35293     42.0 1.013e+04 2.217e-10
  0.39487     42.8 1.025e+04 2.372e-10
  0.42228     43.8 1.025e+04 3.091e-10
  0.44324     44.3 1.003e+04 2.280e-10
  0.46255     46.0 1.012e+04 3.234e-10
  0.48352     45.7 1.005e+04 3.173e-10
  0.51816     47.4 1.008e+04 3.515e-10
  0.53912     47.8 9.997e+03 3.204e-10
  0.56260     49.5 1.005e+04 3.438e-10
  0.60453     51.0 9.981e+03 3.276e-10
  0.63501     52.7 9.782e+03 2.743e-10
  0.65597     53.3 9.748e+03 2.702e-10
  0.68839     55.3 9.464e+03 1.881e-10
  0.73033     57.0 9.279e+03 1.169e-10
  0.75185     58.2 9.198e+03 7.737e-11
  0.77282     58.6 9.118e+03 6.295e-11
  0.81419     59.8 8.869e+03 5.303e-11
  0.84774     61.5 8.718e+03 5.209e-11
  0.86870     62.2 8.710e+03 5.225e-11
  0.89805     64.3 8.690e+03 5.304e-11
  0.93999     66.4 8.676e+03 5.426e-11
  0.96458     68.5 8.679e+03 5.568e-11
  0.98555     69.3 8.691e+03 5.965e-11
  1.02385     71.4 8.739e+03 6.296e-11
  1.06047     73.3 8.811e+03 6.885e-11
  1.08143     73.8 8.916e+03 8.602e-11
  1.10772     75.4 9.022e+03 1.079e-10
  1.14965     77.1 9.287e+03 1.586e-10
  1.17731     78.7 9.839e+03 2.614e-10
  1.19828     78.9 1.024e+04 3.805e-10
  1.22293     79.4 1.050e+04 4.582e-10
  1.23554     79.8 1.074e+04 5.563e-10
  1.24603     79.9 1.104e+04 6.827e-10
  1.26477     80.3 1.144e+04 8.876e-10
  1.28348     80.6 1.191e+04 1.152e-09
  1.29397     80.4 1.221e+04 1.283e-09
  1.30670     80.4 1.267e+04 1.581e-09
  1.32766     80.3 1.313e+04 1.904e-09
  1.34191     80.0 1.347e+04 2.229e-09
  1.35239     79.2 1.367e+04 2.254e-09
  1.36960     78.8 1.381e+04 2.546e-09
  1.38985     78.3 1.390e+04 2.736e-09
  1.40033     77.3 1.386e+04 2.652e-09
  1.41153     76.7 1.388e+04 2.654e-09
  1.43249     75.8 1.395e+04 2.552e-09
  1.44827     74.5 1.402e+04 2.374e-09
  1.45875     74.0 1.379e+04 2.198e-09
  1.47443     72.5 1.381e+04 2.015e-09
  1.49539     70.9 1.362e+04 1.752e-09
  1.50670     68.9 1.344e+04 1.527e-09
  1.51718     69.2 1.336e+04 1.417e-09
  1.53733     66.2 1.384e+04 1.526e-09
  1.55464     62.3 1.477e+04 1.999e-09
  1.56512     62.8 1.482e+04 1.962e-09
  1.57926     60.1 1.480e+04 2.970e-09
  1.60022     60.0 1.427e+04 4.171e-09
  1.61306     60.7 1.415e+04 4.186e-09
  1.62297     61.4 1.447e+04 4.936e-09
  1.63110     62.0 1.449e+04 4.917e-09
  1.64216     62.0 1.486e+04 3.968e-09
  1.66100     59.6 1.593e+04 2.995e-09
  1.67148     59.6 1.684e+04 3.969e-09
  1.68409     57.3 1.578e+04 2.657e-09
  1.70505     55.1 1.352e+04 1.763e-09
  1.71943     53.2 1.289e+04 1.255e-09
  1.72991     54.0 1.333e+04 1.625e-09
  1.74699     52.3 1.332e+04 1.116e-09
  1.76737     50.5 1.253e+04 8.540e-10
  1.77785     50.4 1.265e+04 8.106e-10
  1.78892     48.6 1.186e+04 6.157e-10
  1.80989     48.0 1.187e+04 5.306e-10
  1.82579     47.3 1.214e+04 5.132e-10
  1.83627     45.9 1.195e+04 4.382e-10
  1.85182     44.2 1.222e+04 5.556e-10
  1.87278     42.7 1.265e+04 7.656e-10
  1.88421     42.3 1.282e+04 1.157e-09
  1.89470     41.8 1.276e+04 1.238e-09
  1.91472     42.8 1.297e+04 1.670e-09
  1.93215     44.0 1.306e+04 1.919e-09
  1.94264     43.8 1.339e+04 2.092e-09
  1.95665     44.8 1.336e+04 1.966e-09
  1.97761     45.6 1.320e+04 1.627e-09
  1.99058     46.0 1.283e+04 1.240e-09
  2.00106     45.6 1.282e+04 1.254e-09
  2.01955     45.4 1.240e+04 9.828e-10
  2.03852     45.3 1.207e+04 7.702e-10
  2.04900     45.0 1.213e+04 8.182e-10
  2.06148     44.9 1.194e+04 7.601e-10
  2.08244     45.0 1.180e+04 7.515e-10
  2.09694     45.0 1.182e+04 8.067e-10
  2.10743     45.0 1.203e+04 9.251e-10
  2.12438     45.0 1.220e+04 1.053e-09
  2.14488     45.3 1.215e+04 1.233e-09
  2.15537     45.3 1.237e+04 1.353e-09
  2.16631     46.1 1.249e+04 1.450e-09
  2.19786     45.8 1.238e+04 1.307e-09
  2.23989     45.2 1.203e+04 9.809e-10
  2.26193     44.0 1.127e+04 7.123e-10
  2.28289     43.2 1.073e+04 5.313e-10
  2.32375     43.2 9.848e+03 3.522e-10
  2.35781     43.9 9.206e+03 2.029e-10
  2.37878     43.4 9.060e+03 1.565e-10
  2.40762     44.0 8.783e+03 9.722e-11
  2.44955     44.3 8.563e+03 7.748e-11
  2.47466     45.2 8.423e+03 8.071e-11
  2.49562     45.9 8.402e+03 7.304e-11
  2.53341     47.1 8.285e+03 8.444e-11
  2.57054     48.4 8.310e+03 9.592e-11
  2.59151     49.0 8.328e+03 9.511e-11
  2.61728     50.1 8.404e+03 1.164e-10
  2.65921     50.8 8.643e+03 1.473e-10
  2.68739     51.1 8.947e+03 1.928e-10
  2.70835     52.0 8.943e+03 1.940e-10
  2.74307     52.1 9.173e+03 2.626e-10
  2.77908     52.3 9.316e+03 3.303e-10
  2.79831     52.8 9.242e+03 3.146e-10
  2.80423     53.2 9.259e+03 3.011e-10
  2.82694     52.9 9.335e+03 3.345e-10
  2.86887     52.5 9.325e+03 3.535e-10
  2.90012     52.3 9.308e+03 3.548e-10
  2.92108     52.5 9.427e+03 3.960e-10
  2.95273     52.2 9.331e+03 3.516e-10
  2.99467     51.0 9.282e+03 3.328e-10
  3.01696     50.0 9.139e+03 3.412e-10
  3.03793     50.3 8.940e+03 2.865e-10
  3.07853     49.1 9.029e+03 3.341e-10
  3.10988     47.9 9.369e+03 4.194e-10
  3.12313     47.0 9.862e+03 5.545e-10
  3.13362     46.9 9.957e+03 5.634e-10
  3.15172     45.9 1.047e+04 8.090e-10
  3.17107     45.3 1.077e+04 1.027e-09
  3.18156     45.2 1.089e+04 1.070e-09
  3.19365     45.2 1.105e+04 1.239e-09
  3.21462     45.1 1.104e+04 1.203e-09
  3.22950     45.1 1.079e+04 9.980e-10
  3.23998     45.1 1.077e+04 9.833e-10
  3.25655     45.2 1.019e+04 7.557e-10
  3.28809     42.6 9.694e+03 3.822e-10
  3.32558     39.2 8.586e+03 1.791e-10
  3.34654     38.7 8.433e+03 1.516e-10
  3.37206     35.9 8.040e+03 1.031e-10
  3.41399     33.8 8.286e+03 1.070e-10
  3.44242     29.6 8.982e+03 1.711e-10
  3.46339     29.7 9.152e+03 1.945e-10
  3.48727     27.3 9.520e+03 3.544e-10
  3.50065     26.2 9.968e+03 4.921e-10
  3.51114     25.5 1.039e+04 6.249e-10
  3.52911     24.1 1.164e+04 1.005e-09
  3.54859     21.8 1.247e+04 1.309e-09
  3.55908     20.7 1.283e+04 1.591e-09
  3.57104     18.6 1.232e+04 1.620e-09
  3.59201     17.9 1.175e+04 1.487e-09
  3.60702     17.1 1.254e+04 1.269e-09
  3.61750     17.3 1.158e+04 1.132e-09
  3.63394      5.1 2.105e+04 9.190e-10
  3.65490    -26.8 3.219e+04 2.799e-09
  3.66588    -35.1 2.245e+04 1.502e-08
  3.67107    -35.8 2.244e+04 1.443e-08
  3.68101    -37.8 2.241e+04 4.024e-08
  3.68931    -39.5 2.345e+04 8.075e-08
  3.69456    -38.2 2.336e+04 6.005e-08
  3.70198    -41.0 2.510e+04 8.395e-08
  3.71246    -45.9 2.598e+04 8.764e-08
  3.71853    -52.9 2.750e+04 5.775e-08
  3.72377    -50.6 2.684e+04 5.786e-08
  3.73343    -58.3 2.602e+04 3.163e-08
  3.74250    -65.2 2.487e+04 2.340e-08
  3.74774    -62.6 2.419e+04 2.524e-08
  3.75440    -68.2 2.428e+04 2.413e-08
  3.76488    -74.7 2.859e+04 2.214e-08
  3.77171    -80.7 2.800e+04 4.223e-08
  3.77695    -79.2 2.888e+04 3.983e-08
  3.78584    -82.4 2.489e+04 1.347e-07
  3.79568    -83.0 2.265e+04 3.784e-07
  3.80092    -82.2 2.307e+04 3.565e-07
  3.80681    -83.9 2.223e+04 6.810e-07
  3.81729    -87.4 2.206e+04 8.179e-07
  3.82489    -91.4 2.187e+04 7.774e-07
  3.83013    -90.9 2.242e+04 6.121e-07
  3.83826    -93.7 2.243e+04 4.060e-07
  3.84874    -95.8 2.305e+04 2.007e-07
  3.85410    -97.8 2.344e+04 1.077e-07
  3.85934    -98.0 2.363e+04 1.031e-07
  3.86971    -99.8 2.321e+04 7.244e-08
  3.87807   -101.1 2.266e+04 5.964e-08
  3.88331   -100.7 2.273e+04 5.661e-08
  3.89068   -101.3 2.220e+04 5.228e-08
  3.90116   -101.5 2.188e+04 4.898e-08
  3.90729   -101.3 2.171e+04 4.609e-08
  3.91253   -101.1 2.181e+04 4.346e-08
  3.92212   -101.3 2.167e+04 4.049e-08
  3.93126   -101.8 2.137e+04 3.503e-08
  3.93650   -101.9 2.097e+04 2.705e-08
  3.94758   -102.3 2.016e+04 2.223e-08
  3.95811   -101.9 1.975e+04 1.871e-08
  3.96940   -101.6 1.906e+04 1.676e-08
  3.98454   -101.1 1.804e+04 1.256e-08
  3.99502   -100.5 1.753e+04 1.025e-08
  4.01133    -99.8 1.670e+04 8.066e-09
  4.03229    -99.1 1.583e+04 5.883e-09
  4.04296    -98.7 1.488e+04 4.071e-09
  4.05344    -98.4 1.453e+04 3.748e-09
  4.07423    -98.0 1.374e+04 2.713e-09
  4.09090    -97.6 1.295e+04 1.964e-09
  4.10138    -97.2 1.277e+04 1.884e-09
  4.11616    -96.9 1.214e+04 1.448e-09
  4.13713    -96.4 1.160e+04 1.155e-09
  4.14932    -95.7 1.116e+04 9.555e-10
  4.15981    -95.3 1.109e+04 9.502e-10
  4.17906    -94.4 1.078e+04 8.061e-10
  4.19727    -93.5 1.055e+04 6.918e-10
  4.21833    -93.0 1.060e+04 6.941e-10
  4.25263    -91.0 1.012e+04 5.213e-10
  4.29334    -88.9 9.722e+03 4.005e-10
  4.31431    -88.0 9.745e+03 4.159e-10
  4.33650    -86.2 9.465e+03 3.320e-10
  4.37843    -84.3 9.273e+03 2.792e-10
  4.41019    -82.4 9.113e+03 2.406e-10
  4.43116    -81.6 9.117e+03 2.500e-10
  4.46230    -79.6 8.959e+03 2.125e-10
  4.50423    -77.6 8.843e+03 1.831e-10
  4.52704    -75.6 8.757e+03 1.581e-10
  4.54800    -74.7 8.751e+03 1.648e-10
  4.58809    -72.7 8.664e+03 1.407e-10
  4.62292    -70.7 8.586e+03 1.217e-10
  4.64389    -69.9 8.628e+03 1.384e-10
  4.67196    -67.9 8.585e+03 1.273e-10
  4.71389    -65.9 8.570e+03 1.225e-10
  4.73977    -63.9 8.568e+03 1.215e-10
  4.76073    -63.1 8.721e+03 1.606e-10
  4.79775    -61.0 8.726e+03 1.606e-10
  4.83565    -58.9 8.750e+03 1.635e-10
  4.85662    -58.0 8.882e+03 1.983e-10
  4.88162    -56.0 8.894e+03 1.949e-10
  4.92355    -53.9 8.923e+03 1.957e-10
  4.95250    -52.0 8.973e+03 1.984e-10
  4.97346    -51.3 8.999e+03 2.044e-10
  5.00741    -49.6 9.044e+03 2.070e-10
  5.04838    -48.0 9.073e+03 2.094e-10
  5.06935    -47.3 9.104e+03 2.167e-10
  5.09128    -45.8 9.112e+03 2.183e-10
  5.11657    -44.4 9.083e+03 2.105e-10
  5.13754    -44.8 9.333e+03 2.800e-10
  5.16523    -43.3 9.240e+03 2.557e-10
  5.18619    -42.6 9.294e+03 2.797e-10
  5.21708    -41.1 9.136e+03 2.253e-10
  5.25901    -39.7 9.033e+03 1.842e-10
  5.28207    -38.6 9.034e+03 1.691e-10
  5.30304    -37.8 8.938e+03 1.534e-10
  5.34287    -36.7 8.942e+03 1.490e-10
  5.37796    -35.9 9.076e+03 1.550e-10
  5.39892    -35.0 8.990e+03 1.482e-10
  5.42674    -34.2 9.217e+03 1.779e-10
  5.46867    -33.3 9.386e+03 2.142e-10
  5.49480    -32.4 9.487e+03 2.384e-10
  5.51577    -31.5 9.548e+03 2.610e-10
  5.55253    -30.5 9.592e+03 2.766e-10
  5.59069    -29.3 9.588e+03 2.790e-10
  5.61165    -28.5 9.716e+03 3.236e-10
  5.63640    -27.2 9.573e+03 2.960e-10
  5.67833    -25.7 9.394e+03 2.490e-10
  5.70753    -24.2 9.237e+03 2.099e-10
  5.72850    -23.5 9.303e+03 2.310e-10
  5.76220    -21.9 9.174e+03 2.027e-10
  5.80342    -20.1 9.084e+03 1.868e-10
  5.82438    -19.5 9.116e+03 1.980e-10
  5.84606    -17.6 9.050e+03 1.876e-10
  5.88799    -15.6 9.014e+03 1.818e-10
  5.92026    -13.6 8.996e+03 1.772e-10
  5.94123    -12.9 9.035e+03 1.875e-10
  5.97186    -10.9 9.076e+03 1.958e-10
  6.01379     -9.0 9.175e+03 2.170e-10
  6.03711     -7.1 9.342e+03 2.524e-10
  6.05808     -6.6 9.572e+03 3.170e-10
  6.09765     -4.7 9.845e+03 3.898e-10
  6.12900     -3.6 1.010e+04 4.801e-10
  6.14328     -3.3 1.015e+04 5.269e-10
  6.15376     -3.1 1.018e+04 5.554e-10
  6.17084     -1.8 1.040e+04 6.462e-10
  6.19122     -0.9 1.061e+04 7.042e-10
  6.20171     -0.9 1.056e+04 6.616e-10
  6.21277     -0.2 1.072e+04 6.992e-10
  6.23374      0.6 1.081e+04 7.243e-10
  6.24965      1.4 1.082e+04 7.302e-10
  6.26013      1.1 1.052e+04 6.226e-10
  6.27464      1.9 1.062e+04 6.538e-10
  6.28512      1.6 1.032e+04 5.301e-10
  6.29664      1.1 1.095e+04 6.228e-10
  6.30807     -3.4 1.396e+04 1.041e-09
  6.31855    -10.4 1.674e+04 2.821e-09
  6.33857    -14.7 1.850e+04 7.597e-09
  6.35601    -16.8 1.965e+04 1.564e-08
  6.36649    -18.9 1.951e+04 1.623e-08
  6.38050    -20.2 2.066e+04 1.990e-08
  6.39618    -22.3 2.206e+04 1.644e-08
  6.40661    -24.1 2.288e+04 1.397e-08
  6.41439    -28.0 2.398e+04 9.847e-09
  6.42492    -36.4 2.142e+04 3.372e-09
  6.44340    -45.9 1.626e+04 2.280e-09
  6.46238    -51.7 1.329e+04 2.142e-09
  6.47286    -53.3 1.317e+04 2.140e-09
  6.48533    -54.4 1.293e+04 1.955e-09
  6.50630    -55.8 1.263e+04 1.466e-09
  6.52080    -57.7 1.232e+04 1.048e-09
  6.53128    -57.2 1.234e+04 1.055e-09
  6.54823    -59.4 1.206e+04 8.532e-10
  6.56874    -61.2 1.191e+04 8.047e-10
  6.57922    -60.6 1.196e+04 8.333e-10
  6.59016    -61.7 1.189e+04 8.265e-10
  6.61113    -62.4 1.184e+04 8.341e-10
  6.62716    -62.7 1.173e+04 8.446e-10
  6.63765    -62.0 1.177e+04 9.083e-10
  6.65306    -62.0 1.160e+04 8.585e-10
  6.67403    -61.8 1.144e+04 7.608e-10
  6.68559    -61.8 1.131e+04 6.603e-10
  6.69607    -60.9 1.134e+04 6.960e-10
  6.71596    -61.0 1.123e+04 6.131e-10
  6.73353    -61.0 1.117e+04 5.757e-10
  6.74401    -60.2 1.114e+04 5.853e-10
  6.75789    -60.2 1.109e+04 5.696e-10
  6.77886    -59.9 1.109e+04 5.668e-10
  6.79195    -59.7 1.117e+04 5.995e-10
  6.80244    -58.8 1.108e+04 5.866e-10
  6.82079    -58.3 1.130e+04 6.436e-10
  6.85234    -57.8 1.160e+04 7.346e-10
  6.88803    -57.0 1.172e+04 7.894e-10
  6.90900    -55.5 1.142e+04 6.884e-10
  6.93630    -54.7 1.153e+04 7.347e-10
  6.97823    -53.8 1.154e+04 7.410e-10
  7.00488    -52.5 1.146e+04 6.824e-10
  7.01526    -51.7 1.147e+04 6.901e-10
  7.03045    -51.3 1.144e+04 6.742e-10
  7.05142    -50.7 1.139e+04 6.423e-10
  7.06311    -50.4 1.134e+04 6.213e-10
  7.07359    -49.5 1.132e+04 6.250e-10
  7.09335    -48.9 1.127e+04 6.128e-10
  7.11105    -48.3 1.125e+04 6.029e-10
  7.12153    -47.5 1.126e+04 6.312e-10
  7.13528    -46.9 1.128e+04 6.388e-10
  7.15625    -46.3 1.132e+04 6.483e-10
  7.16947    -45.7 1.139e+04 6.632e-10
  7.17995    -45.2 1.143e+04 7.103e-10
  7.19818    -44.6 1.150e+04 7.330e-10
  7.21741    -44.0 1.158e+04 7.544e-10
  7.22790    -43.6 1.161e+04 7.916e-10
  7.24011    -43.1 1.164e+04 7.969e-10
  7.26108    -42.5 1.166e+04 7.829e-10
  7.27584    -41.8 1.167e+04 7.342e-10
  7.28632    -41.7 1.164e+04 7.329e-10
  7.30301    -41.1 1.160e+04 6.572e-10
  7.32378    -40.7 1.156e+04 5.947e-10
  7.33426    -40.8 1.155e+04 5.932e-10
  7.34494    -40.6 1.151e+04 5.582e-10
  7.36591    -40.4 1.152e+04 5.518e-10
  7.38220    -40.5 1.169e+04 5.545e-10
  7.39268    -41.1 1.169e+04 5.622e-10
  7.40784    -41.5 1.226e+04 6.495e-10
  7.42881    -41.7 1.285e+04 8.908e-10
  7.44063    -41.5 1.347e+04 1.320e-09
  7.44472    -41.9 1.300e+04 1.138e-09
  7.45387    -42.1 1.374e+04 1.587e-09
  7.47074    -41.6 1.437e+04 2.231e-09
  7.48857    -41.0 1.491e+04 2.989e-09
  7.49905    -41.6 1.416e+04 1.848e-09
  7.51267    -41.2 1.456e+04 2.258e-09
  7.53364    -40.8 1.484e+04 2.714e-09
  7.54699    -40.5 1.502e+04 3.206e-09
  7.55747    -41.3 1.403e+04 1.821e-09
  7.57557    -40.9 1.436e+04 2.259e-09
  7.59493    -40.4 1.475e+04 2.870e-09
  7.60541    -41.1 1.368e+04 1.515e-09
  7.61750    -40.6 1.426e+04 1.977e-09
  7.63847    -40.0 1.481e+04 2.587e-09
  7.65335    -39.5 1.526e+04 3.284e-09
  7.66384    -40.3 1.418e+04 1.518e-09
  7.68040    -39.8 1.461e+04 1.945e-09
  7.70130    -39.3 1.486e+04 2.402e-09
  7.72226    -39.7 1.386e+04 1.409e-09
  7.74330    -39.1 1.400e+04 1.713e-09
  7.75972    -38.4 1.402e+04 1.983e-09
  7.77020    -39.3 1.306e+04 1.246e-09
  7.78523    -38.6 1.318e+04 1.415e-09
  7.81678    -37.6 1.310e+04 1.568e-09
  7.84823    -36.8 1.294e+04 1.646e-09
  7.86608    -35.8 1.298e+04 1.738e-09
  7.87667    -37.0 1.291e+04 1.579e-09
  7.89016    -35.6 1.310e+04 1.838e-09
  7.91103    -34.7 1.322e+04 1.969e-09
  7.92451    -33.9 1.337e+04 2.082e-09
  7.93499    -34.7 1.348e+04 2.283e-09
  7.95296    -34.0 1.368e+04 2.560e-09
  7.97245    -33.2 1.388e+04 2.869e-09
  7.98293    -33.6 1.384e+04 2.863e-09
  7.99489    -32.8 1.400e+04 3.132e-09
  8.01586    -31.8 1.412e+04 3.354e-09
  8.02776    -30.8 1.421e+04 3.476e-09
  8.03229    -30.5 1.398e+04 3.199e-09
  8.04136    -30.9 1.374e+04 2.904e-09
  8.05779    -29.9 1.370e+04 2.865e-09
  8.07876    -28.8 1.365e+04 2.748e-09
  8.11030    -28.6 1.268e+04 1.574e-09
  8.15233    -27.1 1.247e+04 1.453e-09
  8.18537    -25.5 1.228e+04 1.384e-09
  8.20634    -26.2 1.145e+04 9.024e-10
  8.23620    -24.3 1.141e+04 9.454e-10
  8.27813    -22.3 1.135e+04 9.541e-10
  8.30222    -20.3 1.134e+04 9.702e-10
  8.32319    -20.2 1.074e+04 7.255e-10
  8.36199    -18.3 1.079e+04 7.506e-10
  8.39810    -16.5 1.084e+04 7.767e-10
  8.41907    -16.2 1.028e+04 5.745e-10
  8.44586    -14.4 1.025e+04 5.543e-10
  8.48779    -12.6 1.017e+04 5.099e-10
  8.51495    -10.7 9.935e+03 4.357e-10
  8.53592    -10.4 9.366e+03 2.987e-10
  8.57166     -8.7 9.202e+03 2.675e-10
  8.60184     -6.7 9.055e+03 2.392e-10
  8.62005     -5.9 8.884e+03 2.003e-10
  8.63180     -5.5 8.880e+03 2.021e-10
  8.65552     -3.5 8.763e+03 1.856e-10
  8.69745     -1.4 8.628e+03 1.667e-10
  8.72768      1.0 8.485e+03 1.466e-10
  8.74865      1.5 8.580e+03 1.790e-10
  8.78132      4.0 8.431e+03 1.519e-10
  8.82325      6.5 8.298e+03 1.231e-10
  8.84453      9.0 8.215e+03 9.967e-11
  8.86550      9.5 8.329e+03 1.159e-10
  8.90711     11.8 8.266e+03 9.405e-11
  8.94041     14.1 8.274e+03 8.694e-11
  8.96138     14.4 8.357e+03 9.609e-11
  8.99098     16.5 8.412e+03 9.484e-11
  9.03291     17.8 8.760e+03 1.227e-10
  9.05726     19.1 9.039e+03 2.184e-10
  9.07822     19.6 9.088e+03 2.246e-10
  9.11678     21.8 9.453e+03 3.580e-10
  9.15314     24.1 9.815e+03 4.708e-10
  9.17411     24.4 9.714e+03 4.208e-10
  9.20064     26.0 9.775e+03 4.304e-10
  9.24257     27.3 9.528e+03 3.447e-10
  9.26999     28.1 9.145e+03 2.585e-10
  9.29095     28.5 9.072e+03 2.324e-10
  9.32644     29.8 8.845e+03 2.010e-10
  9.36587     31.3 8.728e+03 1.798e-10
  9.38684     31.9 8.746e+03 1.856e-10
  9.41030     33.4 8.654e+03 1.696e-10
  9.45223     34.8 8.553e+03 1.634e-10
  9.48272     36.3 8.629e+03 1.772e-10
  9.50368     37.4 8.793e+03 2.143e-10
  9.53610     38.6 9.128e+03 2.482e-10
  9.57803     38.8 9.642e+03 3.478e-10
  9.59957     39.3 1.031e+04 6.283e-10
  9.62053     40.3 1.034e+04 5.885e-10
  9.66189     41.3 1.112e+04 9.876e-10
  9.69325     42.0 1.129e+04 1.142e-09
  9.70574     41.2 1.197e+04 1.320e-09
  9.71622     40.7 1.246e+04 1.494e-09
  9.73508     37.5 1.396e+04 2.268e-09
  9.75368     34.1 1.470e+04 3.510e-09
  9.76416     34.2 1.511e+04 4.454e-09
  9.77039     33.1 1.542e+04 6.122e-09
  9.78088     33.2 1.498e+04 5.308e-09
  9.79798     33.2 1.543e+04 5.925e-09
  9.81210     31.3 1.535e+04 4.245e-09
  9.82258     31.5 1.549e+04 4.048e-09
  9.83991     27.1 1.366e+04 2.009e-09
  9.86004     23.4 1.204e+04 1.114e-09
  9.87052     23.0 1.172e+04 1.014e-09
  9.88184     21.8 1.129e+04 8.101e-10
  9.90808     20.8 1.088e+04 6.327e-10
  9.92914     21.8 1.083e+04 5.794e-10
  9.95542     21.0 1.047e+04 4.196e-10
  9.99735     20.4 1.044e+04 4.014e-10
 10.02503     19.7 1.078e+04 4.960e-10
 10.04599     20.9 1.075e+04 4.460e-10
 10.07064     20.0 1.109e+04 6.813e-10
 10.08325     19.9 1.115e+04 8.023e-10
 10.09374     20.4 1.112e+04 7.949e-10
 10.11247     21.0 1.133e+04 9.985e-10
 10.13119     21.6 1.140e+04 1.038e-09
 10.14168     22.3 1.135e+04 1.001e-09
 10.16498     23.0 1.117e+04 8.418e-10
 10.20701     23.4 1.079e+04 5.859e-10
 10.23775     23.7 1.021e+04 3.627e-10
 10.25872     24.9 1.021e+04 3.606e-10
 10.29088     25.6 9.787e+03 2.296e-10
 10.33281     26.4 9.405e+03 1.484e-10
 10.35460     28.0 9.253e+03 1.052e-10
 10.37557     29.2 9.254e+03 1.020e-10
 10.41668     30.7 9.209e+03 7.120e-11
 10.45048     32.1 9.292e+03 4.788e-11
 10.47145     33.6 9.272e+03 4.795e-11
 10.50054     34.7 9.334e+03 3.621e-11
 10.54247     35.6 9.357e+03 3.323e-11
 10.56733     36.4 9.504e+03 3.516e-11
 10.58830     38.1 9.492e+03 3.436e-11
 10.62634     38.8 9.421e+03 5.260e-11
 10.66321     40.3 9.401e+03 9.394e-11
