# Columns:
#   distance along LOS (in CHIMPs)
#   peculiar velocity  (in km/s)
#   temperature (K)
#   HI number density
# pos=(136.816,195.221,26.7783), angles=(1.64154,3.17861)
  0.00528     26.7 1.080e+04 1.002e-08
  0.02036     27.8 1.084e+04 1.042e-08
  0.03995     28.8 1.088e+04 1.064e-08
  0.05628     30.1 1.079e+04 1.016e-08
  0.06608     30.1 1.066e+04 9.980e-09
  0.07914     31.1 1.069e+04 9.823e-09
  0.09873     32.4 1.054e+04 9.060e-09
  0.11832     33.4 1.041e+04 8.325e-09
  0.13792     34.8 1.014e+04 6.858e-09
  0.15751     35.8 9.979e+03 5.903e-09
  0.17711     37.3 9.716e+03 4.692e-09
  0.19670     38.6 9.542e+03 3.858e-09
  0.22619     40.4 9.313e+03 3.039e-09
  0.26547     43.4 9.082e+03 2.082e-09
  0.30466     46.4 8.959e+03 1.499e-09
  0.34385     49.4 8.965e+03 1.258e-09
  0.38303     52.5 9.073e+03 1.229e-09
  0.42222     55.6 9.183e+03 1.313e-09
  0.46141     58.6 9.354e+03 1.521e-09
  0.50060     61.4 9.574e+03 1.812e-09
  0.53978     64.0 9.922e+03 2.382e-09
  0.57897     66.3 1.018e+04 2.956e-09
  0.60710     68.9 1.045e+04 3.505e-09
  0.62670     69.1 1.042e+04 3.139e-09
  0.64745     70.2 1.050e+04 3.538e-09
  0.66695     71.3 1.044e+04 3.840e-09
  0.68654     72.4 1.033e+04 4.125e-09
  0.70613     73.6 1.019e+04 4.379e-09
  0.72573     74.8 1.004e+04 4.492e-09
  0.74532     75.9 9.937e+03 4.475e-09
  0.76491     77.2 9.758e+03 4.291e-09
  0.78451     78.0 9.641e+03 4.178e-09
  0.80410     79.7 9.409e+03 3.798e-09
  0.82370     80.3 9.306e+03 3.619e-09
  0.85318     83.3 9.206e+03 3.627e-09
  0.89247     86.1 8.978e+03 3.370e-09
  0.92401     88.7 8.816e+03 3.222e-09
  0.94360     87.0 8.590e+03 2.986e-09
  0.97084     89.4 8.559e+03 3.258e-09
  1.01003     91.7 8.633e+03 3.749e-09
  1.04922     93.9 8.695e+03 4.194e-09
  1.08841     96.0 8.636e+03 4.344e-09
  1.12759     98.3 8.473e+03 4.110e-09
  1.15773    100.5 8.212e+03 3.600e-09
  1.17732    101.5 8.396e+03 3.969e-09
  1.20597    103.8 8.155e+03 3.542e-09
  1.24515    106.1 7.879e+03 3.123e-09
  1.28434    108.2 7.644e+03 2.848e-09
  1.32353    110.3 7.584e+03 2.796e-09
  1.36272    112.4 7.628e+03 2.848e-09
  1.40190    114.3 7.702e+03 2.906e-09
  1.43120    115.3 7.735e+03 2.938e-09
  1.44264    116.0 7.768e+03 3.046e-09
  1.45244    117.1 7.750e+03 2.982e-09
  1.46264    117.7 7.767e+03 3.177e-09
  1.47244    115.8 8.216e+03 4.106e-09
  1.48988    116.2 8.863e+03 5.409e-09
  1.50947    116.5 9.615e+03 7.260e-09
  1.52907    117.0 1.031e+04 9.477e-09
  1.54866    117.5 1.086e+04 1.172e-08
  1.56825    118.1 1.127e+04 1.359e-08
  1.58785    118.8 1.154e+04 1.486e-08
  1.60744    119.5 1.168e+04 1.530e-08
  1.62704    120.1 1.167e+04 1.488e-08
  1.64663    120.9 1.158e+04 1.403e-08
  1.66622    121.6 1.147e+04 1.313e-08
  1.68582    122.3 1.141e+04 1.245e-08
  1.70541    123.1 1.142e+04 1.234e-08
  1.71796    123.8 1.146e+04 1.243e-08
  1.72776    126.1 1.159e+04 1.274e-08
  1.74460    126.8 1.184e+04 1.342e-08
  1.76419    127.6 1.220e+04 1.477e-08
  1.78378    128.2 1.261e+04 1.635e-08
  1.80338    128.6 1.309e+04 1.788e-08
  1.82297    128.2 1.356e+04 1.912e-08
  1.84257    126.8 1.417e+04 2.007e-08
  1.86216    123.4 1.495e+04 2.196e-08
  1.88175    118.1 1.528e+04 2.408e-08
  1.90135    112.2 1.581e+04 2.515e-08
  1.92094    104.2 1.826e+04 2.494e-08
  1.93559     92.3 2.132e+04 2.374e-08
  1.94533     88.5 2.022e+04 2.349e-08
  1.95513     80.4 2.146e+04 2.752e-08
  1.96493     72.8 2.036e+04 3.205e-08
  1.97472     66.0 1.931e+04 3.728e-08
  1.98452     60.1 1.833e+04 3.890e-08
  1.99158     52.7 2.232e+04 4.395e-08
  1.99533     56.1 1.752e+04 3.739e-08
  1.99807     58.4 1.745e+04 3.479e-08
  2.00412     50.3 2.325e+04 4.424e-08
  2.01391     23.9 3.042e+04 3.037e-07
  2.02371     -2.0 2.048e+04 4.251e-06
  2.03351    -16.2 1.912e+04 4.246e-06
  2.04330    -22.7 2.015e+04 1.508e-06
  2.05310    -28.9 2.963e+04 1.389e-07
  2.06290    -43.1 4.360e+04 1.014e-08
  2.07764    -47.2 4.059e+04 8.307e-09
  2.09728    -67.6 1.569e+04 1.332e-08
  2.11688    -69.9 1.332e+04 1.452e-08
  2.13647    -69.3 1.358e+04 1.821e-08
  2.15606    -69.1 1.395e+04 2.037e-08
  2.17566    -69.1 1.404e+04 2.155e-08
  2.19525    -69.0 1.400e+04 2.224e-08
  2.21484    -68.9 1.389e+04 2.273e-08
  2.23444    -68.5 1.381e+04 2.318e-08
  2.25403    -67.8 1.371e+04 2.321e-08
  2.26859    -67.0 1.365e+04 2.142e-08
  2.27838    -68.0 1.372e+04 2.249e-08
  2.29322    -67.1 1.343e+04 1.904e-08
  2.31281    -66.3 1.306e+04 1.551e-08
  2.33241    -65.6 1.269e+04 1.228e-08
  2.35200    -65.0 1.232e+04 9.750e-09
  2.37159    -64.4 1.196e+04 7.923e-09
  2.39119    -63.7 1.163e+04 6.660e-09
  2.41078    -62.9 1.137e+04 5.774e-09
  2.43037    -62.0 1.120e+04 5.130e-09
  2.44997    -61.1 1.108e+04 4.662e-09
  2.46956    -60.3 1.099e+04 4.282e-09
  2.48916    -59.5 1.091e+04 3.928e-09
  2.50875    -58.7 1.088e+04 3.598e-09
  2.52071    -58.0 1.087e+04 3.328e-09
  2.53050    -57.8 1.090e+04 3.839e-09
  2.54390    -57.2 1.088e+04 3.491e-09
  2.55370    -57.4 1.080e+04 3.679e-09
  2.56753    -56.7 1.082e+04 3.475e-09
  2.58712    -56.1 1.081e+04 3.387e-09
  2.60672    -55.4 1.081e+04 3.349e-09
  2.62631    -54.9 1.083e+04 3.402e-09
  2.64590    -54.3 1.088e+04 3.631e-09
  2.66550    -53.7 1.100e+04 3.780e-09
  2.69499    -53.2 1.113e+04 3.720e-09
  2.73427    -52.2 1.115e+04 4.090e-09
  2.77346    -51.8 1.107e+04 3.896e-09
  2.80961    -51.3 1.076e+04 2.866e-09
  2.82921    -51.4 1.081e+04 2.939e-09
  2.85183    -51.0 1.051e+04 2.066e-09
  2.89102    -50.3 1.038e+04 1.820e-09
  2.93021    -49.0 1.035e+04 1.801e-09
  2.96940    -47.7 1.035e+04 1.848e-09
  3.00858    -46.5 1.041e+04 2.005e-09
  3.04014    -45.2 1.040e+04 2.194e-09
  3.05973    -44.7 1.029e+04 1.907e-09
  3.08696    -43.4 1.021e+04 1.909e-09
  3.12614    -41.9 1.019e+04 1.921e-09
  3.16533    -40.4 1.028e+04 1.911e-09
  3.20452    -38.8 1.028e+04 1.935e-09
  3.24371    -37.2 1.026e+04 1.914e-09
  3.28289    -35.5 1.019e+04 1.820e-09
  3.32208    -33.7 1.012e+04 1.605e-09
  3.36024    -31.8 1.006e+04 1.327e-09
  3.37983    -31.6 9.998e+03 1.052e-09
  3.40046    -29.6 1.001e+04 8.129e-10
  3.43964    -27.7 1.007e+04 7.118e-10
  3.47883    -26.0 1.028e+04 7.578e-10
  3.51802    -24.5 1.036e+04 1.199e-09
  3.55720    -22.8 1.041e+04 1.969e-09
  3.59639    -20.9 1.053e+04 2.550e-09
  3.63558    -19.2 1.055e+04 2.592e-09
  3.67477    -17.6 1.045e+04 2.273e-09
  3.71395    -16.0 1.041e+04 2.067e-09
  3.75314    -14.2 1.036e+04 1.996e-09
  3.79233    -12.1 1.032e+04 1.953e-09
  3.83152     -9.7 1.027e+04 1.848e-09
  3.87070     -7.3 1.021e+04 1.666e-09
  3.90989     -5.0 1.018e+04 1.562e-09
  3.93046     -2.6 1.026e+04 1.626e-09
  3.95006     -1.2 1.021e+04 1.617e-09
  3.98827      0.7 1.034e+04 2.098e-09
  4.02745      3.1 1.065e+04 2.966e-09
  4.05675      4.5 1.075e+04 3.998e-09
  4.07624      5.4 1.108e+04 4.235e-09
  4.09583      6.6 1.107e+04 4.876e-09
  4.10780      7.3 1.138e+04 4.516e-09
  4.11760      7.7 1.128e+04 4.545e-09
  4.13502      8.3 1.131e+04 4.719e-09
  4.15462      8.5 1.149e+04 4.895e-09
  4.17421      8.7 1.163e+04 5.602e-09
  4.19380      8.6 1.189e+04 6.594e-09
  4.20558      8.5 1.209e+04 9.047e-09
  4.21538      9.5 1.173e+04 7.189e-09
  4.23299      9.3 1.238e+04 8.609e-09
  4.25258      8.8 1.276e+04 1.199e-08
  4.27218      8.6 1.318e+04 1.542e-08
  4.29177      8.6 1.313e+04 1.704e-08
  4.31137      8.7 1.305e+04 1.621e-08
  4.34085      8.4 1.274e+04 1.245e-08
  4.37024      9.3 1.230e+04 9.072e-09
  4.38974      9.3 1.211e+04 8.725e-09
  4.40933     10.2 1.208e+04 6.288e-09
  4.42893     10.2 1.189e+04 5.663e-09
  4.44852     11.1 1.143e+04 5.162e-09
  4.46811     12.3 1.125e+04 4.776e-09
  4.48089     13.2 1.138e+04 4.191e-09
  4.49069     14.0 1.160e+04 4.635e-09
  4.50730     14.8 1.117e+04 4.503e-09
  4.52690     15.6 1.119e+04 3.784e-09
  4.54649     16.5 1.089e+04 3.620e-09
  4.56608     17.9 1.080e+04 2.902e-09
  4.58568     18.4 1.076e+04 2.750e-09
  4.61516     20.8 1.058e+04 2.122e-09
  4.65445     23.1 1.044e+04 1.829e-09
  4.69364     25.6 1.045e+04 1.982e-09
  4.72293     27.7 1.041e+04 2.203e-09
  4.74243     27.8 1.043e+04 2.234e-09
  4.75621     29.1 1.033e+04 2.613e-09
  4.76600     29.4 1.035e+04 2.677e-09
  4.78161     30.3 1.046e+04 3.583e-09
  4.80121     31.5 1.066e+04 5.210e-09
  4.82080     33.3 1.086e+04 6.811e-09
  4.84039     34.9 1.108e+04 7.861e-09
  4.85999     36.2 1.120e+04 8.058e-09
  4.87958     37.2 1.122e+04 7.987e-09
  4.89917     38.0 1.126e+04 7.898e-09
  4.91877     38.7 1.133e+04 8.083e-09
  4.93836     38.8 1.154e+04 8.884e-09
  4.95796     38.1 1.218e+04 1.206e-08
  4.97755     36.7 1.315e+04 2.074e-08
  4.99714     35.8 1.390e+04 3.258e-08
  5.01179     35.2 1.432e+04 3.956e-08
  5.02154     34.1 1.491e+04 4.801e-08
  5.03133     31.7 1.636e+04 6.418e-08
  5.03632     28.5 1.773e+04 8.781e-08
  5.04122     28.4 1.798e+04 1.092e-07
  5.05093     25.8 1.848e+04 1.536e-07
  5.06072     24.4 1.789e+04 1.838e-07
  5.07052     23.5 1.766e+04 1.754e-07
  5.08032     22.7 1.712e+04 1.497e-07
  5.09506     21.3 1.632e+04 8.498e-08
  5.11470     19.3 1.456e+04 3.284e-08
  5.13430     15.9 1.251e+04 1.283e-08
  5.15389     13.7 1.101e+04 7.163e-09
  5.16586     13.6 1.045e+04 5.345e-09
  5.17566     15.0 1.051e+04 5.443e-09
  5.19308     15.6 9.941e+03 4.577e-09
  5.21267     16.8 9.825e+03 3.748e-09
  5.23227     17.4 1.003e+04 2.768e-09
  5.25186     17.9 9.471e+03 2.673e-09
  5.27145     18.8 9.380e+03 2.247e-09
  5.29105     19.4 9.515e+03 2.207e-09
  5.30684     19.8 9.496e+03 2.376e-09
  5.31663     20.8 9.516e+03 2.326e-09
  5.33023     21.3 9.493e+03 2.691e-09
  5.34983     21.7 9.658e+03 3.426e-09
  5.36942     22.2 9.806e+03 4.616e-09
  5.38902     23.0 9.939e+03 5.877e-09
  5.40861     24.0 1.006e+04 7.131e-09
  5.42820     25.0 9.981e+03 7.336e-09
  5.44780     26.3 9.857e+03 6.560e-09
  5.46739     26.9 9.799e+03 5.457e-09
  5.48698     26.9 9.715e+03 4.474e-09
  5.50658     26.5 9.697e+03 3.956e-09
  5.52617     26.0 9.703e+03 4.065e-09
  5.54577     25.8 9.705e+03 4.600e-09
  5.56536     26.0 9.770e+03 5.542e-09
  5.58215     26.1 1.000e+04 6.722e-09
  5.59195     26.2 9.928e+03 6.430e-09
  5.60455     26.3 1.024e+04 7.588e-09
  5.62414     26.4 1.047e+04 8.638e-09
  5.64373     26.6 1.052e+04 8.744e-09
  5.66333     26.8 1.048e+04 8.112e-09
  5.68292     26.7 1.045e+04 7.098e-09
  5.69490     26.3 1.045e+04 6.607e-09
  5.70469     27.2 1.016e+04 5.708e-09
  5.72211     26.8 1.016e+04 5.604e-09
  5.74170     26.7 1.015e+04 5.909e-09
  5.76130     26.6 1.025e+04 6.605e-09
  5.78089     26.5 1.053e+04 7.730e-09
  5.80048     26.2 1.084e+04 9.868e-09
  5.82008     26.0 1.116e+04 1.268e-08
  5.83967     25.9 1.146e+04 1.507e-08
  5.85746     25.8 1.177e+04 1.675e-08
  5.86726     25.7 1.226e+04 2.087e-08
  5.87886     25.4 1.239e+04 2.119e-08
  5.89845     25.2 1.224e+04 1.906e-08
  5.91804     25.0 1.180e+04 1.544e-08
  5.93764     24.8 1.136e+04 1.104e-08
  5.95723     24.2 1.094e+04 8.438e-09
  5.97683     24.2 1.049e+04 6.455e-09
  5.99642     24.5 1.016e+04 5.544e-09
  6.01601     25.8 9.848e+03 3.641e-09
  6.03561     26.0 9.773e+03 3.225e-09
  6.06509     27.9 9.346e+03 2.148e-09
  6.10438     30.2 9.112e+03 1.481e-09
  6.13297     32.5 9.062e+03 1.122e-09
  6.15257     32.2 9.077e+03 1.416e-09
  6.18275     34.7 9.049e+03 1.214e-09
  6.21433     37.4 9.065e+03 1.166e-09
  6.23392     37.7 9.120e+03 1.492e-09
  6.26113     40.4 9.181e+03 1.450e-09
  6.30032     43.0 9.247e+03 1.583e-09
  6.33950     45.6 9.331e+03 1.878e-09
  6.37869     48.3 9.433e+03 2.119e-09
  6.41788     50.6 9.636e+03 2.288e-09
  6.45707     52.6 9.825e+03 2.370e-09
  6.49625     54.2 1.008e+04 2.583e-09
  6.53544     55.5 1.035e+04 3.303e-09
  6.57463     57.1 1.047e+04 4.018e-09
  6.61381     59.0 1.042e+04 3.892e-09
  6.65300     61.3 1.030e+04 3.240e-09
  6.68360     63.7 1.015e+04 2.337e-09
  6.70319     64.2 1.006e+04 2.317e-09
  6.73138     66.5 9.982e+03 1.651e-09
  6.77056     69.0 9.909e+03 1.374e-09
  6.80975     71.8 9.908e+03 1.382e-09
  6.84894     74.5 9.954e+03 1.517e-09
  6.88813     77.1 1.006e+04 1.867e-09
  6.92731     79.7 1.021e+04 2.341e-09
  6.96650     82.2 1.039e+04 2.695e-09
  7.00569     84.3 1.044e+04 2.706e-09
  7.04487     86.5 1.041e+04 2.583e-09
  7.08406     88.7 1.030e+04 2.239e-09
  7.12325     91.0 1.015e+04 1.836e-09
  7.16244     93.4 1.001e+04 1.479e-09
  7.20162     96.0 9.893e+03 1.203e-09
  7.23423     98.6 9.777e+03 1.007e-09
  7.25382     99.1 9.751e+03 1.036e-09
  7.27239    101.8 9.656e+03 8.974e-10
  7.29198    101.8 9.636e+03 8.874e-10
  7.31919    104.6 9.560e+03 7.875e-10
  7.35837    107.5 9.479e+03 7.168e-10
  7.39756    110.3 9.306e+03 6.998e-10
  7.43675    113.3 9.272e+03 7.018e-10
  7.47593    116.2 9.245e+03 7.150e-10
  7.51512    119.1 9.202e+03 7.664e-10
  7.55431    121.8 9.192e+03 8.609e-10
  7.59350    124.4 9.210e+03 9.901e-10
  7.63268    126.9 9.253e+03 1.137e-09
  7.67187    129.2 9.300e+03 1.286e-09
  7.71106    131.3 9.329e+03 1.416e-09
  7.75025    133.3 9.353e+03 1.508e-09
  7.78486    135.3 9.367e+03 1.580e-09
  7.80445    135.4 9.312e+03 1.474e-09
  7.82862    137.3 9.318e+03 1.536e-09
  7.86781    139.2 9.338e+03 1.661e-09
  7.90700    141.0 9.396e+03 1.872e-09
  7.94618    142.6 9.505e+03 2.184e-09
  7.98537    144.2 9.649e+03 2.552e-09
  8.02456    145.5 9.781e+03 2.821e-09
  8.06374    146.7 9.810e+03 2.829e-09
  8.10293    147.9 9.795e+03 2.755e-09
  8.14212    149.2 9.735e+03 2.539e-09
  8.18131    150.6 9.680e+03 2.353e-09
  8.22049    151.8 9.679e+03 2.336e-09
  8.25968    152.4 9.765e+03 2.461e-09
  8.29887    152.4 9.904e+03 2.719e-09
  8.32816    151.5 1.005e+04 3.229e-09
  8.34006    150.8 1.029e+04 3.956e-09
  8.34728    150.2 1.037e+04 4.257e-09
  8.35488    150.0 1.036e+04 4.305e-09
  8.36725    148.9 1.066e+04 5.693e-09
  8.38684    147.6 1.094e+04 7.220e-09
  8.40644    146.2 1.116e+04 8.565e-09
  8.42603    144.6 1.130e+04 9.393e-09
  8.44563    142.9 1.131e+04 9.673e-09
  8.46522    141.1 1.128e+04 9.553e-09
  8.48481    139.4 1.120e+04 9.113e-09
  8.50441    137.8 1.108e+04 8.261e-09
  8.52400    136.2 1.094e+04 7.156e-09
  8.54359    134.6 1.082e+04 6.077e-09
  8.56319    132.8 1.073e+04 5.214e-09
  8.58278    131.1 1.066e+04 4.771e-09
  8.60237    129.5 1.065e+04 4.784e-09
  8.62040    127.9 1.069e+04 4.963e-09
  8.63020    127.0 1.074e+04 5.154e-09
  8.64156    125.3 1.084e+04 5.510e-09
  8.66116    123.5 1.109e+04 6.526e-09
  8.68075    121.5 1.152e+04 8.505e-09
  8.70034    119.3 1.207e+04 1.169e-08
  8.71994    117.1 1.258e+04 1.578e-08
  8.73953    114.8 1.305e+04 1.973e-08
  8.75912    110.7 1.368e+04 2.096e-08
  8.77872    106.0 1.403e+04 2.123e-08
  8.79336    100.9 1.530e+04 2.446e-08
  8.80311     94.1 1.795e+04 4.199e-08
  8.81291     86.7 1.926e+04 1.030e-07
  8.82271     81.0 1.928e+04 2.289e-07
  8.83250     77.0 1.911e+04 3.638e-07
  8.84230     73.7 1.919e+04 3.242e-07
  8.85210     69.2 1.940e+04 1.816e-07
  8.86189     65.8 1.889e+04 9.988e-08
  8.86904     61.3 1.769e+04 6.964e-08
  8.87889     56.7 1.528e+04 2.669e-08
  8.89571     50.8 1.284e+04 1.593e-08
  8.90551     50.7 1.301e+04 1.870e-08
  8.91587     48.6 1.267e+04 1.634e-08
  8.93547     47.8 1.247e+04 1.356e-08
  8.95506     47.1 1.226e+04 1.048e-08
  8.97465     46.1 1.216e+04 8.081e-09
  8.99425     44.9 1.204e+04 6.737e-09
  9.01384     44.0 1.185e+04 6.492e-09
  9.03343     43.5 1.185e+04 6.533e-09
  9.05303     43.0 1.190e+04 6.759e-09
  9.07262     42.3 1.207e+04 7.265e-09
  9.09222     40.7 1.248e+04 8.854e-09
  9.11181     36.6 1.389e+04 1.604e-08
  9.13140     32.4 1.524e+04 3.997e-08
  9.15100     29.5 1.547e+04 5.398e-08
  9.17059     28.1 1.483e+04 4.206e-08
  9.18082     24.9 1.415e+04 2.030e-08
  9.19062     24.9 1.435e+04 2.569e-08
  9.20978     20.4 1.317e+04 1.187e-08
  9.22937     16.3 1.163e+04 7.255e-09
  9.24896     14.6 1.112e+04 6.010e-09
  9.26856     13.0 1.126e+04 4.548e-09
  9.28815     11.4 1.101e+04 4.084e-09
  9.30775      9.9 1.086e+04 3.572e-09
  9.32734      8.6 1.073e+04 3.415e-09
  9.34693      7.2 1.076e+04 2.995e-09
  9.36653      6.3 1.065e+04 2.879e-09
  9.38842      4.9 1.026e+04 2.668e-09
  9.40811      6.2 1.051e+04 2.683e-09
  9.43530      5.0 1.017e+04 2.188e-09
  9.45633      4.0 1.014e+04 1.838e-09
  9.47593      4.1 1.008e+04 1.725e-09
  9.51367      3.6 1.011e+04 1.767e-09
  9.55286      3.1 1.042e+04 2.383e-09
  9.58215      2.5 1.056e+04 3.104e-09
  9.60165      1.9 1.059e+04 3.699e-09
  9.62124      1.9 1.079e+04 4.756e-09
  9.64084     -0.0 1.212e+04 6.590e-09
  9.66043     -3.7 1.374e+04 1.459e-08
  9.68003     -7.4 1.529e+04 3.605e-08
  9.69962    -10.9 1.626e+04 7.433e-08
  9.71921    -13.1 1.706e+04 1.178e-07
  9.73145    -15.7 1.724e+04 1.217e-07
  9.74125    -14.8 1.807e+04 1.744e-07
  9.75840    -18.6 1.751e+04 1.131e-07
  9.77799    -22.9 1.549e+04 4.788e-08
  9.79759    -25.8 1.395e+04 3.102e-08
  9.81718    -26.7 1.339e+04 2.659e-08
  9.83677    -27.0 1.321e+04 2.471e-08
  9.85637    -27.0 1.313e+04 2.340e-08
  9.87596    -26.9 1.294e+04 2.157e-08
  9.89556    -26.8 1.275e+04 1.902e-08
  9.91515    -26.8 1.251e+04 1.646e-08
  9.92715    -26.8 1.228e+04 1.450e-08
  9.93695    -26.2 1.249e+04 1.530e-08
  9.95434    -26.1 1.222e+04 1.351e-08
  9.97393    -25.7 1.208e+04 1.241e-08
  9.99352    -25.1 1.201e+04 1.163e-08
 10.00676    -24.5 1.197e+04 1.090e-08
 10.01656    -24.2 1.198e+04 1.026e-08
 10.03271    -23.7 1.199e+04 9.952e-09
 10.05230    -23.2 1.201e+04 9.802e-09
 10.07190    -22.6 1.216e+04 9.897e-09
 10.09149    -22.1 1.239e+04 1.027e-08
 10.11109    -21.5 1.255e+04 1.114e-08
 10.13068    -20.7 1.272e+04 1.244e-08
 10.15027    -19.9 1.284e+04 1.379e-08
 10.16987    -19.0 1.287e+04 1.485e-08
 10.18946    -18.3 1.291e+04 1.565e-08
 10.20905    -18.1 1.372e+04 1.756e-08
 10.22865    -19.6 1.576e+04 2.674e-08
 10.24824    -21.4 1.800e+04 5.706e-08
 10.26783    -22.5 1.885e+04 1.183e-07
 10.28203    -22.1 1.860e+04 1.292e-07
 10.29183    -22.4 1.824e+04 9.712e-08
 10.30702    -23.0 1.821e+04 1.274e-07
 10.32662    -23.7 1.802e+04 1.426e-07
 10.34621    -24.6 1.783e+04 1.406e-07
 10.36580    -25.7 1.761e+04 1.276e-07
 10.38540    -26.8 1.731e+04 1.150e-07
 10.40499    -28.3 1.717e+04 8.747e-08
 10.42458    -29.6 1.726e+04 6.773e-08
 10.44418    -31.6 1.627e+04 4.353e-08
 10.45618    -32.7 1.460e+04 3.308e-08
 10.46103    -29.9 1.737e+04 6.834e-08
 10.46857    -30.7 1.650e+04 5.373e-08
 10.48332    -30.9 1.584e+04 4.088e-08
 10.50296    -30.6 1.451e+04 2.638e-08
 10.52255    -30.4 1.289e+04 1.643e-08
 10.54215    -29.9 1.217e+04 1.289e-08
 10.55739    -28.6 1.202e+04 1.150e-08
 10.56719    -28.5 1.210e+04 1.145e-08
 10.58133    -27.2 1.215e+04 1.047e-08
 10.60093    -25.8 1.218e+04 1.006e-08
 10.62052    -24.4 1.223e+04 1.011e-08
 10.64011    -23.1 1.247e+04 1.048e-08
 10.65971    -21.7 1.271e+04 1.128e-08
 10.67930    -20.3 1.283e+04 1.196e-08
 10.69890    -19.4 1.287e+04 1.249e-08
 10.71849    -19.4 1.328e+04 1.324e-08
 10.73808    -23.0 1.541e+04 2.069e-08
 10.75768    -27.3 1.669e+04 4.909e-08
 10.77232    -28.1 1.725e+04 9.378e-08
 10.78207    -28.7 1.752e+04 1.078e-07
 10.79187    -29.7 1.816e+04 1.691e-07
 10.80166    -30.8 1.828e+04 2.008e-07
 10.81146    -31.8 1.817e+04 2.074e-07
 10.82126    -32.4 1.758e+04 1.694e-07
 10.83105    -33.1 1.695e+04 1.126e-07
 10.83751    -34.5 1.605e+04 6.871e-08
 10.84241    -34.2 1.649e+04 8.140e-08
 10.85065    -35.8 1.530e+04 4.855e-08
 10.86044    -37.0 1.421e+04 3.136e-08
 10.87519    -37.6 1.354e+04 2.179e-08
 10.89483    -38.3 1.236e+04 1.099e-08
 10.91443    -38.6 1.151e+04 6.710e-09
 10.93402    -38.0 1.119e+04 5.429e-09
 10.95361    -37.0 1.096e+04 4.470e-09
 10.97321    -35.9 1.083e+04 3.875e-09
 10.98522    -34.8 1.070e+04 3.388e-09
 10.99501    -34.4 1.086e+04 4.208e-09
 11.01239    -33.2 1.075e+04 3.657e-09
 11.03199    -32.2 1.064e+04 3.211e-09
 11.05158    -31.2 1.053e+04 2.880e-09
 11.07117    -30.2 1.042e+04 2.635e-09
 11.09077    -29.1 1.033e+04 2.459e-09
