# Columns:
#   distance along LOS (in CHIMPs)
#   peculiar velocity  (in km/s)
#   temperature (K)
#   HI number density
# pos=(182.353,74.3913,241.477), angles=(1.58068,3.35566)
  0.00846     11.9 8.640e+03 2.730e-09
  0.03691     13.8 8.510e+03 2.277e-09
  0.07689     15.7 8.412e+03 1.906e-09
  0.10058     17.7 8.400e+03 1.713e-09
  0.12057     17.8 8.227e+03 1.466e-09
  0.15684     20.0 8.250e+03 1.484e-09
  0.19682     22.3 8.351e+03 1.565e-09
  0.23680     24.7 8.544e+03 1.780e-09
  0.27248     27.0 8.852e+03 2.154e-09
  0.29247     27.1 8.753e+03 1.968e-09
  0.31675     29.0 9.190e+03 2.638e-09
  0.34664     30.4 9.378e+03 3.089e-09
  0.36653     30.8 9.506e+03 3.491e-09
  0.37822     31.4 9.744e+03 4.449e-09
  0.38822     31.2 9.795e+03 4.858e-09
  0.40650     31.9 1.007e+04 6.058e-09
  0.42649     32.7 1.033e+04 6.943e-09
  0.44648     33.1 1.054e+04 7.631e-09
  0.46417     33.4 1.073e+04 8.234e-09
  0.47416     33.1 1.066e+04 7.667e-09
  0.48646     33.2 1.086e+04 8.109e-09
  0.50645     33.2 1.112e+04 8.802e-09
  0.52643     33.2 1.136e+04 9.841e-09
  0.55651     32.3 1.190e+04 1.171e-08
  0.59659     31.6 1.216e+04 1.212e-08
  0.63626     31.3 1.208e+04 9.875e-09
  0.65625     31.5 1.144e+04 6.485e-09
  0.67654     32.2 1.130e+04 3.566e-09
  0.71652     32.8 1.138e+04 1.624e-09
  0.75650     33.5 1.133e+04 1.027e-09
  0.79647     35.2 1.119e+04 1.016e-09
  0.82815     37.2 1.121e+04 1.057e-09
  0.84813     38.1 1.114e+04 1.033e-09
  0.87643     40.1 1.125e+04 1.129e-09
  0.91640     42.1 1.134e+04 1.237e-09
  0.95638     44.0 1.152e+04 1.259e-09
  0.99636     45.8 1.165e+04 1.245e-09
  1.02003     47.8 1.180e+04 1.219e-09
  1.04002     48.1 1.178e+04 1.195e-09
  1.07631     50.0 1.190e+04 1.168e-09
  1.11629     51.9 1.200e+04 1.177e-09
  1.15627     53.8 1.218e+04 1.228e-09
  1.19193     55.8 1.227e+04 1.379e-09
  1.21191     55.4 1.228e+04 1.337e-09
  1.23622     57.2 1.235e+04 1.492e-09
  1.27620     59.0 1.243e+04 1.676e-09
  1.31617     60.6 1.250e+04 1.962e-09
  1.35615     62.7 1.266e+04 2.464e-09
  1.38381     64.9 1.294e+04 3.148e-09
  1.40380     63.5 1.298e+04 2.911e-09
  1.42601     64.1 1.311e+04 3.238e-09
  1.44590     64.6 1.314e+04 3.728e-09
  1.46589     65.2 1.318e+04 4.373e-09
  1.47956     65.8 1.330e+04 4.854e-09
  1.48955     65.2 1.331e+04 4.118e-09
  1.50587     65.8 1.353e+04 4.088e-09
  1.52586     66.2 1.360e+04 4.011e-09
  1.54585     66.6 1.378e+04 3.757e-09
  1.56551     66.8 1.392e+04 3.506e-09
  1.57550     66.1 1.395e+04 2.874e-09
  1.59591     66.6 1.423e+04 2.471e-09
  1.63599     67.7 1.449e+04 2.046e-09
  1.67597     69.0 1.473e+04 1.669e-09
  1.71594     70.3 1.494e+04 1.418e-09
  1.74759     71.7 1.504e+04 1.345e-09
  1.76758     72.1 1.484e+04 9.793e-10
  1.79590     73.7 1.491e+04 9.999e-10
  1.83587     75.4 1.491e+04 1.098e-09
  1.87585     76.8 1.478e+04 1.310e-09
  1.91583     78.1 1.459e+04 1.719e-09
  1.93948     79.9 1.429e+04 2.212e-09
  1.95946     81.1 1.423e+04 1.321e-09
  1.99578     82.6 1.410e+04 1.588e-09
  2.03576     83.9 1.400e+04 1.848e-09
  2.07574     85.1 1.399e+04 1.879e-09
  2.11137     86.5 1.393e+04 1.792e-09
  2.13136     87.9 1.398e+04 1.298e-09
  2.15569     89.7 1.391e+04 1.154e-09
  2.19567     91.6 1.394e+04 9.230e-10
  2.23564     93.6 1.400e+04 7.302e-10
  2.27562     95.8 1.390e+04 6.672e-10
  2.30326     98.3 1.387e+04 6.687e-10
  2.32325     99.2 1.393e+04 6.591e-10
  2.35557    101.7 1.388e+04 6.726e-10
  2.39555    104.3 1.378e+04 7.279e-10
  2.43553    106.9 1.363e+04 8.379e-10
  2.47515    109.5 1.348e+04 1.009e-09
  2.49514    110.0 1.359e+04 8.577e-10
  2.51548    112.5 1.346e+04 9.988e-10
  2.55546    114.8 1.334e+04 1.201e-09
  2.59544    117.0 1.322e+04 1.493e-09
  2.63541    119.1 1.309e+04 1.910e-09
  2.66704    121.0 1.297e+04 2.480e-09
  2.68703    121.3 1.309e+04 1.985e-09
  2.71537    123.1 1.296e+04 2.593e-09
  2.75534    124.8 1.287e+04 3.307e-09
  2.79532    126.5 1.281e+04 3.856e-09
  2.83530    128.0 1.277e+04 3.964e-09
  2.85892    129.5 1.274e+04 3.882e-09
  2.87891    129.9 1.281e+04 3.456e-09
  2.91525    131.6 1.273e+04 3.369e-09
  2.95523    133.4 1.263e+04 3.037e-09
  2.99520    135.3 1.255e+04 2.609e-09
  3.03082    137.4 1.244e+04 2.331e-09
  3.05081    138.1 1.253e+04 2.269e-09
  3.07516    140.4 1.250e+04 2.246e-09
  3.11513    142.6 1.250e+04 2.278e-09
  3.15511    144.7 1.252e+04 2.449e-09
  3.19509    146.2 1.249e+04 2.696e-09
  3.22270    148.0 1.255e+04 3.206e-09
  3.23260    147.0 1.269e+04 2.934e-09
  3.24486    147.7 1.263e+04 3.184e-09
  3.26485    148.4 1.268e+04 3.587e-09
  3.28484    148.9 1.276e+04 4.050e-09
  3.30483    149.3 1.279e+04 4.459e-09
  3.31845    149.6 1.277e+04 4.749e-09
  3.32844    149.5 1.278e+04 4.431e-09
  3.34481    149.8 1.273e+04 4.516e-09
  3.36480    150.2 1.269e+04 4.594e-09
  3.38478    150.6 1.266e+04 4.705e-09
  3.40440    151.0 1.264e+04 4.865e-09
  3.41439    150.8 1.264e+04 4.014e-09
  3.42476    151.2 1.264e+04 4.111e-09
  3.44475    151.6 1.267e+04 4.256e-09
  3.46474    151.9 1.272e+04 4.458e-09
  3.48473    152.0 1.279e+04 4.687e-09
  3.50034    152.0 1.287e+04 4.855e-09
  3.51033    151.8 1.287e+04 3.963e-09
  3.52470    151.7 1.299e+04 4.086e-09
  3.54469    151.5 1.305e+04 4.086e-09
  3.56468    151.3 1.306e+04 4.032e-09
  3.58425    150.9 1.308e+04 3.777e-09
  3.59424    151.1 1.306e+04 4.658e-09
  3.59628    150.9 1.299e+04 4.108e-09
  3.60628    150.7 1.302e+04 4.015e-09
  3.62465    150.6 1.295e+04 3.537e-09
  3.64463    150.5 1.293e+04 3.107e-09
  3.66462    150.4 1.294e+04 2.748e-09
  3.68223    150.3 1.292e+04 2.614e-09
  3.69222    150.3 1.296e+04 2.626e-09
  3.70460    150.6 1.281e+04 2.575e-09
  3.72459    150.8 1.278e+04 2.580e-09
  3.74458    151.4 1.276e+04 2.599e-09
  3.76456    151.7 1.271e+04 2.660e-09
  3.77817    152.4 1.265e+04 2.844e-09
  3.78817    152.6 1.275e+04 2.863e-09
  3.80454    153.2 1.270e+04 3.271e-09
  3.82453    153.8 1.277e+04 3.886e-09
  3.84452    154.3 1.288e+04 4.705e-09
  3.86412    154.8 1.300e+04 5.857e-09
  3.87411    154.9 1.304e+04 5.606e-09
  3.88450    155.3 1.317e+04 6.937e-09
  3.90448    155.7 1.333e+04 8.840e-09
  3.92447    156.1 1.353e+04 1.147e-08
  3.94446    156.4 1.372e+04 1.477e-08
  3.96006    156.6 1.388e+04 1.823e-08
  3.97006    156.6 1.388e+04 1.532e-08
  3.98444    156.7 1.399e+04 1.753e-08
  4.00443    156.7 1.410e+04 1.881e-08
  4.02441    156.7 1.413e+04 1.889e-08
  4.04440    156.6 1.411e+04 1.869e-08
  4.05600    156.5 1.410e+04 1.814e-08
  4.06600    156.5 1.396e+04 1.497e-08
  4.08438    156.4 1.397e+04 1.429e-08
  4.10437    156.3 1.403e+04 1.333e-08
  4.12436    156.1 1.407e+04 1.227e-08
  4.14195    155.8 1.404e+04 1.105e-08
  4.15195    156.3 1.392e+04 9.509e-09
  4.16433    156.3 1.391e+04 9.166e-09
  4.19441    157.2 1.382e+04 8.560e-09
  4.23449    157.4 1.380e+04 7.921e-09
  4.27447    157.5 1.381e+04 7.106e-09
  4.31404    157.6 1.379e+04 6.193e-09
  4.33403    158.3 1.401e+04 6.813e-09
  4.35442    158.2 1.405e+04 5.958e-09
  4.39440    158.6 1.410e+04 5.372e-09
  4.43437    158.7 1.418e+04 5.297e-09
  4.46426    158.6 1.431e+04 5.451e-09
  4.48415    158.7 1.440e+04 5.675e-09
  4.50414    158.7 1.449e+04 6.102e-09
  4.51573    158.7 1.453e+04 6.488e-09
  4.52582    159.0 1.450e+04 6.105e-09
  4.55430    159.1 1.457e+04 6.773e-09
  4.59428    159.2 1.465e+04 7.407e-09
  4.63426    159.0 1.475e+04 8.022e-09
  4.67423    158.3 1.484e+04 8.561e-09
  4.69781    157.1 1.498e+04 8.851e-09
  4.71780    156.3 1.507e+04 9.152e-09
  4.75419    154.5 1.515e+04 9.076e-09
  4.79417    152.6 1.519e+04 8.879e-09
  4.83414    150.9 1.517e+04 8.392e-09
  4.86971    149.5 1.508e+04 7.786e-09
  4.88970    149.0 1.516e+04 8.299e-09
  4.91410    148.0 1.498e+04 7.662e-09
  4.95407    147.7 1.483e+04 6.692e-09
  4.99405    147.7 1.472e+04 5.634e-09
  5.03403    148.0 1.467e+04 4.609e-09
  5.06159    148.9 1.454e+04 3.894e-09
  5.08158    148.9 1.448e+04 3.753e-09
  5.11398    150.4 1.443e+04 3.747e-09
  5.15396    152.1 1.441e+04 3.917e-09
  5.19393    153.7 1.443e+04 4.483e-09
  5.23349    155.3 1.444e+04 5.153e-09
  5.25348    155.0 1.447e+04 5.527e-09
  5.27389    155.9 1.439e+04 5.841e-09
  5.31387    156.9 1.432e+04 5.749e-09
  5.35384    158.0 1.414e+04 5.447e-09
  5.39382    159.4 1.395e+04 5.064e-09
  5.42537    161.1 1.394e+04 4.995e-09
  5.44536    161.3 1.381e+04 4.436e-09
  5.46368    161.7 1.384e+04 4.501e-09
  5.48357    162.1 1.383e+04 4.500e-09
  5.50356    162.5 1.377e+04 4.569e-09
  5.52112    163.1 1.369e+04 4.735e-09
  5.53112    163.2 1.361e+04 4.409e-09
  5.54354    163.8 1.357e+04 4.743e-09
  5.56222    164.5 1.358e+04 5.218e-09
  5.57222    164.5 1.379e+04 6.589e-09
  5.58351    165.0 1.383e+04 7.282e-09
  5.60350    165.5 1.390e+04 8.159e-09
  5.61706    166.0 1.401e+04 9.330e-09
  5.62706    166.1 1.403e+04 9.549e-09
  5.64348    166.6 1.416e+04 1.119e-08
  5.66347    166.9 1.430e+04 1.312e-08
  5.68346    167.1 1.443e+04 1.536e-08
  5.70301    167.2 1.457e+04 1.789e-08
  5.71301    167.4 1.452e+04 1.668e-08
  5.72343    167.5 1.471e+04 1.883e-08
  5.74342    167.5 1.501e+04 2.175e-08
  5.76341    167.2 1.537e+04 2.631e-08
  5.78340    166.6 1.574e+04 3.335e-08
  5.79895    165.6 1.608e+04 4.313e-08
  5.80895    166.2 1.595e+04 4.026e-08
  5.82338    165.1 1.630e+04 5.272e-08
  5.84336    163.8 1.656e+04 6.194e-08
  5.86335    162.2 1.659e+04 6.290e-08
  5.88334    160.8 1.646e+04 6.206e-08
  5.89490    160.3 1.629e+04 6.139e-08
  5.90489    160.6 1.634e+04 6.467e-08
  5.92332    160.5 1.635e+04 6.698e-08
  5.94331    160.5 1.659e+04 7.468e-08
  5.96329    160.0 1.689e+04 8.063e-08
  5.98084    158.9 1.690e+04 7.952e-08
  5.99084    159.0 1.655e+04 7.303e-08
  6.00327    158.0 1.634e+04 6.521e-08
  6.02326    158.0 1.576e+04 4.775e-08
  6.04325    158.2 1.505e+04 2.940e-08
  6.06324    158.6 1.473e+04 1.694e-08
  6.07679    159.0 1.444e+04 1.020e-08
  6.08678    159.4 1.431e+04 9.438e-09
  6.11331    159.6 1.405e+04 5.527e-09
  6.15294    160.5 1.318e+04 4.307e-09
  6.17292    161.6 1.322e+04 4.593e-09
  6.19336    163.3 1.315e+04 4.618e-09
  6.23333    165.0 1.305e+04 5.155e-09
  6.27331    166.6 1.308e+04 7.080e-09
  6.31329    167.7 1.325e+04 9.757e-09
  6.34482    168.1 1.333e+04 1.057e-08
  6.36481    169.0 1.373e+04 1.515e-08
  6.39324    169.0 1.369e+04 1.461e-08
  6.43322    169.0 1.344e+04 1.176e-08
  6.47320    169.4 1.305e+04 7.698e-09
  6.51317    170.3 1.266e+04 4.378e-09
  6.53670    171.5 1.250e+04 3.101e-09
  6.55669    172.7 1.276e+04 4.568e-09
  6.58303    173.3 1.276e+04 4.182e-09
  6.60293    173.9 1.272e+04 3.930e-09
  6.62246    174.7 1.274e+04 3.811e-09
  6.63245    174.8 1.281e+04 4.563e-09
  6.64290    175.6 1.290e+04 4.646e-09
  6.66289    176.3 1.310e+04 4.909e-09
  6.68288    176.7 1.333e+04 5.553e-09
  6.70287    176.6 1.362e+04 6.582e-09
  6.71840    176.3 1.392e+04 8.580e-09
  6.72839    175.6 1.487e+04 2.659e-08
  6.74284    175.1 1.556e+04 4.475e-08
  6.76283    174.1 1.612e+04 6.562e-08
  6.78282    172.6 1.625e+04 7.139e-08
  6.80281    171.0 1.613e+04 6.813e-08
  6.81434    170.2 1.561e+04 5.402e-08
  6.82434    170.0 1.641e+04 8.286e-08
  6.84279    170.0 1.544e+04 4.567e-08
  6.86278    169.9 1.443e+04 2.241e-08
  6.88276    169.6 1.358e+04 1.104e-08
  6.90039    169.8 1.293e+04 6.637e-09
  6.92047    169.4 1.299e+04 7.128e-09
  6.95292    170.8 1.240e+04 5.051e-09
  6.99290    172.7 1.203e+04 3.829e-09
  7.03287    174.6 1.185e+04 2.936e-09
  7.07238    176.5 1.176e+04 2.264e-09
  7.09237    177.3 1.182e+04 2.678e-09
  7.11283    179.2 1.176e+04 2.224e-09
  7.15280    181.0 1.170e+04 1.949e-09
  7.19278    182.9 1.164e+04 1.824e-09
  7.23276    184.8 1.164e+04 1.826e-09
  7.26427    186.7 1.164e+04 1.839e-09
  7.28425    187.6 1.167e+04 2.183e-09
  7.31271    189.3 1.172e+04 2.217e-09
  7.35269    191.0 1.180e+04 2.240e-09
  7.39266    192.4 1.183e+04 2.216e-09
  7.43264    193.8 1.188e+04 2.136e-09
  7.45615    195.1 1.193e+04 2.045e-09
  7.47614    195.3 1.194e+04 2.477e-09
  7.51260    196.6 1.197e+04 2.476e-09
  7.54040    197.7 1.203e+04 2.530e-09
  7.56038    198.2 1.220e+04 3.002e-09
  7.59255    199.3 1.231e+04 3.244e-09
  7.62805    200.2 1.247e+04 3.518e-09
  7.64803    199.7 1.256e+04 3.720e-09
  7.67250    200.4 1.259e+04 3.705e-09
  7.71248    201.2 1.261e+04 3.566e-09
  7.75246    202.2 1.260e+04 3.154e-09
  7.79243    203.2 1.253e+04 2.657e-09
  7.81993    204.3 1.239e+04 2.285e-09
  7.83992    204.5 1.226e+04 1.811e-09
  7.87239    205.9 1.223e+04 1.824e-09
  7.91236    207.3 1.217e+04 1.916e-09
  7.95234    208.7 1.212e+04 2.084e-09
  7.99183    209.9 1.206e+04 2.286e-09
  8.01182    210.3 1.199e+04 2.003e-09
  8.03230    211.4 1.193e+04 2.188e-09
  8.07227    212.5 1.188e+04 2.361e-09
  8.11225    213.8 1.182e+04 2.516e-09
  8.15223    215.0 1.177e+04 2.664e-09
  8.18371    216.3 1.171e+04 2.811e-09
  8.20370    216.2 1.169e+04 2.512e-09
  8.23218    217.4 1.164e+04 2.707e-09
  8.27216    218.6 1.159e+04 2.962e-09
  8.31213    219.9 1.154e+04 3.273e-09
  8.35211    221.2 1.151e+04 3.573e-09
  8.37560    222.3 1.144e+04 3.737e-09
  8.39558    222.4 1.145e+04 3.947e-09
  8.43206    223.3 1.143e+04 3.921e-09
  8.47204    224.2 1.133e+04 3.795e-09
  8.51202    225.1 1.120e+04 3.511e-09
  8.54749    226.1 1.107e+04 3.160e-09
  8.56748    226.4 1.091e+04 2.605e-09
  8.59197    227.6 1.081e+04 2.337e-09
  8.63195    228.7 1.076e+04 2.235e-09
  8.67193    229.9 1.074e+04 2.216e-09
  8.71190    231.0 1.073e+04 2.196e-09
  8.73938    232.1 1.070e+04 2.107e-09
  8.75937    233.2 1.069e+04 2.202e-09
  8.79186    234.4 1.067e+04 2.170e-09
  8.83183    235.7 1.062e+04 2.038e-09
  8.87181    237.0 1.054e+04 1.810e-09
  8.91127    238.4 1.045e+04 1.551e-09
  8.93126    239.3 1.048e+04 1.697e-09
  8.95176    240.9 1.037e+04 1.382e-09
  8.99174    242.4 1.020e+04 1.171e-09
  9.03172    244.1 1.008e+04 1.136e-09
  9.07170    245.9 1.006e+04 1.142e-09
  9.10316    247.6 1.002e+04 1.206e-09
  9.12315    248.3 9.980e+03 1.354e-09
  9.15165    249.9 9.965e+03 1.540e-09
  9.19163    251.4 1.001e+04 1.867e-09
  9.23160    252.7 1.009e+04 2.331e-09
  9.27158    253.9 1.019e+04 2.900e-09
  9.29504    255.0 1.027e+04 3.491e-09
  9.31503    255.4 1.023e+04 3.464e-09
  9.35153    256.4 1.032e+04 3.953e-09
  9.39151    257.4 1.025e+04 4.206e-09
  9.43149    258.8 1.025e+04 4.231e-09
  9.46694    260.5 1.025e+04 4.217e-09
  9.48693    260.7 1.001e+04 3.455e-09
  9.51144    262.5 1.003e+04 3.508e-09
  9.55142    264.5 1.014e+04 3.762e-09
  9.57278    265.2 1.023e+04 4.018e-09
  9.58267    265.3 1.019e+04 3.934e-09
  9.60119    266.0 1.024e+04 4.087e-09
  9.62118    266.6 1.030e+04 4.289e-09
  9.64117    267.3 1.038e+04 4.585e-09
  9.65863    268.1 1.048e+04 4.988e-09
  9.66862    267.9 1.044e+04 4.742e-09
  9.68115    268.6 1.058e+04 5.192e-09
  9.70114    269.3 1.074e+04 5.673e-09
  9.72112    269.8 1.091e+04 6.171e-09
  9.74111    269.8 1.109e+04 6.686e-09
  9.75457    269.6 1.134e+04 7.436e-09
  9.76456    269.2 1.103e+04 6.287e-09
  9.78109    268.9 1.118e+04 6.735e-09
  9.80108    268.3 1.150e+04 7.710e-09
  9.82107    267.2 1.202e+04 9.499e-09
  9.84052    265.5 1.257e+04 1.204e-08
  9.85051    266.0 1.198e+04 8.095e-09
  9.86104    264.0 1.304e+04 1.159e-08
  9.88103    261.4 1.447e+04 1.933e-08
  9.89344    259.2 1.548e+04 2.831e-08
  9.89838    259.3 1.543e+04 2.873e-08
  9.90592    257.7 1.620e+04 4.259e-08
  9.91591    255.7 1.726e+04 6.925e-08
  9.92591    253.6 1.820e+04 1.060e-07
  9.93641    249.9 1.902e+04 1.500e-07
  9.94645    252.9 1.871e+04 1.282e-07
  9.95594    248.3 1.968e+04 1.601e-07
  9.96589    244.4 1.987e+04 1.594e-07
  9.98093    239.9 2.008e+04 1.233e-07
 10.00096    232.7 1.970e+04 5.793e-08
 10.02095    224.9 1.795e+04 1.606e-08
 10.03240    215.2 1.419e+04 9.357e-09
 10.04240    212.2 1.557e+04 1.612e-08
 10.06093    205.5 1.456e+04 1.820e-08
 10.08092    203.7 1.418e+04 2.924e-08
 10.10091    203.1 1.529e+04 5.291e-08
 10.11835    202.2 1.659e+04 8.871e-08
 10.12834    200.2 1.644e+04 7.313e-08
 10.14088    197.7 1.725e+04 8.180e-08
 10.16087    193.8 1.789e+04 9.050e-08
 10.18086    189.4 1.829e+04 1.030e-07
 10.20085    185.2 1.854e+04 1.184e-07
 10.21429    181.1 1.855e+04 1.328e-07
 10.21924    181.0 1.873e+04 1.428e-07
 10.22574    179.3 1.896e+04 1.621e-07
 10.23573    177.7 1.890e+04 1.696e-07
 10.24572    176.4 1.884e+04 1.687e-07
 10.26076    175.0 1.853e+04 1.573e-07
 10.28080    174.6 1.786e+04 1.284e-07
 10.30024    174.6 1.709e+04 9.343e-08
 10.31023    174.1 1.690e+04 7.058e-08
 10.32078    174.4 1.564e+04 4.080e-08
 10.34077    174.8 1.429e+04 2.406e-08
 10.36076    175.2 1.316e+04 1.571e-08
 10.38074    176.0 1.242e+04 1.181e-08
 10.39618    177.1 1.203e+04 1.014e-08
 10.40618    177.4 1.191e+04 9.557e-09
 10.43081    179.3 1.154e+04 8.001e-09
 10.47089    182.3 1.128e+04 6.877e-09
 10.51086    184.9 1.116e+04 6.168e-09
 10.55084    187.6 1.114e+04 5.615e-09
 10.57817    189.0 1.114e+04 5.408e-09
 10.59816    190.1 1.091e+04 4.838e-09
 10.63079    192.8 1.097e+04 4.907e-09
 10.67077    195.1 1.111e+04 5.169e-09
 10.71075    197.8 1.134e+04 5.683e-09
 10.75016    200.8 1.165e+04 6.532e-09
 10.77015    201.4 1.155e+04 6.572e-09
 10.79070    204.2 1.194e+04 7.771e-09
 10.82059    204.8 1.210e+04 8.529e-09
 10.84048    205.2 1.234e+04 9.503e-09
 10.85591    205.3 1.276e+04 1.129e-08
 10.86590    206.2 1.266e+04 1.118e-08
 10.88046    206.3 1.313e+04 1.352e-08
 10.90044    206.2 1.368e+04 1.631e-08
 10.92043    205.7 1.423e+04 1.932e-08
 10.94042    204.8 1.471e+04 2.239e-08
 10.95185    203.8 1.503e+04 2.590e-08
 10.96184    205.3 1.454e+04 2.074e-08
 10.98040    204.3 1.460e+04 2.169e-08
 11.00039    203.4 1.465e+04 2.393e-08
 11.02037    202.7 1.474e+04 2.828e-08
 11.03780    202.2 1.486e+04 3.366e-08
 11.04779    203.0 1.452e+04 2.593e-08
 11.06035    202.5 1.483e+04 3.352e-08
 11.08034    202.2 1.505e+04 3.944e-08
 11.10033    201.7 1.502e+04 3.944e-08
 11.12032    201.1 1.469e+04 3.555e-08
 11.13374    200.8 1.407e+04 2.775e-08
 11.14373    200.2 1.516e+04 4.386e-08
 11.16029    200.1 1.443e+04 3.414e-08
 11.18028    200.2 1.355e+04 2.423e-08
 11.20027    200.6 1.275e+04 1.691e-08
 11.21969    201.1 1.224e+04 1.241e-08
 11.22968    200.8 1.245e+04 1.518e-08
 11.24025    201.4 1.202e+04 1.076e-08
 11.26024    201.9 1.193e+04 8.998e-09
 11.28022    202.1 1.190e+04 8.963e-09
 11.30021    202.2 1.187e+04 8.950e-09
 11.31563    202.3 1.180e+04 8.822e-09
 11.32572    202.5 1.190e+04 1.045e-08
 11.35038    202.6 1.202e+04 1.120e-08
 11.39036    202.2 1.215e+04 1.238e-08
 11.43033    201.8 1.218e+04 1.322e-08
 11.47031    201.0 1.214e+04 1.312e-08
 11.49635    199.7 1.186e+04 1.202e-08
 11.50376    200.5 1.175e+04 1.210e-08
 11.51770    200.4 1.198e+04 1.342e-08
 11.55026    200.4 1.133e+04 1.017e-08
 11.59024    200.7 1.064e+04 7.026e-09
 11.63022    201.5 9.886e+03 4.680e-09
 11.66961    202.8 9.284e+03 3.175e-09
 11.68960    203.0 9.760e+03 3.997e-09
 11.71017    204.7 9.134e+03 2.982e-09
 11.75015    206.8 8.640e+03 2.236e-09
 11.79013    209.1 8.324e+03 1.740e-09
 11.83010    211.6 8.149e+03 1.457e-09
 11.86149    214.0 8.073e+03 1.353e-09
 11.88148    214.1 8.242e+03 1.644e-09
 11.91006    216.4 8.200e+03 1.547e-09
 11.95003    218.6 8.244e+03 1.557e-09
 11.99001    220.9 8.308e+03 1.591e-09
 12.02999    223.3 8.392e+03 1.671e-09
 12.05338    226.1 8.879e+03 2.036e-09
 12.07337    225.7 9.186e+03 2.397e-09
 12.10994    228.8 9.678e+03 2.937e-09
 12.13923    229.9 9.738e+03 3.236e-09
 12.14913    229.2 9.812e+03 3.391e-09
 12.15972    229.9 9.773e+03 4.271e-09
 12.17970    230.9 9.878e+03 5.462e-09
 12.19969    231.9 1.015e+04 6.777e-09
 12.21968    232.9 1.062e+04 8.239e-09
 12.23507    233.4 1.127e+04 1.012e-08
 12.24507    231.2 1.280e+04 1.542e-08
 12.25966    231.1 1.347e+04 1.889e-08
 12.27965    230.8 1.415e+04 2.355e-08
 12.29964    230.3 1.479e+04 2.968e-08
 12.31962    229.7 1.538e+04 3.679e-08
 12.33102    229.1 1.587e+04 4.346e-08
 12.34101    226.8 1.571e+04 3.919e-08
