# Columns:
#   distance along LOS (in CHIMPs)
#   peculiar velocity  (in km/s)
#   temperature (K)
#   HI number density
# pos=(102.602,117.508,223.466), angles=(2.98982,3.77125)
  0.00715    116.0 1.282e+04 1.353e-08
  0.01443    116.5 1.287e+04 1.419e-08
  0.02444    117.0 1.261e+04 1.212e-08
  0.04420    117.6 1.235e+04 1.038e-08
  0.06395    118.2 1.211e+04 9.060e-09
  0.08371    118.9 1.192e+04 8.114e-09
  0.10347    119.6 1.178e+04 7.425e-09
  0.12226    120.4 1.168e+04 6.967e-09
  0.13214    119.1 1.166e+04 6.846e-09
  0.14299    120.0 1.159e+04 6.723e-09
  0.16275    121.0 1.159e+04 6.736e-09
  0.18250    121.7 1.166e+04 6.990e-09
  0.20226    121.3 1.209e+04 8.241e-09
  0.22202    119.0 1.346e+04 1.457e-08
  0.23278    115.8 1.533e+04 3.736e-08
  0.24266    115.4 1.603e+04 5.353e-08
  0.26154    113.0 1.697e+04 9.683e-08
  0.28121    110.7 1.730e+04 1.050e-07
  0.30097    104.3 1.596e+04 4.257e-08
  0.32081     99.6 1.404e+04 1.639e-08
  0.34057     94.0 1.097e+04 7.177e-09
  0.36033     92.1 1.064e+04 5.916e-09
  0.38009     89.1 9.695e+03 4.198e-09
  0.40982     88.4 9.941e+03 3.887e-09
  0.43946     87.0 9.564e+03 3.288e-09
  0.45004     87.2 9.415e+03 3.193e-09
  0.45203     86.3 9.376e+03 3.317e-09
  0.46121     85.6 9.459e+03 3.309e-09
  0.48896     86.0 9.535e+03 3.748e-09
  0.52847     86.7 9.682e+03 4.417e-09
  0.56799     86.8 9.925e+03 5.445e-09
  0.60751     86.1 1.037e+04 7.176e-09
  0.64702     84.4 1.110e+04 9.847e-09
  0.66959     82.5 1.141e+04 1.122e-08
  0.67937     81.5 1.150e+04 1.133e-08
  0.69622     79.3 1.171e+04 1.296e-08
  0.71598     77.1 1.195e+04 1.495e-08
  0.73574     74.6 1.217e+04 1.703e-08
  0.75550     71.7 1.251e+04 1.896e-08
  0.76794     68.0 1.297e+04 2.130e-08
  0.77782     67.8 1.269e+04 1.944e-08
  0.79501     64.0 1.309e+04 2.234e-08
  0.81477     60.0 1.317e+04 2.387e-08
  0.83453     56.0 1.312e+04 2.351e-08
  0.85429     51.4 1.313e+04 2.283e-08
  0.87405     46.1 1.321e+04 2.342e-08
  0.88785     41.0 1.320e+04 2.391e-08
  0.89773     40.2 1.258e+04 2.045e-08
  0.91357     35.8 1.249e+04 1.712e-08
  0.92688     30.5 1.258e+04 1.322e-08
  0.93676     30.9 1.275e+04 1.404e-08
  0.95308     25.2 1.237e+04 1.452e-08
  0.97284     21.7 1.206e+04 1.434e-08
  1.00258     18.0 1.139e+04 1.042e-08
  1.04219     15.6 1.053e+04 4.884e-09
  1.07615     13.6 9.812e+03 2.701e-09
  1.09591     14.3 9.821e+03 2.611e-09
  1.12122     13.7 9.534e+03 1.784e-09
  1.16074     13.6 9.538e+03 1.468e-09
  1.20026     13.9 9.614e+03 1.412e-09
  1.23977     14.2 9.833e+03 1.621e-09
  1.27929     14.5 1.009e+04 1.908e-09
  1.31488     15.2 1.008e+04 2.087e-09
  1.33464     15.9 9.882e+03 1.431e-09
  1.35832     17.4 9.890e+03 1.840e-09
  1.39404     18.6 1.039e+04 1.657e-09
  1.41380     18.8 1.047e+04 1.106e-09
  1.43736     19.2 1.045e+04 1.322e-09
  1.47687     20.5 1.056e+04 1.930e-09
  1.51639     22.3 1.085e+04 2.536e-09
  1.55591     23.8 1.124e+04 2.850e-09
  1.59543     24.5 1.171e+04 3.475e-09
  1.63494     24.6 1.222e+04 5.259e-09
  1.67446     24.5 1.276e+04 8.774e-09
  1.71194     24.8 1.313e+04 1.336e-08
  1.73170     25.6 1.269e+04 9.373e-09
  1.75159     26.0 1.283e+04 9.180e-09
  1.77135     25.5 1.287e+04 9.141e-09
  1.79301     25.9 1.276e+04 6.127e-09
  1.83253     26.6 1.254e+04 3.841e-09
  1.87204     27.6 1.236e+04 2.345e-09
  1.91156     28.4 1.219e+04 1.950e-09
  1.95108     29.3 1.213e+04 2.159e-09
  1.99059     30.1 1.207e+04 2.998e-09
  2.02984     31.3 1.209e+04 3.842e-09
  2.04960     31.2 1.221e+04 4.290e-09
  2.06963     32.0 1.227e+04 4.237e-09
  2.10914     32.6 1.228e+04 4.572e-09
  2.14866     33.3 1.233e+04 5.338e-09
  2.18818     33.9 1.240e+04 5.884e-09
  2.22769     33.5 1.223e+04 4.964e-09
  2.26721     34.2 1.198e+04 3.737e-09
  2.30673     34.4 1.179e+04 2.974e-09
  2.34624     34.0 1.181e+04 3.267e-09
  2.36749     33.5 1.182e+04 5.288e-09
  2.38725     33.7 1.156e+04 3.938e-09
  2.42528     33.5 1.153e+04 5.244e-09
  2.46479     34.0 1.128e+04 4.394e-09
  2.50431     34.6 1.103e+04 2.539e-09
  2.54383     34.1 1.089e+04 1.682e-09
  2.58334     34.4 1.076e+04 1.742e-09
  2.62286     34.5 1.068e+04 2.421e-09
  2.64477     35.0 1.067e+04 3.432e-09
  2.66453     35.3 1.058e+04 2.647e-09
  2.68539     35.7 1.051e+04 2.922e-09
  2.70515     36.3 1.048e+04 2.729e-09
  2.74141     36.9 1.040e+04 2.610e-09
  2.78093     37.5 1.027e+04 2.124e-09
  2.82045     37.8 1.014e+04 1.801e-09
  2.85996     38.2 1.015e+04 1.893e-09
  2.89948     38.2 1.030e+04 2.504e-09
  2.93900     38.4 1.053e+04 3.604e-09
  2.97851     38.4 1.060e+04 3.976e-09
  3.00329     38.5 1.048e+04 3.330e-09
  3.02304     38.7 1.038e+04 2.532e-09
  3.05755     38.6 1.026e+04 1.803e-09
  3.08149     38.3 1.009e+04 1.375e-09
  3.10125     38.5 1.021e+04 1.550e-09
  3.13658     38.5 1.010e+04 1.522e-09
  3.17610     38.3 1.019e+04 1.739e-09
  3.21561     38.1 1.037e+04 2.298e-09
  3.25513     38.2 1.046e+04 2.745e-09
  3.28467     38.5 1.057e+04 3.224e-09
  3.29965     38.8 1.060e+04 3.325e-09
  3.30953     39.0 1.068e+04 3.757e-09
  3.32108     37.9 1.095e+04 4.921e-09
  3.34094     38.5 1.095e+04 4.916e-09
  3.37368     37.3 1.144e+04 7.051e-09
  3.40322     35.1 1.189e+04 9.700e-09
  3.42288     33.7 1.248e+04 1.501e-08
  3.44264     33.0 1.311e+04 2.470e-08
  3.46240     32.5 1.364e+04 2.978e-08
  3.47993     31.3 1.376e+04 2.922e-08
  3.48981     31.5 1.371e+04 2.818e-08
  3.50191     29.8 1.365e+04 2.534e-08
  3.51800     27.9 1.341e+04 2.344e-08
  3.52788     27.8 1.325e+04 2.210e-08
  3.54143     26.8 1.289e+04 1.976e-08
  3.56119     26.2 1.262e+04 1.751e-08
  3.58095     25.9 1.247e+04 1.554e-08
  3.60071     25.2 1.234e+04 1.407e-08
  3.62047     24.7 1.232e+04 1.410e-08
  3.63888     24.1 1.247e+04 1.575e-08
  3.64876     23.9 1.268e+04 1.722e-08
  3.65998     23.2 1.323e+04 2.260e-08
  3.67974     21.9 1.412e+04 3.328e-08
  3.69950     21.6 1.460e+04 4.922e-08
  3.71926     21.7 1.462e+04 5.628e-08
  3.73636     22.8 1.411e+04 3.807e-08
  3.74624     22.1 1.374e+04 3.345e-08
  3.75877     21.6 1.323e+04 2.077e-08
  3.77853     19.5 1.259e+04 1.362e-08
  3.79783     18.0 1.195e+04 1.132e-08
  3.80771     18.3 1.185e+04 1.054e-08
  3.81805     17.4 1.176e+04 9.797e-09
  3.83781     16.2 1.178e+04 9.624e-09
  3.85757     15.2 1.186e+04 1.049e-08
  3.87732     14.7 1.171e+04 1.320e-08
  3.89708     14.8 1.197e+04 1.473e-08
  3.91684     14.4 1.220e+04 1.549e-08
  3.93660     13.4 1.228e+04 1.512e-08
  3.95472     12.4 1.223e+04 1.505e-08
  3.96460     12.7 1.211e+04 1.329e-08
  3.96666     12.3 1.206e+04 1.173e-08
  3.97654     13.0 1.187e+04 1.086e-08
  4.00585     12.3 1.153e+04 6.974e-09
  4.04547     10.3 1.170e+04 6.410e-09
  4.07501      7.7 1.173e+04 8.908e-09
  4.09467      4.4 1.367e+04 1.493e-08
  4.11442     -1.1 1.575e+04 4.199e-08
  4.12561     -3.1 1.691e+04 1.323e-07
  4.13549     -2.1 1.663e+04 8.653e-08
  4.14895     -3.7 1.773e+04 1.917e-07
  4.15878     -5.0 1.819e+04 2.393e-07
  4.16866     -6.3 1.869e+04 2.845e-07
  4.17791     -9.7 1.914e+04 1.955e-07
  4.18285     -8.8 1.950e+04 2.185e-07
  4.18842    -14.7 1.885e+04 8.081e-08
  4.19830    -21.3 1.632e+04 3.545e-08
  4.20498    -25.9 1.466e+04 2.343e-08
  4.20992    -24.9 1.528e+04 2.606e-08
  4.21806    -28.2 1.426e+04 2.059e-08
  4.23293    -31.1 1.374e+04 1.791e-08
  4.25273    -35.1 1.328e+04 1.641e-08
  4.27249    -37.3 1.301e+04 1.563e-08
  4.28455    -39.2 1.291e+04 1.300e-08
  4.29443    -38.5 1.291e+04 1.373e-08
  4.31201    -40.7 1.279e+04 9.446e-09
  4.33177    -43.3 1.262e+04 6.834e-09
  4.35153    -45.5 1.246e+04 6.025e-09
  4.37128    -47.0 1.237e+04 5.820e-09
  4.39104    -48.1 1.235e+04 5.789e-09
  4.40131    -49.6 1.241e+04 5.847e-09
  4.41119    -50.4 1.240e+04 6.372e-09
  4.43056    -52.9 1.285e+04 7.097e-09
  4.44350    -56.1 1.344e+04 1.151e-08
  4.45338    -55.6 1.367e+04 1.244e-08
  4.47008    -58.3 1.405e+04 2.232e-08
  4.48983    -60.3 1.425e+04 3.022e-08
  4.50959    -62.4 1.421e+04 3.155e-08
  4.52935    -64.0 1.354e+04 2.426e-08
  4.54911    -65.6 1.258e+04 1.222e-08
  4.56887    -67.6 1.177e+04 5.946e-09
  4.58863    -69.5 1.141e+04 4.126e-09
  4.60245    -70.5 1.128e+04 3.766e-09
  4.61233    -70.5 1.134e+04 4.498e-09
  4.61966    -71.0 1.134e+04 4.496e-09
  4.62954    -71.2 1.132e+04 4.368e-09
  4.64790    -71.5 1.141e+04 4.615e-09
  4.66766    -72.0 1.162e+04 5.138e-09
  4.68742    -72.6 1.189e+04 5.920e-09
  4.70718    -73.2 1.219e+04 7.275e-09
  4.72694    -73.8 1.242e+04 9.642e-09
  4.74669    -74.2 1.276e+04 1.257e-08
  4.76140    -74.9 1.370e+04 1.732e-08
  4.77128    -75.1 1.361e+04 1.862e-08
  4.78621    -78.3 1.645e+04 3.044e-08
  4.80098    -82.4 2.074e+04 7.408e-08
  4.81081    -84.8 2.008e+04 2.622e-07
  4.82069    -86.0 1.869e+04 1.319e-06
  4.83057    -87.9 1.754e+04 5.693e-06
  4.83792    -93.0 1.680e+04 1.301e-05
  4.84286    -92.6 1.748e+04 6.564e-06
  4.84571    -99.9 1.734e+04 7.760e-06
  4.85065    -99.9 1.674e+04 1.435e-05
  4.86021   -107.6 1.700e+04 9.954e-06
  4.87009   -112.6 1.825e+04 2.882e-06
  4.87997   -115.1 1.967e+04 7.032e-07
  4.88984   -116.6 1.970e+04 2.770e-07
  4.89972   -117.5 1.873e+04 1.572e-07
  4.90960   -117.9 1.780e+04 1.035e-07
  4.91948   -118.5 1.712e+04 6.921e-08
  4.92519   -119.4 1.652e+04 4.946e-08
  4.93013   -120.3 1.727e+04 6.648e-08
  4.93924   -121.0 1.666e+04 5.178e-08
  4.94710   -121.6 1.611e+04 4.362e-08
  4.95204   -121.5 1.557e+04 3.639e-08
  4.95900   -121.9 1.535e+04 3.531e-08
  4.96888   -122.3 1.531e+04 3.528e-08
  4.97876   -122.8 1.527e+04 3.659e-08
  4.98864   -123.4 1.532e+04 3.848e-08
  4.99852   -124.2 1.531e+04 4.145e-08
  5.00466   -124.9 1.538e+04 4.358e-08
  5.00960   -125.4 1.547e+04 4.680e-08
  5.02326   -126.1 1.531e+04 4.571e-08
  5.04307   -127.3 1.493e+04 4.228e-08
  5.05638   -128.6 1.431e+04 3.247e-08
  5.06625   -127.8 1.428e+04 2.939e-08
  5.07930   -128.7 1.336e+04 1.881e-08
  5.08917   -129.9 1.330e+04 1.920e-08
  5.10234   -130.5 1.256e+04 1.279e-08
  5.12210   -130.8 1.202e+04 9.164e-09
  5.14186   -130.8 1.170e+04 7.027e-09
  5.16162   -130.6 1.150e+04 5.633e-09
  5.18138   -130.2 1.136e+04 4.666e-09
  5.20114   -129.8 1.124e+04 4.021e-09
  5.22090   -129.5 1.111e+04 3.617e-09
  5.23824   -129.2 1.096e+04 3.406e-09
  5.24812   -129.1 1.105e+04 3.961e-09
  5.26041   -128.9 1.091e+04 3.736e-09
  5.27473   -128.7 1.078e+04 3.620e-09
  5.28461   -128.1 1.080e+04 3.656e-09
  5.29993   -128.0 1.071e+04 3.581e-09
  5.31969   -127.9 1.065e+04 3.527e-09
  5.33945   -127.9 1.058e+04 3.469e-09
  5.35920   -127.8 1.048e+04 3.334e-09
  5.37896   -127.8 1.034e+04 3.088e-09
  5.39719   -127.7 1.020e+04 2.792e-09
  5.40707   -128.1 1.034e+04 3.235e-09
  5.41848   -128.0 1.019e+04 2.861e-09
  5.43824   -128.0 1.008e+04 2.572e-09
  5.45800   -128.0 1.003e+04 2.323e-09
  5.47775   -128.0 1.001e+04 2.210e-09
  5.49309   -127.9 1.001e+04 2.147e-09
  5.50297   -128.2 1.001e+04 2.406e-09
  5.51727   -128.0 1.001e+04 2.312e-09
  5.54636   -127.7 1.003e+04 2.197e-09
  5.56612   -128.1 1.007e+04 2.611e-09
  5.57655   -127.8 1.009e+04 2.617e-09
  5.59630   -127.6 1.011e+04 2.642e-09
  5.62604   -127.5 1.017e+04 2.806e-09
  5.66565   -127.1 1.022e+04 2.858e-09
  5.70176   -126.6 1.024e+04 2.886e-09
  5.72142   -126.6 1.027e+04 2.948e-09
  5.72497   -126.3 1.029e+04 2.967e-09
  5.73485   -126.6 1.028e+04 3.162e-09
  5.75437   -126.3 1.031e+04 3.236e-09
  5.77413   -126.1 1.035e+04 3.362e-09
  5.79389   -125.8 1.037e+04 3.460e-09
  5.81365   -125.4 1.037e+04 3.517e-09
  5.83341   -124.8 1.037e+04 3.533e-09
  5.85316   -124.2 1.036e+04 3.555e-09
  5.87292   -124.0 1.039e+04 3.603e-09
  5.88392   -126.2 1.118e+04 3.897e-09
  5.89379   -124.1 1.075e+04 4.199e-09
  5.91244   -130.5 1.372e+04 5.208e-09
  5.92980   -139.2 1.888e+04 5.497e-08
  5.93968   -139.5 1.911e+04 3.874e-08
  5.94697   -142.6 1.899e+04 2.830e-07
  5.95680   -143.7 1.911e+04 5.741e-07
  5.96329   -145.7 1.926e+04 7.563e-07
  5.96823   -144.6 1.910e+04 8.346e-07
  5.97656   -147.2 1.918e+04 9.010e-07
  5.98644   -151.2 1.953e+04 7.100e-07
  5.99631   -157.0 1.951e+04 2.722e-07
  6.00619   -164.1 1.769e+04 7.122e-08
  6.01607   -169.6 1.438e+04 2.969e-08
  6.02595   -171.4 1.298e+04 2.238e-08
  6.03583   -171.9 1.259e+04 2.030e-08
  6.04281   -172.6 1.231e+04 1.796e-08
  6.05274   -172.5 1.258e+04 1.965e-08
  6.07051   -173.5 1.200e+04 1.552e-08
  6.09026   -174.6 1.119e+04 1.173e-08
  6.11002   -175.2 1.068e+04 9.993e-09
  6.12978   -175.4 1.051e+04 9.383e-09
  6.14816   -175.5 1.043e+04 9.059e-09
  6.15804   -176.2 1.041e+04 9.102e-09
  6.16930   -176.3 1.029e+04 8.553e-09
  6.18906   -176.4 1.012e+04 7.771e-09
  6.20181   -176.5 9.891e+03 6.803e-09
  6.21169   -176.4 9.959e+03 6.840e-09
  6.22857   -176.6 9.658e+03 5.815e-09
  6.24833   -176.7 9.347e+03 4.947e-09
  6.26809   -176.8 9.070e+03 4.263e-09
  6.28785   -176.9 8.849e+03 3.675e-09
  6.30761   -176.7 8.618e+03 3.197e-09
  6.32737   -175.8 8.516e+03 2.865e-09
  6.34712   -174.8 8.538e+03 2.762e-09
  6.37686   -174.2 8.635e+03 2.795e-09
  6.41647   -173.3 8.714e+03 2.654e-09
  6.45599   -172.3 8.686e+03 2.377e-09
  6.49551   -170.9 8.645e+03 2.167e-09
  6.51990   -169.3 8.640e+03 2.111e-09
  6.53966   -168.5 8.944e+03 2.305e-09
  6.57454   -167.0 9.014e+03 2.300e-09
  6.59494   -166.0 9.264e+03 2.501e-09
  6.60472   -166.9 9.163e+03 2.731e-09
  6.62374   -166.7 9.230e+03 2.866e-09
  6.64350   -166.2 9.326e+03 3.128e-09
  6.66326   -166.1 9.368e+03 3.275e-09
  6.67866   -166.0 9.403e+03 3.553e-09
  6.68854   -166.2 9.397e+03 3.657e-09
  6.70277   -166.2 9.365e+03 3.808e-09
  6.72253   -166.1 9.345e+03 3.906e-09
  6.74229   -166.1 9.361e+03 3.965e-09
  6.76205   -166.1 9.397e+03 4.062e-09
  6.78181   -166.5 9.467e+03 4.286e-09
  6.80157   -167.2 9.653e+03 4.789e-09
  6.81310   -167.8 1.004e+04 5.974e-09
  6.82298   -167.1 9.734e+03 5.378e-09
  6.83760   -167.4 1.003e+04 6.504e-09
  6.84748   -168.3 1.047e+04 9.027e-09
  6.86084   -168.4 1.073e+04 1.090e-08
  6.88060   -168.3 1.091e+04 1.253e-08
  6.90036   -168.1 1.101e+04 1.341e-08
  6.92012   -167.9 1.103e+04 1.361e-08
  6.93988   -167.6 1.092e+04 1.262e-08
  6.95963   -167.2 1.064e+04 1.088e-08
  6.97939   -166.9 1.037e+04 9.125e-09
  6.99655   -166.5 1.010e+04 7.761e-09
  7.00643   -167.3 1.002e+04 7.454e-09
  7.01891   -166.6 9.792e+03 6.562e-09
  7.03146   -165.8 9.610e+03 5.894e-09
  7.04134   -164.6 9.719e+03 6.243e-09
  7.05843   -163.8 9.601e+03 5.794e-09
  7.07818   -163.0 9.481e+03 5.385e-09
  7.09794   -162.1 9.363e+03 5.018e-09
  7.11770   -161.1 9.260e+03 4.711e-09
  7.13746   -160.2 9.177e+03 4.472e-09
  7.15550   -159.2 9.118e+03 4.309e-09
  7.16538   -159.3 8.998e+03 4.019e-09
  7.17698   -158.2 8.991e+03 3.987e-09
  7.19673   -157.2 9.006e+03 3.990e-09
  7.21649   -156.4 9.127e+03 4.180e-09
  7.23625   -155.6 9.285e+03 4.609e-09
  7.24982   -154.9 9.459e+03 5.163e-09
  7.25970   -154.2 9.453e+03 5.233e-09
  7.27577   -153.5 9.633e+03 5.830e-09
  7.29553   -152.9 9.792e+03 6.402e-09
  7.31445   -152.3 9.905e+03 6.843e-09
  7.32433   -152.6 1.008e+04 7.635e-09
  7.33504   -152.0 1.012e+04 7.813e-09
  7.35480   -151.5 1.012e+04 7.838e-09
  7.37456   -150.8 1.006e+04 7.721e-09
  7.39432   -149.9 9.971e+03 7.319e-09
  7.41408   -149.1 9.868e+03 6.815e-09
  7.43384   -148.2 9.764e+03 6.297e-09
  7.45359   -147.3 9.669e+03 5.816e-09
  7.46817   -146.4 9.589e+03 5.393e-09
  7.47805   -145.8 9.697e+03 5.875e-09
  7.49311   -145.2 9.698e+03 5.674e-09
  7.51287   -144.3 9.670e+03 5.389e-09
  7.53263   -143.4 9.669e+03 5.188e-09
  7.55239   -142.4 9.700e+03 5.063e-09
  7.57214   -141.5 9.737e+03 5.008e-09
  7.59190   -140.6 9.769e+03 4.981e-09
  7.61166   -139.8 9.818e+03 4.948e-09
  7.63142   -138.9 9.868e+03 4.902e-09
  7.64222   -138.0 9.901e+03 4.841e-09
  7.65210   -138.3 9.946e+03 4.838e-09
  7.67094   -137.3 9.939e+03 4.671e-09
  7.68653   -136.4 9.947e+03 4.490e-09
  7.69641   -136.2 1.010e+04 5.106e-09
  7.71045   -135.3 1.011e+04 4.863e-09
  7.73021   -134.3 1.012e+04 4.657e-09
  7.74997   -133.5 1.015e+04 4.508e-09
  7.76973   -132.7 1.019e+04 4.418e-09
  7.78949   -132.0 1.021e+04 4.393e-09
  7.80117   -131.3 1.032e+04 4.369e-09
  7.81105   -131.0 1.024e+04 3.843e-09
  7.82900   -130.5 1.044e+04 4.042e-09
  7.84876   -130.0 1.061e+04 4.455e-09
  7.86852   -129.6 1.077e+04 4.919e-09
  7.88828   -129.2 1.091e+04 5.378e-09
  7.90488   -128.9 1.104e+04 5.791e-09
  7.91476   -129.2 1.113e+04 6.410e-09
  7.92779   -128.9 1.123e+04 6.711e-09
  7.94755   -128.7 1.131e+04 6.901e-09
  7.96012   -128.6 1.140e+04 7.026e-09
  7.97000   -128.4 1.172e+04 8.980e-09
  7.98707   -128.5 1.187e+04 9.378e-09
  8.00683   -129.0 1.208e+04 1.017e-08
  8.02659   -129.7 1.232e+04 1.168e-08
  8.04635   -130.6 1.265e+04 1.422e-08
  8.06610   -131.6 1.306e+04 1.741e-08
  8.08586   -133.3 1.356e+04 2.046e-08
  8.10562   -136.0 1.410e+04 2.293e-08
  8.11907   -139.9 1.450e+04 2.494e-08
  8.12681   -142.0 1.492e+04 3.074e-08
  8.13312   -143.7 1.529e+04 3.697e-08
  8.14015   -145.7 1.509e+04 3.578e-08
  8.14998   -146.9 1.524e+04 3.781e-08
  8.15986   -149.1 1.540e+04 4.173e-08
  8.16974   -150.9 1.578e+04 4.978e-08
  8.17962   -152.8 1.593e+04 5.833e-08
  8.18950   -154.0 1.603e+04 6.523e-08
  8.19845   -154.9 1.605e+04 6.962e-08
  8.20338   -155.9 1.629e+04 8.153e-08
  8.20925   -156.3 1.599e+04 7.697e-08
  8.21913   -156.6 1.581e+04 6.693e-08
  8.22901   -156.9 1.558e+04 5.691e-08
  8.23726   -157.2 1.532e+04 4.929e-08
  8.24220   -158.2 1.552e+04 5.304e-08
  8.24877   -158.3 1.517e+04 4.577e-08
  8.26364   -158.0 1.497e+04 4.215e-08
  8.27802   -157.9 1.455e+04 3.436e-08
  8.28790   -159.0 1.386e+04 1.966e-08
  8.30320   -159.0 1.337e+04 1.327e-08
  8.32296   -158.8 1.298e+04 9.790e-09
  8.34160   -158.5 1.272e+04 8.000e-09
  8.35148   -159.8 1.247e+04 8.304e-09
  8.36248   -159.2 1.239e+04 7.489e-09
  8.38224   -158.5 1.230e+04 7.128e-09
  8.40200   -157.8 1.226e+04 6.976e-09
  8.42175   -157.1 1.226e+04 6.908e-09
  8.43696   -156.5 1.228e+04 6.864e-09
  8.44684   -156.5 1.228e+04 6.523e-09
  8.46127   -155.9 1.233e+04 6.770e-09
  8.48103   -155.3 1.236e+04 6.837e-09
  8.50079   -154.9 1.237e+04 6.805e-09
  8.52055   -154.5 1.235e+04 6.549e-09
  8.54031   -154.0 1.226e+04 6.041e-09
  8.55995   -153.5 1.213e+04 5.421e-09
  8.56983   -154.0 1.221e+04 6.179e-09
  8.57982   -153.5 1.205e+04 5.407e-09
  8.59591   -153.0 1.191e+04 4.872e-09
  8.60579   -153.1 1.201e+04 5.246e-09
  8.61934   -152.7 1.200e+04 5.015e-09
  8.63910   -152.5 1.203e+04 4.979e-09
  8.65886   -152.6 1.226e+04 5.369e-09
  8.67861   -152.8 1.253e+04 6.337e-09
  8.69837   -153.1 1.274e+04 8.051e-09
  8.71813   -153.3 1.291e+04 1.038e-08
  8.73789   -153.4 1.306e+04 1.304e-08
  8.75486   -153.4 1.319e+04 1.551e-08
  8.76474   -154.4 1.389e+04 2.479e-08
  8.77741   -154.3 1.377e+04 2.486e-08
  8.78819   -154.2 1.371e+04 2.316e-08
  8.79807   -154.2 1.350e+04 1.803e-08
  8.81692   -154.1 1.340e+04 1.608e-08
  8.83668   -153.9 1.330e+04 1.462e-08
  8.85644   -153.7 1.316e+04 1.320e-08
  8.87620   -153.4 1.296e+04 1.160e-08
  8.89596   -152.8 1.269e+04 9.860e-09
  8.91381   -152.0 1.241e+04 8.283e-09
  8.92369   -152.4 1.259e+04 9.669e-09
  8.93547   -151.5 1.249e+04 8.738e-09
  8.95523   -150.9 1.252e+04 8.493e-09
  8.97499   -151.0 1.263e+04 8.526e-09
  8.99475   -152.6 1.365e+04 1.110e-08
  9.00654   -155.0 1.572e+04 3.070e-08
  9.01642   -156.1 1.685e+04 6.260e-08
  9.02928   -157.1 1.743e+04 9.898e-08
  9.03911   -157.7 1.785e+04 1.335e-07
  9.04899   -158.0 1.811e+04 1.574e-07
  9.05887   -159.4 1.842e+04 1.749e-07
  9.06874   -161.1 1.851e+04 1.808e-07
  9.07760   -162.4 1.848e+04 1.665e-07
  9.08254   -163.3 1.774e+04 9.572e-08
  9.08850   -164.8 1.727e+04 7.282e-08
  9.09838   -166.0 1.693e+04 5.858e-08
  9.10826   -167.9 1.617e+04 4.125e-08
  9.11562   -169.6 1.541e+04 3.173e-08
  9.12056   -170.8 1.487e+04 3.043e-08
  9.13301   -171.8 1.418e+04 2.336e-08
  9.15282   -172.9 1.335e+04 1.800e-08
  9.17257   -173.7 1.283e+04 1.444e-08
  9.19233   -174.2 1.276e+04 1.319e-08
