# Columns:
#   distance along LOS (in CHIMPs)
#   peculiar velocity  (in km/s)
#   temperature (K)
#   HI number density
# pos=(13.8435,57.573,135.97), angles=(0.107555,2.71953)
  0.00257    169.3 1.157e+04 2.737e-09
  0.01487    169.7 1.165e+04 2.925e-09
  0.03442    170.1 1.173e+04 3.211e-09
  0.05406    170.4 1.182e+04 3.647e-09
  0.07371    170.7 1.191e+04 4.217e-09
  0.09335    171.0 1.203e+04 4.955e-09
  0.11300    171.2 1.220e+04 5.977e-09
  0.13264    171.3 1.243e+04 7.503e-09
  0.14593    171.3 1.274e+04 9.854e-09
  0.15575    170.6 1.314e+04 1.379e-08
  0.17193    170.6 1.352e+04 1.853e-08
  0.18333    170.8 1.382e+04 2.302e-08
  0.19315    170.9 1.373e+04 2.216e-08
  0.21122    171.1 1.398e+04 2.598e-08
  0.23087    171.2 1.405e+04 2.695e-08
  0.25051    171.4 1.401e+04 2.615e-08
  0.27016    171.8 1.386e+04 2.373e-08
  0.28980    172.3 1.367e+04 2.065e-08
  0.30945    173.1 1.351e+04 1.774e-08
  0.32909    174.0 1.338e+04 1.568e-08
  0.34388    175.0 1.347e+04 1.455e-08
  0.35370    174.8 1.304e+04 1.253e-08
  0.36838    176.1 1.304e+04 1.327e-08
  0.38803    177.4 1.312e+04 1.465e-08
  0.40767    178.7 1.325e+04 1.664e-08
  0.42732    179.9 1.342e+04 1.914e-08
  0.44696    181.1 1.359e+04 2.204e-08
  0.46661    182.3 1.378e+04 2.527e-08
  0.48625    183.5 1.397e+04 2.885e-08
  0.50589    184.8 1.416e+04 3.277e-08
  0.52554    186.2 1.437e+04 3.697e-08
  0.54183    187.5 1.458e+04 4.110e-08
  0.55165    187.7 1.464e+04 4.053e-08
  0.56483    189.0 1.488e+04 4.413e-08
  0.58447    190.3 1.506e+04 4.712e-08
  0.60412    191.5 1.522e+04 5.019e-08
  0.62150    193.1 1.545e+04 5.538e-08
  0.63132    192.6 1.490e+04 3.296e-08
  0.64341    193.9 1.538e+04 3.731e-08
  0.66305    194.9 1.601e+04 4.395e-08
  0.68270    195.5 1.659e+04 4.958e-08
  0.70234    195.5 1.681e+04 4.984e-08
  0.72199    195.3 1.684e+04 4.759e-08
  0.73977    194.8 1.658e+04 3.959e-08
  0.74959    195.4 1.761e+04 4.011e-08
  0.76128    194.3 1.687e+04 2.901e-08
  0.78092    192.8 1.589e+04 2.142e-08
  0.80057    191.4 1.623e+04 1.747e-08
  0.81525    191.2 1.564e+04 1.697e-08
  0.82502    190.9 1.608e+04 1.705e-08
  0.83485    190.1 1.847e+04 1.701e-08
  0.84356    188.9 2.276e+04 1.771e-08
  0.84847    184.5 2.604e+04 6.376e-08
  0.85031    183.4 2.425e+04 1.294e-07
  0.85522    186.5 2.574e+04 2.303e-08
  0.86431    184.8 2.576e+04 4.031e-08
  0.87414    183.4 2.437e+04 7.557e-08
  0.88396    182.5 2.255e+04 1.416e-07
  0.89378    181.9 2.098e+04 2.579e-07
  0.90360    181.9 1.980e+04 4.728e-07
  0.91343    182.1 1.900e+04 8.760e-07
  0.92325    182.4 1.837e+04 1.657e-06
  0.93307    182.7 1.795e+04 2.976e-06
  0.94253    182.6 1.731e+04 5.676e-06
  0.94744    179.7 1.894e+04 1.753e-06
  0.95272    177.3 1.964e+04 1.131e-06
  0.96254    174.2 1.986e+04 6.092e-07
  0.97236    170.7 1.958e+04 3.222e-07
  0.98218    167.2 1.887e+04 1.874e-07
  0.99200    164.6 1.783e+04 1.251e-07
  1.00183    163.3 1.679e+04 9.785e-08
  1.01661    163.4 1.598e+04 7.532e-08
  1.03630    163.5 1.523e+04 5.207e-08
  1.05595    163.5 1.454e+04 3.170e-08
  1.06949    163.3 1.390e+04 2.023e-08
  1.07932    162.8 1.393e+04 1.779e-08
  1.09524    162.7 1.329e+04 1.321e-08
  1.11488    163.2 1.290e+04 1.196e-08
  1.13453    164.5 1.273e+04 1.164e-08
  1.14549    166.2 1.266e+04 1.151e-08
  1.15531    166.2 1.272e+04 1.163e-08
  1.17382    167.7 1.273e+04 1.162e-08
  1.19346    169.1 1.273e+04 1.165e-08
  1.21311    170.5 1.274e+04 1.171e-08
  1.23275    171.8 1.274e+04 1.171e-08
  1.25240    173.1 1.274e+04 1.165e-08
  1.27204    174.4 1.270e+04 1.143e-08
  1.29169    175.7 1.263e+04 1.100e-08
  1.31133    177.0 1.253e+04 1.036e-08
  1.33097    178.3 1.243e+04 9.636e-09
  1.34344    179.6 1.233e+04 8.896e-09
  1.35326    179.5 1.230e+04 8.583e-09
  1.37026    180.7 1.225e+04 7.962e-09
  1.38991    181.9 1.219e+04 7.353e-09
  1.40955    183.1 1.216e+04 6.721e-09
  1.42920    184.2 1.215e+04 6.088e-09
  1.44884    185.2 1.214e+04 5.518e-09
  1.47841    186.5 1.210e+04 4.475e-09
  1.50786    188.4 1.206e+04 3.621e-09
  1.52741    188.8 1.218e+04 4.286e-09
  1.55699    190.5 1.220e+04 4.254e-09
  1.59637    192.3 1.222e+04 3.490e-09
  1.63566    194.0 1.239e+04 3.181e-09
  1.67495    195.4 1.240e+04 3.174e-09
  1.71424    195.9 1.237e+04 3.162e-09
  1.73952    196.0 1.221e+04 3.062e-09
  1.75917    195.1 1.228e+04 3.651e-09
  1.79282    194.8 1.211e+04 3.476e-09
  1.83211    193.8 1.192e+04 3.120e-09
  1.87140    192.7 1.168e+04 2.585e-09
  1.91069    191.8 1.141e+04 2.067e-09
  1.94998    191.6 1.129e+04 1.896e-09
  1.98927    191.5 1.141e+04 1.988e-09
  2.01864    190.7 1.164e+04 2.330e-09
  2.03819    189.7 1.187e+04 3.323e-09
  2.05783    188.7 1.208e+04 5.573e-09
  2.07748    187.9 1.237e+04 9.292e-09
  2.09712    187.2 1.275e+04 1.394e-08
  2.11677    186.4 1.311e+04 1.818e-08
  2.13522    185.4 1.329e+04 1.820e-08
  2.14505    184.0 1.314e+04 1.442e-08
  2.15605    182.5 1.318e+04 1.196e-08
  2.17570    180.5 1.306e+04 9.328e-09
  2.19534    178.4 1.271e+04 7.486e-09
  2.22491    176.5 1.226e+04 6.522e-09
  2.26430    175.3 1.195e+04 6.443e-09
  2.30359    174.4 1.174e+04 6.257e-09
  2.34288    173.6 1.148e+04 5.535e-09
  2.38217    172.9 1.125e+04 4.289e-09
  2.40384    172.8 1.112e+04 3.237e-09
  2.42349    173.0 1.111e+04 3.017e-09
  2.46074    173.0 1.114e+04 2.555e-09
  2.50003    173.7 1.116e+04 2.554e-09
  2.53131    174.8 1.122e+04 2.682e-09
  2.55096    174.7 1.129e+04 2.586e-09
  2.57861    175.7 1.137e+04 2.856e-09
  2.61790    176.6 1.146e+04 3.039e-09
  2.65719    177.6 1.148e+04 3.070e-09
  2.69648    178.8 1.147e+04 3.028e-09
  2.73577    180.3 1.142e+04 2.987e-09
  2.77506    182.1 1.139e+04 2.998e-09
  2.81435    184.0 1.139e+04 3.075e-09
  2.85364    185.7 1.148e+04 3.194e-09
  2.89293    187.4 1.159e+04 3.333e-09
  2.92721    189.1 1.162e+04 3.357e-09
  2.94685    189.4 1.179e+04 3.522e-09
  2.97151    191.0 1.183e+04 3.521e-09
  3.01080    192.6 1.183e+04 3.442e-09
  3.05009    194.1 1.180e+04 3.241e-09
  3.08938    195.6 1.179e+04 2.999e-09
  3.12867    197.2 1.182e+04 2.800e-09
  3.16796    198.9 1.183e+04 2.759e-09
  3.20725    200.6 1.187e+04 2.779e-09
  3.24653    201.4 1.190e+04 2.845e-09
  3.27590    202.6 1.200e+04 3.018e-09
  3.28981    203.3 1.209e+04 3.176e-09
  3.29963    203.4 1.208e+04 3.176e-09
  3.31510    203.9 1.216e+04 3.328e-09
  3.33273    204.4 1.223e+04 3.512e-09
  3.34255    204.5 1.234e+04 3.991e-09
  3.35439    204.8 1.244e+04 4.457e-09
  3.37403    205.1 1.255e+04 5.038e-09
  3.39368    205.3 1.265e+04 5.718e-09
  3.41332    205.3 1.275e+04 6.434e-09
  3.43296    205.4 1.284e+04 7.108e-09
  3.45261    205.4 1.291e+04 7.756e-09
  3.47225    205.5 1.296e+04 8.371e-09
  3.49190    205.5 1.300e+04 9.013e-09
  3.51154    205.5 1.301e+04 9.767e-09
  3.53067    205.5 1.303e+04 1.075e-08
  3.54050    205.2 1.301e+04 1.080e-08
  3.55083    205.2 1.295e+04 1.180e-08
  3.57048    205.1 1.292e+04 1.184e-08
  3.59012    205.0 1.286e+04 1.169e-08
  3.60977    204.9 1.271e+04 1.107e-08
  3.62941    204.8 1.252e+04 9.676e-09
  3.64906    204.7 1.230e+04 7.819e-09
  3.66870    204.5 1.209e+04 5.945e-09
  3.68835    204.2 1.194e+04 4.438e-09
  3.70799    203.8 1.185e+04 3.423e-09
  3.72764    203.4 1.177e+04 2.936e-09
  3.73780    203.1 1.169e+04 2.760e-09
  3.73879    203.1 1.174e+04 3.208e-09
  3.74827    203.3 1.167e+04 3.027e-09
  3.76693    203.3 1.165e+04 3.033e-09
  3.78657    203.5 1.162e+04 3.048e-09
  3.80622    203.7 1.158e+04 3.057e-09
  3.82586    204.1 1.154e+04 3.063e-09
  3.84550    204.6 1.153e+04 3.068e-09
  3.86515    205.1 1.152e+04 3.092e-09
  3.88479    205.5 1.152e+04 3.162e-09
  3.90444    206.0 1.154e+04 3.293e-09
  3.92408    206.4 1.156e+04 3.498e-09
  3.93639    206.8 1.160e+04 3.787e-09
  3.94621    207.2 1.162e+04 3.816e-09
  3.96337    207.6 1.171e+04 4.249e-09
  3.98302    207.9 1.183e+04 4.815e-09
  4.00266    208.0 1.197e+04 5.548e-09
  4.02231    208.0 1.213e+04 6.500e-09
  4.04195    207.9 1.231e+04 7.714e-09
  4.06160    207.6 1.248e+04 9.046e-09
  4.08124    207.1 1.264e+04 1.048e-08
  4.11081    206.1 1.248e+04 8.789e-09
  4.13453    204.9 1.241e+04 9.556e-09
  4.15418    206.5 1.263e+04 1.167e-08
  4.17617    205.4 1.244e+04 1.074e-08
  4.19581    204.6 1.302e+04 1.396e-08
  4.22877    204.3 1.274e+04 1.189e-08
  4.26806    204.3 1.235e+04 9.541e-09
  4.30735    204.8 1.192e+04 7.009e-09
  4.34664    205.9 1.154e+04 4.840e-09
  4.38593    207.6 1.123e+04 3.302e-09
  4.42522    209.5 1.103e+04 2.354e-09
  4.46451    211.6 1.094e+04 1.808e-09
  4.50380    213.7 1.092e+04 1.481e-09
  4.53043    215.8 1.092e+04 1.255e-09
  4.55007    215.5 1.096e+04 1.284e-09
  4.58238    217.5 1.093e+04 1.128e-09
  4.62167    219.7 1.079e+04 1.030e-09
  4.66096    221.9 1.055e+04 1.018e-09
  4.70025    224.2 1.052e+04 1.022e-09
  4.73954    226.6 1.048e+04 1.036e-09
  4.77883    229.0 1.042e+04 1.070e-09
  4.81812    231.4 1.036e+04 1.110e-09
  4.85741    233.8 1.029e+04 1.144e-09
  4.89670    236.3 1.021e+04 1.164e-09
  4.92632    238.7 1.013e+04 1.175e-09
  4.94597    238.0 1.007e+04 1.090e-09
  4.97527    240.4 9.962e+03 1.033e-09
  5.01456    242.8 9.885e+03 1.024e-09
  5.05251    245.1 9.873e+03 1.031e-09
  5.07216    245.4 1.000e+04 1.315e-09
  5.09314    247.5 9.986e+03 1.365e-09
  5.13243    249.6 9.956e+03 1.432e-09
  5.17172    251.6 9.929e+03 1.528e-09
  5.21101    253.6 9.937e+03 1.674e-09
  5.25030    255.4 9.991e+03 1.894e-09
  5.28959    256.8 1.006e+04 2.192e-09
  5.32221    257.6 1.007e+04 2.507e-09
  5.34186    258.1 9.971e+03 2.487e-09
  5.36817    258.8 9.970e+03 2.814e-09
  5.39754    260.9 1.008e+04 3.499e-09
  5.41709    262.3 1.033e+04 4.511e-09
  5.43673    263.1 1.064e+04 5.786e-09
  5.45638    263.5 1.093e+04 7.142e-09
  5.47602    263.7 1.117e+04 8.507e-09
  5.49567    263.8 1.137e+04 9.792e-09
  5.51013    263.9 1.152e+04 1.048e-08
  5.51995    263.7 1.133e+04 9.615e-09
  5.52979    263.8 1.134e+04 9.638e-09
  5.53961    263.8 1.132e+04 9.664e-09
  5.55460    263.9 1.131e+04 9.623e-09
  5.57424    264.0 1.126e+04 9.404e-09
  5.59389    264.2 1.117e+04 8.922e-09
  5.61353    264.4 1.103e+04 8.288e-09
  5.63318    264.7 1.086e+04 7.604e-09
  5.65282    265.2 1.070e+04 6.837e-09
  5.67247    265.6 1.053e+04 6.049e-09
  5.69211    266.2 1.038e+04 5.302e-09
  5.71176    266.7 1.025e+04 4.623e-09
  5.72774    267.1 1.011e+04 4.029e-09
  5.73756    266.6 9.986e+03 3.339e-09
  5.75105    266.8 9.826e+03 2.965e-09
  5.77069    267.1 9.590e+03 2.853e-09
  5.79034    267.5 9.478e+03 2.858e-09
  5.80998    268.1 9.464e+03 2.866e-09
  5.82963    268.9 9.442e+03 2.955e-09
  5.84927    269.7 9.458e+03 3.233e-09
  5.86892    270.3 9.558e+03 3.696e-09
  5.88856    270.7 9.692e+03 4.305e-09
  5.90821    270.7 9.809e+03 5.031e-09
  5.92568    270.7 9.969e+03 6.027e-09
  5.93551    270.7 1.005e+04 6.054e-09
  5.94749    270.1 1.076e+04 8.732e-09
  5.95812    268.6 1.204e+04 1.470e-08
  5.96795    269.8 1.177e+04 1.333e-08
  5.98678    267.8 1.322e+04 2.325e-08
  6.00643    265.2 1.458e+04 3.922e-08
  6.02607    261.9 1.557e+04 5.281e-08
  6.04572    257.9 1.582e+04 5.373e-08
  6.06536    253.7 1.571e+04 5.034e-08
  6.08501    250.0 1.499e+04 3.842e-08
  6.10465    246.8 1.368e+04 2.578e-08
  6.12363    243.9 1.212e+04 1.758e-08
  6.13345    242.7 1.186e+04 1.570e-08
  6.14394    240.3 1.137e+04 1.192e-08
  6.16359    238.7 1.141e+04 1.110e-08
  6.18323    237.5 1.142e+04 1.080e-08
  6.20288    236.3 1.142e+04 1.047e-08
  6.22252    234.7 1.141e+04 9.684e-09
  6.24217    232.7 1.131e+04 8.478e-09
  6.26181    230.3 1.113e+04 6.896e-09
  6.28146    228.1 1.085e+04 5.713e-09
  6.30110    226.0 1.044e+04 4.380e-09
  6.32075    224.3 1.005e+04 3.473e-09
  6.33140    222.8 9.625e+03 2.828e-09
  6.34122    221.8 9.697e+03 2.984e-09
  6.36003    220.8 9.360e+03 2.716e-09
  6.37968    220.0 9.172e+03 2.705e-09
  6.39629    219.5 9.180e+03 2.708e-09
  6.40612    218.4 9.037e+03 2.985e-09
  6.41897    217.9 9.037e+03 2.987e-09
  6.43861    217.6 9.023e+03 3.019e-09
  6.45826    217.2 8.980e+03 3.075e-09
  6.47790    216.8 8.935e+03 3.101e-09
  6.49755    216.6 8.856e+03 3.104e-09
  6.51719    216.6 8.736e+03 3.071e-09
  6.52935    216.6 8.630e+03 2.996e-09
  6.53917    216.6 8.602e+03 2.976e-09
  6.55648    216.6 8.523e+03 2.876e-09
  6.57613    216.7 8.491e+03 2.840e-09
  6.59577    216.8 8.494e+03 2.846e-09
  6.61542    217.0 8.529e+03 2.894e-09
  6.63506    217.1 8.630e+03 3.052e-09
  6.65471    217.2 8.802e+03 3.346e-09
  6.67435    217.4 9.027e+03 3.786e-09
  6.69400    217.6 9.289e+03 4.365e-09
  6.71364    217.8 9.566e+03 5.060e-09
  6.72729    218.1 9.844e+03 5.831e-09
  6.73712    218.5 9.817e+03 5.767e-09
  6.75293    218.9 1.008e+04 6.561e-09
  6.77257    219.3 1.032e+04 7.345e-09
  6.79222    219.6 1.054e+04 8.103e-09
  6.81186    219.9 1.077e+04 8.919e-09
  6.83151    220.0 1.109e+04 9.970e-09
  6.84429    220.0 1.159e+04 1.168e-08
  6.85411    218.8 1.312e+04 1.730e-08
  6.87080    218.7 1.416e+04 2.308e-08
  6.89044    218.6 1.507e+04 3.020e-08
  6.91009    218.7 1.574e+04 3.649e-08
  6.92524    219.0 1.607e+04 3.922e-08
  6.93506    221.1 1.658e+04 4.468e-08
  6.94938    222.1 1.657e+04 4.164e-08
  6.96902    223.3 1.618e+04 3.556e-08
  6.98867    225.0 1.566e+04 2.861e-08
  7.00831    227.0 1.502e+04 2.175e-08
  7.02796    229.4 1.423e+04 1.642e-08
  7.04760    232.1 1.355e+04 1.284e-08
  7.06725    235.5 1.345e+04 1.133e-08
  7.08689    239.7 1.412e+04 1.156e-08
  7.10654    241.9 1.774e+04 1.234e-08
  7.12122    244.0 1.871e+04 1.184e-08
  7.12800    247.1 1.896e+04 1.175e-08
  7.13291    252.8 1.835e+04 9.353e-09
  7.14082    254.2 1.913e+04 9.657e-09
  7.15064    253.1 2.297e+04 1.111e-08
  7.16046    239.5 3.281e+04 5.298e-08
  7.17028    199.1 2.325e+04 2.208e-06
  7.18011    158.5 2.410e+04 4.489e-06
  7.18993    127.2 2.913e+04 1.304e-06
  7.19975     93.7 6.165e+04 2.315e-08
  7.20957     51.0 9.334e+04 7.398e-10
  7.22436     13.5 1.952e+04 6.669e-09
  7.24405     -0.6 1.320e+04 6.294e-09
  7.26369     -8.4 1.230e+04 5.286e-09
  7.28246    -12.4 1.149e+04 4.899e-09
  7.29228    -14.8 1.165e+04 5.420e-09
  7.30298    -15.1 1.129e+04 5.042e-09
  7.32113    -15.4 1.129e+04 5.209e-09
  7.33096    -22.5 1.170e+04 5.050e-09
  7.34227    -18.1 1.110e+04 4.416e-09
  7.37184    -16.2 1.041e+04 4.131e-09
  7.41123    -10.4 9.613e+03 3.712e-09
  7.45051     -4.2 9.374e+03 3.714e-09
  7.48980      1.1 9.285e+03 4.041e-09
  7.52909      5.9 9.280e+03 4.220e-09
  7.56838     10.6 9.164e+03 4.053e-09
  7.60767     15.0 8.917e+03 3.344e-09
  7.64696     18.9 8.681e+03 2.402e-09
  7.68625     22.0 8.526e+03 1.654e-09
  7.71722     24.8 8.287e+03 1.456e-09
  7.73215     24.6 8.465e+03 1.949e-09
  7.74047     25.0 8.135e+03 1.624e-09
  7.76483     28.2 8.101e+03 1.616e-09
  7.80412     31.3 8.128e+03 1.672e-09
  7.84341     34.0 8.284e+03 1.902e-09
  7.88270     36.4 8.574e+03 2.414e-09
  7.92199     38.3 8.960e+03 3.292e-09
  7.96128     40.3 9.564e+03 4.792e-09
  7.99065     40.1 1.024e+04 6.801e-09
  8.01020     40.6 1.039e+04 7.611e-09
  8.02984     40.2 1.076e+04 8.827e-09
  8.04948     40.5 1.096e+04 9.835e-09
  8.06913     40.9 1.123e+04 1.100e-08
  8.08877     41.2 1.134e+04 1.165e-08
  8.10842     41.6 1.127e+04 1.150e-08
  8.12274     41.9 1.110e+04 1.108e-08
  8.13257     42.0 1.101e+04 1.094e-08
  8.14771     42.2 1.101e+04 1.097e-08
  8.16735     42.3 1.109e+04 1.137e-08
  8.17844     42.6 1.117e+04 1.182e-08
  8.18826     42.8 1.055e+04 8.710e-09
  8.20664     43.2 1.050e+04 8.997e-09
  8.22629     43.6 1.049e+04 9.054e-09
  8.24593     43.9 1.059e+04 9.209e-09
  8.26558     43.8 1.093e+04 9.695e-09
  8.28522     42.9 1.206e+04 1.175e-08
  8.30487     41.3 1.344e+04 1.760e-08
  8.32069     39.9 1.446e+04 3.280e-08
  8.33051     40.6 1.401e+04 2.531e-08
  8.34416     39.3 1.469e+04 4.007e-08
  8.35884     38.3 1.502e+04 5.159e-08
  8.36861     38.0 1.529e+04 5.776e-08
  8.37844     37.0 1.622e+04 6.392e-08
  8.38826     35.7 1.709e+04 6.871e-08
  8.39743     32.4 1.793e+04 6.816e-08
  8.40234     33.9 1.842e+04 8.884e-08
  8.40790     31.7 1.828e+04 8.307e-08
  8.42269     27.7 1.727e+04 6.315e-08
  8.44238     23.5 1.568e+04 4.091e-08
  8.46202     19.0 1.428e+04 2.422e-08
  8.48167     15.0 1.310e+04 1.767e-08
  8.50131     14.1 1.278e+04 1.755e-08
  8.51864     14.4 1.254e+04 1.767e-08
  8.52846     14.6 1.258e+04 1.787e-08
  8.54060     15.2 1.234e+04 1.687e-08
  8.56025     15.8 1.221e+04 1.591e-08
  8.57989     16.2 1.212e+04 1.504e-08
  8.59954     17.0 1.200e+04 1.444e-08
  8.61661     17.5 1.217e+04 1.460e-08
  8.63635     17.0 1.249e+04 1.425e-08
  8.66849     18.2 1.227e+04 1.175e-08
  8.70778     19.5 1.203e+04 9.548e-09
  8.73715     19.9 1.175e+04 7.036e-09
  8.75670     20.4 1.178e+04 6.925e-09
  8.77634     20.8 1.202e+04 7.495e-09
  8.79599     20.9 1.224e+04 7.868e-09
  8.81563     21.0 1.262e+04 8.396e-09
  8.83528     20.8 1.291e+04 8.694e-09
  8.85492     19.2 1.331e+04 1.007e-08
  8.87456     18.6 1.330e+04 1.185e-08
  8.89421     17.7 1.341e+04 1.652e-08
  8.91385     18.8 1.273e+04 1.594e-08
  8.92435     18.6 1.289e+04 1.570e-08
  8.93418     19.5 1.286e+04 1.486e-08
  8.95314     20.3 1.286e+04 1.413e-08
  8.97279     19.3 1.343e+04 1.483e-08
  8.99243     20.3 1.321e+04 1.418e-08
  9.02200     20.8 1.289e+04 1.177e-08
  9.06139     20.6 1.229e+04 8.843e-09
  9.10067     21.0 1.169e+04 6.266e-09
  9.13996     21.5 1.131e+04 4.645e-09
  9.17925     22.2 1.122e+04 3.812e-09
  9.21854     22.8 1.128e+04 3.608e-09
  9.25783     23.4 1.108e+04 3.471e-09
  9.29712     24.1 1.074e+04 3.044e-09
  9.32044     25.2 1.033e+04 2.451e-09
  9.34009     27.1 1.074e+04 3.347e-09
  9.37570     28.1 1.031e+04 2.071e-09
  9.41499     28.8 1.004e+04 1.445e-09
  9.45428     29.8 9.841e+03 1.351e-09
  9.49315     30.9 9.828e+03 1.373e-09
  9.51279     31.6 9.874e+03 1.294e-09
  9.53286     32.5 9.848e+03 1.505e-09
  9.57215     32.8 9.880e+03 1.805e-09
  9.61144     32.8 9.824e+03 2.031e-09
  9.65073     32.6 9.702e+03 2.175e-09
  9.69002     30.5 1.012e+04 2.787e-09
  9.71624     29.9 1.035e+04 3.376e-09
  9.72596     30.9 1.014e+04 2.825e-09
  9.73893     30.6 9.719e+03 2.628e-09
  9.75858     30.0 9.636e+03 2.769e-09
  9.77822     31.5 9.512e+03 3.059e-09
  9.80779     30.5 9.818e+03 4.108e-09
  9.83726     26.9 1.070e+04 6.442e-09
  9.85680     29.9 1.025e+04 6.365e-09
  9.88637     27.7 1.118e+04 9.605e-09
  9.92576     25.8 1.144e+04 1.119e-08
  9.96504     24.4 1.105e+04 9.458e-09
 10.00433     23.5 1.034e+04 6.728e-09
 10.04362     23.1 9.848e+03 5.280e-09
 10.08291     23.3 9.541e+03 4.719e-09
 10.11223     24.2 9.187e+03 3.969e-09
 10.13188     25.2 9.567e+03 5.200e-09
 10.16149     26.3 9.330e+03 4.318e-09
 10.20078     26.4 9.087e+03 3.298e-09
 10.24007     26.1 8.944e+03 2.979e-09
 10.27936     26.0 8.912e+03 3.071e-09
 10.31865     26.0 8.887e+03 3.362e-09
 10.35794     26.2 8.820e+03 3.385e-09
 10.38913     25.9 8.770e+03 3.111e-09
 10.40878     25.1 8.721e+03 2.893e-09
 10.42660     22.2 9.031e+03 3.221e-09
 10.44615     23.9 8.807e+03 3.070e-09
 10.47571     22.9 9.140e+03 3.707e-09
 10.50813     20.3 1.071e+04 8.950e-09
 10.52777     19.3 1.109e+04 1.161e-08
 10.55439     17.6 1.156e+04 1.423e-08
 10.59368     16.3 1.145e+04 1.326e-08
 10.63297     14.1 1.077e+04 9.981e-09
 10.67226     13.1 9.583e+03 6.117e-09
 10.71155     12.8 8.639e+03 3.287e-09
 10.75084     12.0 8.335e+03 2.293e-09
 10.79012     11.4 8.482e+03 2.487e-09
 10.82941     11.1 8.843e+03 3.283e-09
 10.86870     10.8 9.161e+03 3.611e-09
 10.90402      9.1 9.945e+03 4.363e-09
 10.92366      5.8 1.110e+04 7.763e-09
 10.94728      3.3 1.180e+04 1.376e-08
 10.98657      1.8 1.215e+04 1.659e-08
 11.01594      0.1 1.123e+04 1.041e-08
 11.03549     -0.1 1.021e+04 5.962e-09
 11.05513     -1.8 1.079e+04 8.357e-09
 11.07478     -2.0 1.131e+04 9.715e-09
 11.09442     -2.4 1.135e+04 1.127e-08
 11.11159     -2.2 1.128e+04 1.220e-08
 11.12142     -3.6 1.123e+04 1.063e-08
 11.13371     -4.6 1.174e+04 9.676e-09
