# Columns:
#   distance along LOS (in CHIMPs)
#   peculiar velocity  (in km/s)
#   temperature (K)
#   HI number density
# pos=(76.2977,106.546,54.4394), angles=(0.231013,4.74678)
  0.00506   -107.4 9.407e+03 2.904e-09
  0.02084   -105.3 9.317e+03 2.535e-09
  0.04091   -105.4 9.282e+03 2.648e-09
  0.07031   -103.4 9.348e+03 2.522e-09
  0.11044   -101.5 9.410e+03 2.446e-09
  0.15057    -99.8 9.453e+03 2.442e-09
  0.18645    -98.3 9.597e+03 2.449e-09
  0.20652    -98.8 9.988e+03 3.902e-09
  0.23082    -98.3 1.029e+04 4.331e-09
  0.27095    -98.4 1.079e+04 5.599e-09
  0.31108    -99.4 1.154e+04 8.789e-09
  0.34108   -100.6 1.216e+04 1.336e-08
  0.36105   -101.2 1.253e+04 1.672e-08
  0.37193   -101.8 1.285e+04 1.993e-08
  0.38197   -102.6 1.300e+04 2.106e-08
  0.40117   -103.4 1.307e+04 2.135e-08
  0.42124   -104.1 1.306e+04 1.985e-08
  0.44130   -105.0 1.296e+04 1.684e-08
  0.45474   -106.0 1.282e+04 1.379e-08
  0.46477   -106.8 1.242e+04 1.049e-08
  0.48143   -107.8 1.227e+04 8.708e-09
  0.50150   -108.6 1.217e+04 7.518e-09
  0.52156   -109.2 1.216e+04 6.803e-09
  0.53754   -109.7 1.218e+04 6.589e-09
  0.54758   -109.9 1.195e+04 5.968e-09
  0.56169   -110.2 1.197e+04 5.917e-09
  0.58175   -110.4 1.205e+04 5.906e-09
  0.60182   -110.6 1.221e+04 6.086e-09
  0.62035   -110.8 1.231e+04 6.419e-09
  0.63038   -110.8 1.225e+04 6.285e-09
  0.64195   -110.8 1.231e+04 6.615e-09
  0.66201   -110.9 1.236e+04 7.001e-09
  0.68207   -111.0 1.241e+04 7.381e-09
  0.70214   -111.1 1.244e+04 7.545e-09
  0.71319   -111.2 1.245e+04 7.552e-09
  0.72322   -111.3 1.246e+04 7.511e-09
  0.74227   -111.3 1.241e+04 7.240e-09
  0.76233   -111.3 1.237e+04 6.873e-09
  0.78240   -111.2 1.232e+04 6.453e-09
  0.79599   -111.1 1.226e+04 6.137e-09
  0.80602   -111.2 1.235e+04 6.150e-09
  0.82252   -111.1 1.226e+04 5.913e-09
  0.84259   -111.0 1.222e+04 5.859e-09
  0.86265   -111.0 1.223e+04 5.942e-09
  0.87880   -111.3 1.236e+04 6.256e-09
  0.88883   -111.4 1.250e+04 6.226e-09
  0.90278   -111.8 1.251e+04 6.582e-09
  0.92285   -112.2 1.255e+04 6.861e-09
  0.94291   -112.6 1.262e+04 7.074e-09
  0.96160   -112.9 1.269e+04 7.213e-09
  0.97163   -113.2 1.277e+04 7.594e-09
  0.98304   -113.4 1.278e+04 7.619e-09
  1.00310   -113.6 1.277e+04 7.408e-09
  1.02317   -113.9 1.273e+04 7.057e-09
  1.04323   -114.2 1.270e+04 6.855e-09
  1.05444   -114.5 1.258e+04 6.562e-09
  1.06447   -114.4 1.267e+04 6.919e-09
  1.08336   -114.6 1.251e+04 6.373e-09
  1.10342   -115.0 1.233e+04 5.833e-09
  1.12349   -115.2 1.216e+04 5.386e-09
  1.13724   -115.5 1.197e+04 4.978e-09
  1.14728   -115.3 1.224e+04 5.649e-09
  1.16362   -115.6 1.209e+04 5.530e-09
  1.18368   -116.0 1.204e+04 5.497e-09
  1.20375   -116.4 1.204e+04 5.572e-09
  1.22005   -116.9 1.202e+04 5.841e-09
  1.23008   -116.9 1.224e+04 7.684e-09
  1.24387   -117.5 1.218e+04 8.032e-09
  1.26394   -118.1 1.210e+04 8.326e-09
  1.28400   -118.6 1.197e+04 8.587e-09
  1.30285   -118.9 1.184e+04 8.729e-09
  1.31289   -119.2 1.196e+04 1.047e-08
  1.32413   -119.3 1.173e+04 1.002e-08
  1.34420   -119.4 1.152e+04 9.408e-09
  1.36426   -119.5 1.132e+04 8.507e-09
  1.38432   -119.4 1.110e+04 7.337e-09
  1.39569   -119.1 1.085e+04 6.076e-09
  1.40572   -119.2 1.075e+04 5.886e-09
  1.42445   -118.7 1.047e+04 4.645e-09
  1.44452   -118.0 1.020e+04 3.646e-09
  1.47471   -117.2 9.952e+03 2.849e-09
  1.51494   -116.2 9.723e+03 2.447e-09
  1.55146   -114.5 9.590e+03 2.299e-09
  1.57153   -113.9 9.601e+03 2.203e-09
  1.59519   -112.9 9.648e+03 2.452e-09
  1.63532   -112.5 9.708e+03 3.084e-09
  1.67545   -112.3 9.724e+03 3.642e-09
  1.71558   -112.3 9.723e+03 3.853e-09
  1.73714   -112.2 9.630e+03 3.813e-09
  1.75720   -112.5 9.818e+03 4.788e-09
  1.79584   -112.2 9.391e+03 3.366e-09
  1.83596   -111.6 9.011e+03 2.435e-09
  1.87609   -110.6 8.783e+03 2.026e-09
  1.90275   -109.4 8.726e+03 1.937e-09
  1.92281   -109.8 8.719e+03 1.918e-09
  1.95635   -108.9 8.743e+03 2.000e-09
  1.99648   -108.2 8.841e+03 2.336e-09
  2.03661   -107.8 8.924e+03 2.660e-09
  2.06836   -107.4 8.947e+03 2.766e-09
  2.08842   -108.2 8.959e+03 2.747e-09
  2.11686   -107.7 8.834e+03 2.573e-09
  2.15699   -107.0 8.610e+03 2.030e-09
  2.19712   -106.3 8.438e+03 1.581e-09
  2.23397   -105.7 8.377e+03 1.385e-09
  2.25403   -106.5 8.389e+03 1.371e-09
  2.27738   -105.7 8.390e+03 1.339e-09
  2.31751   -105.0 8.406e+03 1.337e-09
  2.35764   -104.2 8.451e+03 1.369e-09
  2.39776   -103.4 8.481e+03 1.427e-09
  2.41964   -102.8 8.524e+03 1.506e-09
  2.43971   -103.5 8.443e+03 1.407e-09
  2.47802   -102.9 8.474e+03 1.438e-09
  2.51815   -102.5 8.561e+03 1.497e-09
  2.55828   -102.4 8.678e+03 1.642e-09
  2.58525   -102.5 8.824e+03 1.982e-09
  2.60532   -102.6 8.694e+03 1.523e-09
  2.63854   -102.7 8.851e+03 1.955e-09
  2.67866   -102.6 9.089e+03 2.644e-09
  2.70866   -101.9 9.273e+03 3.061e-09
  2.72863   -101.8 9.333e+03 3.160e-09
  2.74869   -101.5 9.486e+03 3.415e-09
  2.76070   -101.5 9.539e+03 3.493e-09
  2.77083   -101.5 9.419e+03 3.002e-09
  2.79905   -100.9 9.510e+03 3.081e-09
  2.83918   -100.1 9.587e+03 3.007e-09
  2.87931    -98.9 9.652e+03 2.896e-09
  2.91648    -97.7 9.850e+03 2.957e-09
  2.93654    -97.6 9.775e+03 2.737e-09
  2.95956    -96.3 9.938e+03 3.113e-09
  2.98956    -94.8 1.003e+04 3.432e-09
  3.00912    -94.4 1.009e+04 3.595e-09
  3.01915    -94.3 9.988e+03 3.213e-09
  3.02959    -93.1 1.003e+04 3.249e-09
  3.04966    -92.6 1.003e+04 3.240e-09
  3.06972    -91.3 1.007e+04 3.126e-09
  3.08979    -90.7 1.009e+04 3.039e-09
  3.10195    -89.3 1.014e+04 2.921e-09
  3.12212    -89.0 1.008e+04 2.662e-09
  3.15008    -86.9 1.016e+04 2.542e-09
  3.17004    -86.3 1.022e+04 2.614e-09
  3.18476    -85.0 1.037e+04 2.760e-09
  3.19479    -84.8 1.028e+04 2.566e-09
  3.21017    -84.3 1.034e+04 2.656e-09
  3.23024    -83.0 1.050e+04 2.922e-09
  3.25030    -82.5 1.066e+04 3.427e-09
  3.26756    -81.6 1.083e+04 4.268e-09
  3.27760    -81.0 1.058e+04 3.147e-09
  3.29043    -80.5 1.068e+04 3.581e-09
  3.31049    -79.5 1.084e+04 4.401e-09
  3.33056    -78.6 1.097e+04 4.975e-09
  3.35037    -77.6 1.110e+04 5.353e-09
  3.36040    -77.2 1.083e+04 3.464e-09
  3.37069    -76.5 1.086e+04 3.494e-09
  3.39075    -75.3 1.091e+04 3.433e-09
  3.41081    -74.5 1.092e+04 3.340e-09
  3.43088    -73.2 1.093e+04 3.191e-09
  3.44321    -72.4 1.094e+04 3.060e-09
  3.45334    -72.7 1.071e+04 1.875e-09
  3.48123    -70.3 1.077e+04 1.796e-09
  3.52136    -67.7 1.075e+04 1.701e-09
  3.56149    -64.7 1.071e+04 1.626e-09
  3.59898    -61.8 1.068e+04 1.577e-09
  3.61904    -60.7 1.072e+04 1.057e-09
  3.64175    -57.8 1.074e+04 1.260e-09
  3.68188    -54.7 1.078e+04 1.327e-09
  3.72201    -51.7 1.091e+04 1.087e-09
  3.76213    -49.0 1.090e+04 7.403e-10
  3.78466    -46.7 1.061e+04 5.674e-10
  3.80472    -46.2 1.122e+04 1.676e-09
  3.84239    -44.5 1.123e+04 1.147e-09
  3.88252    -43.0 1.101e+04 1.535e-09
  3.92265    -41.1 1.121e+04 3.252e-09
  3.95027    -39.1 1.167e+04 6.912e-09
  3.96020    -40.2 1.211e+04 1.294e-08
  3.97261    -39.3 1.256e+04 1.793e-08
  3.99268    -38.4 1.294e+04 2.302e-08
  4.00910    -37.7 1.329e+04 2.699e-08
  4.01913    -37.7 1.332e+04 2.816e-08
  4.03281    -37.6 1.364e+04 3.091e-08
  4.05287    -39.5 1.347e+04 1.865e-08
  4.07293    -40.8 1.324e+04 1.951e-08
  4.09300    -41.4 1.310e+04 2.142e-08
  4.11306    -41.5 1.287e+04 2.151e-08
  4.12571    -41.5 1.242e+04 1.713e-08
  4.13574    -42.6 1.270e+04 1.917e-08
  4.15319    -42.8 1.250e+04 1.514e-08
  4.17326    -43.1 1.238e+04 1.211e-08
  4.19332    -43.5 1.232e+04 9.846e-09
  4.20852    -43.7 1.221e+04 8.170e-09
  4.21855    -45.0 1.325e+04 2.075e-08
  4.23345    -44.8 1.293e+04 1.811e-08
  4.25351    -44.3 1.261e+04 1.602e-08
  4.27358    -43.5 1.232e+04 1.472e-08
  4.29132    -42.4 1.220e+04 1.446e-08
  4.30135    -43.0 1.283e+04 2.215e-08
  4.31371    -41.8 1.285e+04 2.227e-08
  4.33377    -40.8 1.276e+04 2.179e-08
  4.35383    -39.4 1.267e+04 2.118e-08
  4.37390    -38.1 1.270e+04 2.127e-08
  4.38416    -37.1 1.261e+04 2.095e-08
  4.39419    -37.4 1.262e+04 2.072e-08
  4.41403    -35.9 1.235e+04 1.846e-08
  4.43409    -34.6 1.226e+04 1.711e-08
  4.45416    -33.3 1.213e+04 1.484e-08
  4.46697    -32.2 1.182e+04 1.209e-08
  4.47700    -32.6 1.156e+04 9.144e-09
  4.49428    -31.7 1.138e+04 8.048e-09
  4.51435    -30.8 1.130e+04 7.426e-09
  4.53441    -30.0 1.107e+04 6.594e-09
  4.54977    -29.1 1.092e+04 6.208e-09
  4.55980    -29.1 1.090e+04 5.908e-09
  4.57454    -28.2 1.079e+04 5.699e-09
  4.59460    -27.3 1.065e+04 5.391e-09
  4.61467    -26.5 1.055e+04 5.148e-09
  4.63258    -25.6 1.037e+04 4.767e-09
  4.64261    -25.4 1.031e+04 4.714e-09
  4.65480    -24.5 1.021e+04 4.273e-09
  4.67486    -23.6 1.002e+04 3.531e-09
  4.69493    -23.1 9.800e+03 3.144e-09
  4.71499    -22.4 9.659e+03 2.805e-09
  4.72541    -22.0 9.582e+03 2.740e-09
  4.73544    -21.6 9.449e+03 2.457e-09
  4.75512    -20.6 9.348e+03 2.144e-09
  4.77518    -20.3 9.335e+03 2.141e-09
  4.79525    -19.0 9.220e+03 2.150e-09
  4.80822    -18.8 9.237e+03 2.142e-09
  4.81835    -18.3 9.024e+03 1.696e-09
  4.84560    -16.5 8.983e+03 1.620e-09
  4.88573    -14.8 9.107e+03 1.785e-09
  4.92586    -13.1 9.234e+03 2.184e-09
  4.96399    -11.0 9.278e+03 2.618e-09
  4.98406     -8.8 8.868e+03 1.770e-09
  5.00612     -6.6 9.047e+03 2.118e-09
  5.03612     -5.4 9.098e+03 2.420e-09
  5.05608     -5.2 9.334e+03 2.745e-09
  5.06667     -5.4 9.580e+03 3.687e-09
  5.07670     -3.6 9.337e+03 2.925e-09
  5.09621     -3.7 9.589e+03 3.879e-09
  5.11628     -4.9 1.064e+04 6.636e-09
  5.13634     -6.3 1.173e+04 1.287e-08
  5.14947     -6.4 1.234e+04 2.412e-08
  5.15950     -4.7 1.197e+04 1.779e-08
  5.17647     -4.4 1.277e+04 2.871e-08
  5.19653     -4.6 1.292e+04 3.046e-08
  5.21660     -4.0 1.240e+04 2.359e-08
  5.23228     -4.4 1.188e+04 1.409e-08
  5.24231     -2.7 1.216e+04 1.844e-08
  5.25673     -3.7 1.135e+04 1.034e-08
  5.27679     -5.2 1.056e+04 5.802e-09
  5.29685     -7.0 1.002e+04 4.534e-09
  5.31508     -7.6 1.015e+04 4.617e-09
  5.32511     -6.6 9.680e+03 3.788e-09
  5.33698     -7.4 9.939e+03 4.187e-09
  5.35705     -7.8 1.021e+04 5.391e-09
  5.37711     -7.8 1.056e+04 7.638e-09
  5.39718     -8.1 1.122e+04 1.070e-08
  5.40792     -9.4 1.278e+04 1.646e-08
  5.41795     -7.9 1.154e+04 1.185e-08
  5.43730     -9.1 1.315e+04 1.892e-08
  5.45737    -10.1 1.390e+04 3.322e-08
  5.47743     -9.7 1.408e+04 4.875e-08
  5.49072     -9.1 1.400e+04 5.172e-08
  5.50076     -8.6 1.392e+04 4.493e-08
  5.51756     -8.2 1.421e+04 5.361e-08
  5.53763     -8.5 1.441e+04 5.639e-08
  5.55769     -9.4 1.480e+04 5.142e-08
  5.57353    -11.0 1.511e+04 3.978e-08
  5.58356     -9.9 1.574e+04 8.316e-08
  5.59782    -11.1 1.583e+04 6.024e-08
  5.61788    -13.0 1.446e+04 3.456e-08
  5.63795    -14.8 1.225e+04 2.176e-08
  5.65633    -15.4 1.146e+04 1.636e-08
  5.66637    -15.4 1.135e+04 1.496e-08
  5.67807    -15.4 1.101e+04 1.183e-08
  5.69814    -15.0 1.077e+04 9.349e-09
  5.72833    -14.6 1.059e+04 7.755e-09
  5.76856    -13.8 1.018e+04 5.272e-09
  5.80869    -13.4 1.034e+04 5.232e-09
  5.83217    -13.1 1.080e+04 7.387e-09
  5.85224    -11.7 1.062e+04 6.549e-09
  5.88894    -11.1 1.093e+04 8.388e-09
  5.92907    -10.6 1.121e+04 9.348e-09
  5.96920    -10.4 1.104e+04 7.571e-09
  5.99778    -11.1 1.078e+04 4.388e-09
  6.01785     -9.1 1.163e+04 8.861e-09
  6.03933    -13.0 1.172e+04 3.593e-09
  6.05930    -15.9 1.174e+04 2.904e-09
  6.07936    -18.9 1.255e+04 3.496e-09
  6.09042    -23.6 1.432e+04 7.081e-09
  6.10046    -21.8 1.329e+04 5.825e-09
  6.11949    -25.9 1.542e+04 1.304e-08
  6.13955    -29.5 1.532e+04 3.395e-08
  6.15962    -31.0 1.496e+04 7.717e-08
  6.17323    -30.9 1.531e+04 1.265e-07
  6.18326    -32.6 1.500e+04 9.977e-08
  6.19975    -32.4 1.513e+04 1.099e-07
  6.21981    -33.2 1.470e+04 9.163e-08
  6.23987    -34.1 1.415e+04 6.173e-08
  6.25603    -35.0 1.384e+04 4.502e-08
  6.26607    -37.2 1.319e+04 2.635e-08
  6.28000    -37.9 1.276e+04 2.287e-08
  6.30007    -38.1 1.241e+04 2.064e-08
  6.32013    -38.0 1.209e+04 1.877e-08
  6.33884    -37.7 1.186e+04 1.718e-08
  6.34887    -38.7 1.158e+04 1.221e-08
  6.36026    -38.1 1.150e+04 1.051e-08
  6.38032    -37.5 1.138e+04 8.759e-09
  6.40039    -37.1 1.117e+04 7.011e-09
  6.42045    -36.6 1.088e+04 5.579e-09
  6.43168    -35.9 1.067e+04 4.664e-09
  6.44171    -36.9 1.037e+04 3.891e-09
  6.46058    -36.0 1.040e+04 3.731e-09
  6.48065    -35.2 1.050e+04 3.648e-09
  6.49345    -34.4 1.042e+04 3.493e-09
  6.50349    -34.5 1.040e+04 3.607e-09
  6.51448    -33.1 1.080e+04 3.765e-09
  6.52451    -35.5 1.138e+04 4.366e-09
  6.54084    -36.8 1.243e+04 8.562e-09
  6.56090    -38.2 1.335e+04 1.806e-08
  6.58097    -38.1 1.420e+04 4.200e-08
  6.59729    -37.3 1.501e+04 7.595e-08
  6.60732    -36.8 1.599e+04 1.248e-07
  6.62110    -35.5 1.616e+04 1.292e-07
  6.64116    -34.6 1.617e+04 1.157e-07
  6.66122    -34.1 1.550e+04 7.637e-08
  6.68009    -34.2 1.441e+04 4.515e-08
  6.69012    -36.9 1.217e+04 1.319e-08
  6.70135    -36.6 1.166e+04 1.143e-08
  6.72142    -35.4 1.162e+04 1.157e-08
  6.74148    -34.0 1.176e+04 1.253e-08
  6.76154    -32.6 1.186e+04 1.291e-08
  6.77293    -31.2 1.203e+04 1.327e-08
  6.78296    -31.9 1.160e+04 8.950e-09
  6.80167    -31.1 1.207e+04 1.171e-08
  6.82174    -30.4 1.247e+04 1.741e-08
  6.84180    -29.4 1.291e+04 2.587e-08
  6.85573    -28.0 1.331e+04 3.617e-08
  6.86577    -28.1 1.240e+04 1.877e-08
  6.88193    -26.4 1.263e+04 2.138e-08
  6.90199    -25.0 1.254e+04 2.089e-08
  6.92206    -23.5 1.224e+04 1.670e-08
  6.93854    -22.6 1.195e+04 1.160e-08
  6.94857    -24.4 1.137e+04 5.936e-09
  6.96219    -24.1 1.110e+04 4.622e-09
  6.98225    -24.1 1.086e+04 4.028e-09
  7.00232    -24.0 1.076e+04 3.919e-09
  7.02134    -23.8 1.068e+04 4.513e-09
  7.03138    -24.8 1.076e+04 4.216e-09
  7.04244    -24.3 1.073e+04 5.555e-09
  7.06251    -23.9 1.092e+04 7.129e-09
  7.08257    -23.7 1.147e+04 9.501e-09
  7.10264    -24.4 1.200e+04 1.247e-08
  7.11418    -24.9 1.274e+04 1.947e-08
  7.12421    -24.7 1.221e+04 1.589e-08
  7.14277    -24.8 1.267e+04 1.887e-08
  7.16283    -25.1 1.298e+04 2.243e-08
  7.18289    -25.5 1.304e+04 2.583e-08
  7.19699    -25.5 1.315e+04 2.938e-08
  7.20702    -25.5 1.265e+04 2.050e-08
  7.22302    -25.6 1.296e+04 2.611e-08
  7.24309    -25.2 1.327e+04 3.249e-08
  7.26315    -24.1 1.340e+04 3.592e-08
  7.27979    -22.9 1.337e+04 3.640e-08
  7.28982    -22.3 1.343e+04 3.760e-08
  7.30328    -21.0 1.315e+04 3.206e-08
  7.32334    -20.0 1.294e+04 2.380e-08
  7.34341    -19.7 1.249e+04 1.787e-08
  7.36260    -19.2 1.228e+04 1.628e-08
  7.37263    -18.7 1.232e+04 1.548e-08
  7.38354    -18.0 1.225e+04 1.488e-08
  7.40360    -17.0 1.218e+04 1.481e-08
  7.42367    -16.1 1.233e+04 1.573e-08
  7.44373    -14.8 1.237e+04 1.755e-08
  7.45543    -13.9 1.242e+04 1.668e-08
  7.46547    -14.1 1.242e+04 1.610e-08
  7.48386    -13.0 1.245e+04 1.709e-08
  7.50392    -12.0 1.259e+04 1.816e-08
  7.52399    -11.2 1.281e+04 1.847e-08
  7.53824    -10.8 1.303e+04 2.136e-08
  7.54827    -11.7 1.339e+04 2.413e-08
  7.56412    -11.1 1.350e+04 2.926e-08
  7.58418     -9.8 1.353e+04 3.441e-08
  7.60424     -9.0 1.355e+04 3.465e-08
  7.62104     -7.9 1.352e+04 3.163e-08
  7.63108     -8.7 1.392e+04 3.715e-08
  7.64437     -8.2 1.374e+04 3.311e-08
  7.66444     -8.3 1.377e+04 2.812e-08
  7.68450     -8.6 1.379e+04 3.073e-08
  7.70385     -8.1 1.364e+04 3.427e-08
  7.71388     -8.0 1.329e+04 2.807e-08
  7.72463     -6.8 1.324e+04 2.595e-08
  7.74469     -5.4 1.309e+04 2.045e-08
  7.76476     -4.3 1.304e+04 1.425e-08
  7.78482     -3.6 1.282e+04 9.845e-09
  7.79669     -2.7 1.253e+04 6.328e-09
  7.80672     -3.2 1.201e+04 4.589e-09
  7.82495     -2.3 1.193e+04 3.680e-09
  7.84501     -1.4 1.196e+04 3.070e-09
  7.86508     -0.6 1.190e+04 2.849e-09
  7.87949      1.0 1.170e+04 2.538e-09
  7.88952      1.4 1.164e+04 2.448e-09
  7.90521      2.1 1.176e+04 2.491e-09
  7.92527      4.0 1.174e+04 2.455e-09
  7.94534      4.7 1.187e+04 2.512e-09
  7.96230      6.6 1.179e+04 2.611e-09
  7.97233      7.0 1.170e+04 2.475e-09
  7.98546      7.5 1.181e+04 2.596e-09
  8.00553      9.4 1.182e+04 2.864e-09
  8.02559     10.1 1.191e+04 3.059e-09
  8.04510     11.7 1.187e+04 3.349e-09
  8.06526     12.8 1.183e+04 2.893e-09
  8.08588     14.3 1.184e+04 3.324e-09
  8.10585     15.4 1.186e+04 3.704e-09
  8.12591     16.5 1.187e+04 4.259e-09
  8.13794     17.5 1.193e+04 4.886e-09
  8.14797     18.0 1.181e+04 4.146e-09
  8.16604     19.1 1.182e+04 4.814e-09
  8.18611     20.2 1.187e+04 5.290e-09
  8.20617     21.2 1.187e+04 5.703e-09
  8.22074     21.7 1.188e+04 5.944e-09
  8.23078     22.5 1.180e+04 5.406e-09
  8.25643     24.0 1.185e+04 6.190e-09
  8.29666     25.5 1.191e+04 8.151e-09
  8.33678     26.9 1.196e+04 9.071e-09
  8.37652     28.2 1.185e+04 8.533e-09
  8.39658     29.9 1.180e+04 8.266e-09
  8.41704     31.4 1.165e+04 7.311e-09
  8.45717     32.9 1.138e+04 5.516e-09
  8.49730     34.4 1.112e+04 4.485e-09
  8.53743     36.1 1.097e+04 4.389e-09
  8.56219     37.9 1.092e+04 4.341e-09
  8.58226     39.4 1.095e+04 4.393e-09
  8.61768     41.3 1.080e+04 4.117e-09
  8.65781     43.4 1.065e+04 3.340e-09
  8.69794     45.5 1.051e+04 2.365e-09
  8.72780     47.5 1.035e+04 1.690e-09
  8.74787     48.7 1.054e+04 2.959e-09
  8.77820     50.8 1.038e+04 2.375e-09
  8.81833     53.1 1.023e+04 2.072e-09
  8.85846     55.4 1.013e+04 1.893e-09
  8.89341     57.9 1.005e+04 1.678e-09
  8.91348     58.1 1.021e+04 2.154e-09
  8.93871     60.5 1.015e+04 1.830e-09
  8.96797     62.8 1.012e+04 1.526e-09
  8.98803     63.7 1.000e+04 1.893e-09
  9.01897     66.1 9.983e+03 1.911e-09
  9.05902     68.3 9.980e+03 2.077e-09
  9.09915     70.1 1.095e+04 8.194e-09
  9.13935     72.5 1.133e+04 1.087e-08
  9.17948     75.2 1.188e+04 1.402e-08
  9.20948     75.7 1.229e+04 1.600e-08
  9.22945     76.1 1.239e+04 1.693e-08
  9.24450     76.4 1.238e+04 1.683e-08
  9.25453     75.3 1.221e+04 1.665e-08
  9.26958     75.6 1.207e+04 1.556e-08
  9.28964     75.8 1.194e+04 1.430e-08
  9.30971     76.0 1.178e+04 1.300e-08
  9.32731     76.1 1.156e+04 1.167e-08
  9.33734     75.0 1.153e+04 1.216e-08
  9.34983     75.3 1.128e+04 1.144e-08
  9.36990     75.8 1.104e+04 1.061e-08
  9.38996     76.4 1.081e+04 9.697e-09
  9.41003     77.0 1.063e+04 8.832e-09
  9.43009     77.2 1.028e+04 7.792e-09
  9.45016     77.8 1.008e+04 6.864e-09
  9.47022     78.6 9.922e+03 6.106e-09
  9.49028     79.3 9.818e+03 5.548e-09
  9.50295     80.0 9.751e+03 5.157e-09
  9.51298     79.9 9.606e+03 4.676e-09
  9.53041     80.6 9.581e+03 4.545e-09
  9.55048     81.3 9.555e+03 4.462e-09
  9.57054     82.1 9.509e+03 4.383e-09
  9.58576     82.8 9.453e+03 4.288e-09
  9.59589     82.7 9.247e+03 3.742e-09
  9.62090     84.2 9.183e+03 3.599e-09
  9.65090     85.1 9.235e+03 3.530e-09
  9.66856     85.8 9.199e+03 3.462e-09
  9.67859     86.2 9.139e+03 3.406e-09
  9.69093     87.0 9.146e+03 3.453e-09
  9.71099     87.6 9.173e+03 3.577e-09
  9.73106     88.2 9.231e+03 3.832e-09
  9.75112     88.7 9.333e+03 4.281e-09
  9.76140     89.0 9.464e+03 4.955e-09
  9.77143     89.4 9.502e+03 5.263e-09
  9.79125     89.7 9.654e+03 6.251e-09
  9.81131     90.0 9.773e+03 7.176e-09
  9.83138     90.2 9.807e+03 7.679e-09
  9.84420     90.4 9.779e+03 7.605e-09
  9.85424     90.8 9.865e+03 8.049e-09
  9.87150     90.9 9.733e+03 7.567e-09
  9.89157     91.2 9.548e+03 6.752e-09
  9.91163     91.6 9.306e+03 5.779e-09
  9.92701     92.1 9.044e+03 4.720e-09
  9.93704     92.4 9.128e+03 4.904e-09
  9.95176     92.7 8.767e+03 3.655e-09
  9.98196     93.7 8.437e+03 2.961e-09
 10.02218     95.0 8.135e+03 2.464e-09
 10.06231     96.8 8.133e+03 2.470e-09
 10.09281     98.7 8.188e+03 2.579e-09
 10.11288     98.8 8.262e+03 2.927e-09
 10.14257    100.6 8.405e+03 3.200e-09
 10.17257    101.6 8.383e+03 3.066e-09
 10.18546    102.6 8.383e+03 2.869e-09
 10.19549    102.5 8.436e+03 3.179e-09
 10.21260    103.6 8.490e+03 3.230e-09
 10.23266    104.5 8.553e+03 3.302e-09
 10.25273    105.4 8.565e+03 3.308e-09
 10.26826    106.2 8.566e+03 3.292e-09
