# Columns:
#   distance along LOS (in CHIMPs)
#   peculiar velocity  (in km/s)
#   temperature (K)
#   HI number density
# pos=(131.26,36.5545,81.317), angles=(0.0713627,2.42799)
  0.01439     -1.0 1.320e+04 2.901e-10
  0.04850      2.1 1.355e+04 2.317e-10
  0.08780      4.2 1.358e+04 2.890e-10
  0.12696      6.4 1.345e+04 4.379e-10
  0.16612      9.3 1.308e+04 6.883e-10
  0.20528     12.0 1.335e+04 7.535e-10
  0.24445     14.2 1.351e+04 8.071e-10
  0.28361     16.2 1.358e+04 9.265e-10
  0.32277     18.2 1.363e+04 1.124e-09
  0.36193     20.1 1.358e+04 1.390e-09
  0.40110     21.9 1.362e+04 1.519e-09
  0.44026     23.7 1.364e+04 1.447e-09
  0.47942     25.6 1.370e+04 1.204e-09
  0.51858     27.5 1.376e+04 9.938e-10
  0.55774     29.7 1.367e+04 9.050e-10
  0.59691     32.3 1.356e+04 8.399e-10
  0.63566     35.1 1.356e+04 7.154e-10
  0.65525     35.3 1.359e+04 4.915e-10
  0.67523     38.1 1.369e+04 3.789e-10
  0.71439     40.8 1.376e+04 2.979e-10
  0.74371     43.6 1.372e+04 2.633e-10
  0.76329     43.8 1.372e+04 2.711e-10
  0.79272     46.7 1.371e+04 2.728e-10
  0.83188     49.7 1.372e+04 2.831e-10
  0.87104     52.7 1.373e+04 3.073e-10
  0.91020     55.6 1.374e+04 3.410e-10
  0.94937     58.5 1.375e+04 3.820e-10
  0.98853     61.3 1.377e+04 4.323e-10
  1.02769     64.1 1.379e+04 4.945e-10
  1.06685     66.8 1.385e+04 5.633e-10
  1.10601     69.4 1.399e+04 6.182e-10
  1.14518     71.8 1.406e+04 6.832e-10
  1.18434     74.2 1.401e+04 7.562e-10
  1.22350     76.5 1.388e+04 8.481e-10
  1.26266     78.9 1.370e+04 9.711e-10
  1.30183     81.3 1.357e+04 1.111e-09
  1.34099     83.6 1.350e+04 1.250e-09
  1.38015     85.8 1.349e+04 1.331e-09
  1.41931     88.0 1.347e+04 1.365e-09
  1.45847     90.1 1.346e+04 1.348e-09
  1.48493     92.6 1.349e+04 1.090e-09
  1.50451     92.5 1.344e+04 7.693e-10
  1.53680     94.9 1.328e+04 8.739e-10
  1.57596     97.4 1.313e+04 9.821e-10
  1.61512     99.8 1.305e+04 1.069e-09
  1.65429    102.3 1.301e+04 1.106e-09
  1.69345    104.7 1.299e+04 1.095e-09
  1.73261    107.1 1.293e+04 1.052e-09
  1.77177    109.6 1.287e+04 9.875e-10
  1.81093    112.3 1.280e+04 9.336e-10
  1.85010    115.0 1.274e+04 9.043e-10
  1.88926    117.7 1.273e+04 9.055e-10
  1.92842    120.4 1.269e+04 9.299e-10
  1.96758    123.0 1.266e+04 9.752e-10
  2.00674    125.5 1.262e+04 1.010e-09
  2.04591    127.8 1.261e+04 1.008e-09
  2.08507    130.2 1.256e+04 9.898e-10
  2.12423    132.6 1.248e+04 9.306e-10
  2.16339    135.1 1.244e+04 8.457e-10
  2.19286    137.7 1.237e+04 7.759e-10
  2.21244    138.0 1.241e+04 7.345e-10
  2.24172    140.6 1.233e+04 7.004e-10
  2.28088    143.3 1.228e+04 6.965e-10
  2.31461    146.1 1.226e+04 7.001e-10
  2.33419    146.3 1.222e+04 7.685e-10
  2.35920    149.1 1.222e+04 7.720e-10
  2.39837    151.9 1.219e+04 7.880e-10
  2.43753    154.8 1.213e+04 8.223e-10
  2.47669    157.6 1.207e+04 8.705e-10
  2.51585    160.5 1.202e+04 9.271e-10
  2.55502    163.3 1.201e+04 9.884e-10
  2.59418    166.0 1.200e+04 1.060e-09
  2.63334    168.8 1.198e+04 1.141e-09
  2.67250    171.4 1.195e+04 1.234e-09
  2.71166    174.1 1.191e+04 1.338e-09
  2.75083    176.6 1.187e+04 1.457e-09
  2.78999    179.0 1.185e+04 1.591e-09
  2.82915    181.3 1.184e+04 1.741e-09
  2.86831    183.5 1.185e+04 1.899e-09
  2.90747    185.5 1.187e+04 2.049e-09
  2.94664    186.8 1.212e+04 8.385e-10
  2.98580    188.6 1.213e+04 9.270e-10
  3.02496    190.1 1.212e+04 1.083e-09
  3.06412    191.5 1.208e+04 1.296e-09
  3.10329    192.8 1.204e+04 1.576e-09
  3.14245    193.8 1.201e+04 2.026e-09
  3.16388    194.7 1.202e+04 2.742e-09
  3.18346    193.2 1.207e+04 3.741e-09
  3.22077    193.8 1.215e+04 5.462e-09
  3.25993    193.8 1.237e+04 7.766e-09
  3.28453    193.5 1.252e+04 9.049e-09
  3.29422    193.4 1.252e+04 8.737e-09
  3.30869    193.2 1.265e+04 9.299e-09
  3.32827    192.8 1.281e+04 9.767e-09
  3.34785    192.2 1.295e+04 1.004e-08
  3.36744    191.3 1.304e+04 1.020e-08
  3.38702    190.3 1.308e+04 1.026e-08
  3.40660    188.9 1.310e+04 1.034e-08
  3.42618    187.3 1.317e+04 1.059e-08
  3.44576    185.3 1.329e+04 1.141e-08
  3.46534    182.8 1.351e+04 1.336e-08
  3.48492    179.7 1.385e+04 1.718e-08
  3.50450    176.2 1.423e+04 2.309e-08
  3.52408    172.8 1.449e+04 2.848e-08
  3.54366    169.5 1.452e+04 2.913e-08
  3.56325    166.8 1.439e+04 2.776e-08
  3.57852    164.7 1.394e+04 2.228e-08
  3.58831    164.1 1.434e+04 2.836e-08
  3.60241    162.7 1.361e+04 1.888e-08
  3.62199    162.0 1.291e+04 1.167e-08
  3.64157    161.8 1.245e+04 7.598e-09
  3.65161    161.8 1.228e+04 5.322e-09
  3.66141    162.2 1.214e+04 5.686e-09
  3.68073    162.3 1.206e+04 4.271e-09
  3.70031    162.4 1.199e+04 3.476e-09
  3.72978    163.7 1.160e+04 2.983e-09
  3.76904    165.7 1.148e+04 2.940e-09
  3.80820    168.0 1.150e+04 3.040e-09
  3.84737    169.6 1.156e+04 3.218e-09
  3.87664    170.8 1.169e+04 3.438e-09
  3.89612    171.6 1.178e+04 3.813e-09
  3.91571    172.4 1.186e+04 4.332e-09
  3.93529    173.1 1.193e+04 4.765e-09
  3.95487    173.5 1.195e+04 4.934e-09
  3.97445    173.8 1.193e+04 4.956e-09
  3.99337    174.1 1.190e+04 4.939e-09
  4.00316    174.1 1.196e+04 8.136e-09
  4.00901    174.4 1.192e+04 7.611e-09
  4.01880    174.2 1.179e+04 7.441e-09
  4.03319    174.6 1.174e+04 6.912e-09
  4.05277    174.9 1.177e+04 6.483e-09
  4.07235    175.2 1.184e+04 6.317e-09
  4.09194    175.6 1.185e+04 6.326e-09
  4.11152    175.9 1.191e+04 6.371e-09
  4.13110    176.1 1.198e+04 6.519e-09
  4.15068    176.4 1.206e+04 6.760e-09
  4.17026    176.7 1.215e+04 7.034e-09
  4.18984    176.8 1.225e+04 7.245e-09
  4.20942    176.8 1.236e+04 7.320e-09
  4.22900    176.7 1.245e+04 7.287e-09
  4.24858    176.4 1.248e+04 7.222e-09
  4.26817    176.0 1.254e+04 7.005e-09
  4.28775    175.6 1.256e+04 6.818e-09
  4.30733    175.0 1.255e+04 6.824e-09
  4.32691    174.5 1.256e+04 6.989e-09
  4.34649    174.0 1.263e+04 7.477e-09
  4.36607    173.6 1.277e+04 7.969e-09
  4.37619    173.1 1.288e+04 8.061e-09
  4.38598    173.0 1.279e+04 8.532e-09
  4.40523    172.6 1.282e+04 8.477e-09
  4.41800    172.4 1.285e+04 8.305e-09
  4.42779    172.4 1.295e+04 9.050e-09
  4.44439    172.2 1.299e+04 9.037e-09
  4.46398    172.1 1.311e+04 9.239e-09
  4.48356    172.0 1.329e+04 1.014e-08
  4.50314    171.8 1.351e+04 1.214e-08
  4.52272    171.6 1.378e+04 1.569e-08
  4.54230    171.5 1.412e+04 2.095e-08
  4.56188    171.2 1.447e+04 2.641e-08
  4.58146    170.3 1.471e+04 2.705e-08
  4.60104    169.0 1.469e+04 2.612e-08
  4.62062    168.0 1.447e+04 2.164e-08
  4.64021    167.2 1.414e+04 1.646e-08
  4.66968    166.3 1.376e+04 9.358e-09
  4.70893    165.4 1.313e+04 3.167e-09
  4.74810    165.0 1.240e+04 1.715e-09
  4.78726    165.4 1.227e+04 1.679e-09
  4.82325    166.7 1.224e+04 1.719e-09
  4.84283    166.7 1.208e+04 1.565e-09
  4.86558    168.1 1.206e+04 1.846e-09
  4.90475    169.0 1.214e+04 2.376e-09
  4.94391    169.5 1.220e+04 2.970e-09
  4.98307    169.7 1.219e+04 3.446e-09
  5.02223    170.0 1.211e+04 3.829e-09
  5.06139    170.2 1.202e+04 4.354e-09
  5.09117    170.2 1.198e+04 5.290e-09
  5.11076    171.4 1.203e+04 4.535e-09
  5.13972    171.5 1.206e+04 5.632e-09
  5.17888    171.4 1.213e+04 6.811e-09
  5.21804    171.2 1.215e+04 7.300e-09
  5.25721    171.0 1.212e+04 7.230e-09
  5.29637    171.2 1.205e+04 6.862e-09
  5.33553    171.6 1.203e+04 6.457e-09
  5.37469    172.1 1.205e+04 6.451e-09
  5.41385    172.4 1.212e+04 6.669e-09
  5.45302    172.4 1.228e+04 7.153e-09
  5.49218    172.3 1.246e+04 7.412e-09
  5.53134    172.0 1.249e+04 7.311e-09
  5.57050    171.7 1.247e+04 6.631e-09
  5.60966    171.7 1.232e+04 5.343e-09
  5.64883    171.8 1.213e+04 3.992e-09
  5.67251    172.0 1.200e+04 2.879e-09
  5.69209    173.1 1.199e+04 2.993e-09
  5.72715    173.4 1.195e+04 2.156e-09
  5.76631    173.9 1.196e+04 1.789e-09
  5.80548    174.7 1.194e+04 1.819e-09
  5.82554    175.7 1.192e+04 2.140e-09
  5.84512    177.1 1.196e+04 1.829e-09
  5.88380    178.3 1.197e+04 2.077e-09
  5.92296    179.4 1.207e+04 2.771e-09
  5.96212    180.5 1.218e+04 3.706e-09
  6.00129    181.4 1.231e+04 4.439e-09
  6.04045    182.2 1.236e+04 5.038e-09
  6.07961    182.9 1.229e+04 5.371e-09
  6.11877    183.4 1.228e+04 5.161e-09
  6.15794    183.7 1.227e+04 4.855e-09
  6.19710    183.9 1.225e+04 4.814e-09
  6.23626    183.9 1.227e+04 5.030e-09
  6.27542    183.7 1.238e+04 6.028e-09
  6.31458    183.4 1.262e+04 7.883e-09
  6.35375    182.6 1.299e+04 9.685e-09
  6.39291    181.2 1.324e+04 9.896e-09
  6.43207    179.6 1.331e+04 9.004e-09
  6.47123    178.4 1.328e+04 6.409e-09
  6.50219    178.1 1.311e+04 3.796e-09
  6.52177    177.8 1.302e+04 4.065e-09
  6.54033    177.8 1.263e+04 2.177e-09
  6.55991    177.0 1.223e+04 1.546e-09
  6.58872    177.7 1.186e+04 1.474e-09
  6.62788    179.5 1.182e+04 1.496e-09
  6.66704    181.6 1.171e+04 1.644e-09
  6.70621    183.5 1.161e+04 2.006e-09
  6.74537    185.3 1.151e+04 2.515e-09
  6.78453    187.0 1.136e+04 2.940e-09
  6.82369    188.6 1.130e+04 2.994e-09
  6.86285    190.3 1.125e+04 2.963e-09
  6.90202    192.2 1.114e+04 2.818e-09
  6.94118    194.1 1.106e+04 2.584e-09
  6.98034    196.0 1.111e+04 2.355e-09
  7.01950    197.8 1.124e+04 2.273e-09
  7.05867    199.5 1.133e+04 2.289e-09
  7.09783    201.3 1.143e+04 2.394e-09
  7.13699    202.6 1.143e+04 2.600e-09
  7.16626    203.3 1.132e+04 2.856e-09
  7.18575    204.4 1.122e+04 3.226e-09
  7.20533    205.4 1.127e+04 3.756e-09
  7.22491    206.3 1.141e+04 4.390e-09
  7.24449    206.7 1.159e+04 5.149e-09
  7.26407    206.8 1.176e+04 6.093e-09
  7.27450    206.7 1.193e+04 7.343e-09
  7.28429    206.7 1.163e+04 6.053e-09
  7.30323    206.6 1.177e+04 7.104e-09
  7.32281    206.2 1.195e+04 8.369e-09
  7.34147    205.6 1.216e+04 9.485e-09
  7.35126    204.6 1.219e+04 1.027e-08
  7.36198    203.6 1.222e+04 1.014e-08
  7.38156    202.8 1.224e+04 9.425e-09
  7.40114    202.0 1.219e+04 7.869e-09
  7.42072    201.2 1.210e+04 6.007e-09
  7.44030    200.3 1.200e+04 4.356e-09
  7.45988    199.3 1.185e+04 3.205e-09
  7.47946    198.3 1.165e+04 2.526e-09
  7.49904    197.5 1.142e+04 2.253e-09
  7.51863    196.9 1.117e+04 2.189e-09
  7.53821    196.8 1.117e+04 2.190e-09
  7.55779    196.7 1.126e+04 2.228e-09
  7.57737    196.7 1.139e+04 2.399e-09
  7.59695    196.6 1.152e+04 2.746e-09
  7.61653    196.6 1.168e+04 3.291e-09
  7.63190    196.5 1.192e+04 4.117e-09
  7.64169    197.3 1.161e+04 3.637e-09
  7.65569    197.0 1.194e+04 4.944e-09
  7.67527    196.2 1.263e+04 7.890e-09
  7.69486    194.8 1.377e+04 1.551e-08
  7.71444    192.7 1.496e+04 3.196e-08
  7.73402    190.1 1.583e+04 5.237e-08
  7.75360    186.9 1.615e+04 5.651e-08
  7.76611    183.3 1.607e+04 5.169e-08
  7.77590    181.7 1.538e+04 3.078e-08
  7.79276    178.1 1.499e+04 1.957e-08
  7.81234    174.4 1.429e+04 9.657e-09
  7.83192    172.0 1.383e+04 6.453e-09
  7.85150    168.1 1.319e+04 3.726e-09
  7.88097    164.3 1.275e+04 3.361e-09
  7.92023    160.2 1.240e+04 2.642e-09
  7.95940    157.1 1.228e+04 1.835e-09
  7.98949    154.5 1.216e+04 1.085e-09
  8.00907    153.4 1.227e+04 1.294e-09
  8.03772    151.4 1.191e+04 1.030e-09
  8.07688    150.1 1.189e+04 1.072e-09
  8.11604    149.2 1.187e+04 1.370e-09
  8.15521    148.2 1.193e+04 2.051e-09
  8.18114    147.1 1.200e+04 2.811e-09
  8.20072    147.1 1.207e+04 3.485e-09
  8.23353    145.8 1.208e+04 3.492e-09
  8.27269    144.5 1.200e+04 3.293e-09
  8.31186    143.4 1.182e+04 3.178e-09
  8.35102    142.7 1.177e+04 3.256e-09
  8.39018    142.2 1.173e+04 3.788e-09
  8.42934    141.6 1.187e+04 5.186e-09
  8.46850    140.9 1.210e+04 6.939e-09
  8.50767    139.8 1.222e+04 7.452e-09
  8.54683    138.6 1.219e+04 7.231e-09
  8.58599    137.7 1.200e+04 6.230e-09
  8.62515    137.5 1.168e+04 4.495e-09
  8.66431    137.6 1.137e+04 2.781e-09
  8.70348    138.0 1.114e+04 1.532e-09
  8.72385    138.5 1.106e+04 8.076e-10
  8.74344    138.4 1.113e+04 9.473e-10
  8.78180    139.4 1.092e+04 6.108e-10
  8.82096    140.8 1.080e+04 5.760e-10
  8.86013    142.7 1.080e+04 5.753e-10
  8.89929    144.6 1.084e+04 5.802e-10
  8.93845    146.3 1.092e+04 6.055e-10
  8.97761    147.8 1.101e+04 7.211e-10
  9.01083    149.4 1.108e+04 1.045e-09
  9.03041    149.1 1.120e+04 1.346e-09
  9.05594    150.4 1.143e+04 1.817e-09
  9.08115    150.8 1.157e+04 2.225e-09
  9.09084    150.9 1.157e+04 2.099e-09
  9.10469    151.4 1.172e+04 2.607e-09
  9.12428    151.7 1.196e+04 3.724e-09
  9.14386    151.7 1.229e+04 5.704e-09
  9.16344    151.6 1.272e+04 9.068e-09
  9.18302    151.2 1.324e+04 1.471e-08
  9.20260    150.7 1.377e+04 2.301e-08
  9.22218    149.9 1.420e+04 3.168e-08
  9.24176    148.6 1.443e+04 3.499e-08
  9.26134    147.0 1.436e+04 3.423e-08
  9.28092    145.6 1.390e+04 2.758e-08
  9.30050    144.5 1.302e+04 1.759e-08
  9.32997    143.8 1.185e+04 8.460e-09
  9.36923    143.9 1.081e+04 4.291e-09
  9.40840    144.2 1.023e+04 2.695e-09
  9.43864    144.9 9.956e+03 2.122e-09
  9.45822    145.5 9.996e+03 2.105e-09
  9.48672    146.6 9.735e+03 1.911e-09
  9.52588    147.9 9.550e+03 1.871e-09
  9.56504    149.0 9.468e+03 1.857e-09
  9.60421    150.1 9.395e+03 1.867e-09
  9.64337    151.1 9.262e+03 1.899e-09
  9.68253    152.0 9.197e+03 1.940e-09
  9.72169    153.0 9.106e+03 2.020e-09
  9.76086    153.9 9.037e+03 2.187e-09
  9.80002    154.6 9.099e+03 2.446e-09
  9.83918    154.7 9.191e+03 2.712e-09
  9.85999    154.6 9.212e+03 2.871e-09
  9.86969    156.2 9.300e+03 3.243e-09
  9.88794    156.1 9.236e+03 3.213e-09
  9.90752    156.1 9.168e+03 3.230e-09
  9.92710    156.2 9.124e+03 3.320e-09
  9.94668    156.2 9.123e+03 3.504e-09
  9.96626    156.3 9.214e+03 3.791e-09
  9.98584    156.2 9.379e+03 4.371e-09
 10.00542    155.9 9.686e+03 5.708e-09
 10.02501    155.4 1.027e+04 8.666e-09
 10.04459    154.8 1.122e+04 1.493e-08
 10.06417    154.3 1.246e+04 2.695e-08
 10.08375    153.9 1.376e+04 4.631e-08
 10.10333    153.2 1.496e+04 6.820e-08
 10.12291    151.5 1.576e+04 7.170e-08
 10.14249    148.8 1.593e+04 6.590e-08
 10.16207    145.3 1.598e+04 4.661e-08
 10.17282    141.0 1.507e+04 2.736e-08
 10.18261    140.5 1.393e+04 2.249e-08
 10.20123    136.1 1.272e+04 1.929e-08
 10.22082    132.8 1.255e+04 1.950e-08
 10.24040    130.2 1.262e+04 2.165e-08
 10.25998    127.6 1.329e+04 2.994e-08
 10.27474    124.9 1.442e+04 4.484e-08
 10.28453    127.9 1.388e+04 3.814e-08
 10.29914    125.0 1.518e+04 6.067e-08
 10.31872    121.8 1.593e+04 7.238e-08
 10.33830    118.0 1.589e+04 6.982e-08
 10.35788    114.0 1.543e+04 5.569e-08
 10.37746    109.3 1.453e+04 3.715e-08
 10.39705    104.4 1.350e+04 2.680e-08
 10.41663    100.5 1.277e+04 2.418e-08
 10.43621     98.1 1.249e+04 2.326e-08
 10.45579     96.7 1.226e+04 2.150e-08
 10.47537     95.7 1.195e+04 1.844e-08
 10.49495     94.8 1.159e+04 1.493e-08
 10.51453     93.9 1.123e+04 1.209e-08
 10.53021     93.3 1.094e+04 1.024e-08
 10.54000     92.8 1.102e+04 1.102e-08
 10.55369     92.6 1.080e+04 9.574e-09
 10.58316     93.4 1.059e+04 7.982e-09
 10.62242     94.4 1.037e+04 6.921e-09
 10.66159     96.1 1.020e+04 5.888e-09
 10.68977     97.7 1.009e+04 4.989e-09
 10.70936     96.4 1.027e+04 5.880e-09
 10.73991     98.4 9.941e+03 4.159e-09
 10.77907    100.5 9.769e+03 2.871e-09
 10.81823    102.6 9.740e+03 2.214e-09
 10.85740    105.1 9.756e+03 2.142e-09
 10.88780    107.6 9.789e+03 2.176e-09
 10.90738    107.5 9.779e+03 2.674e-09
 10.93572    110.0 9.960e+03 2.815e-09
 10.97488    112.3 1.018e+04 3.138e-09
 11.01405    114.6 1.042e+04 3.564e-09
 11.05321    116.8 1.068e+04 4.037e-09
 11.09237    118.8 1.098e+04 4.659e-09
 11.13153    120.7 1.133e+04 5.567e-09
 11.17069    122.5 1.170e+04 6.849e-09
 11.20986    124.2 1.200e+04 8.169e-09
 11.24902    126.0 1.219e+04 9.160e-09
 11.28818    127.8 1.230e+04 9.701e-09
 11.32734    129.5 1.230e+04 9.563e-09
 11.36650    131.2 1.231e+04 8.964e-09
 11.40567    132.7 1.228e+04 7.535e-09
 11.44483    134.2 1.216e+04 5.615e-09
 11.48399    135.9 1.204e+04 3.711e-09
 11.51946    137.8 1.192e+04 2.272e-09
 11.53904    138.3 1.197e+04 2.328e-09
 11.56232    140.3 1.195e+04 1.341e-09
 11.60148    142.3 1.205e+04 7.853e-10
 11.62217    144.1 1.159e+04 6.336e-10
 11.64175    144.3 1.158e+04 6.333e-10
 11.67980    146.5 1.140e+04 6.293e-10
 11.71896    148.8 1.139e+04 6.278e-10
 11.75813    151.1 1.138e+04 6.300e-10
 11.79729    153.3 1.138e+04 6.430e-10
 11.83645    155.3 1.138e+04 6.853e-10
 11.87561    157.3 1.134e+04 8.231e-10
 11.91478    159.2 1.133e+04 1.148e-09
 11.95394    160.9 1.143e+04 1.812e-09
 11.99310    162.1 1.167e+04 2.686e-09
 12.02237    162.5 1.176e+04 3.067e-09
 12.04186    163.2 1.175e+04 3.558e-09
 12.07133    163.1 1.165e+04 3.647e-09
 12.10070    163.7 1.161e+04 3.774e-09
 12.12018    164.1 1.156e+04 3.706e-09
 12.13976    164.1 1.146e+04 3.385e-09
 12.15934    163.8 1.135e+04 2.945e-09
 12.17892    163.6 1.126e+04 2.567e-09
 12.19851    163.4 1.119e+04 2.286e-09
 12.22798    162.9 1.110e+04 2.055e-09
 12.25735    163.4 1.104e+04 2.066e-09
 12.27683    164.0 1.094e+04 2.048e-09
 12.29641    164.7 1.085e+04 2.056e-09
 12.31599    164.7 1.093e+04 2.088e-09
 12.33557    164.4 1.135e+04 2.362e-09
 12.34655    163.3 1.219e+04 3.580e-09
 12.35634    163.6 1.222e+04 4.006e-09
 12.36853    162.2 1.307e+04 7.512e-09
 12.37832    166.1 1.203e+04 3.468e-09
 12.39432    164.6 1.298e+04 6.634e-09
 12.41390    163.2 1.371e+04 1.373e-08
 12.43348    162.0 1.449e+04 2.465e-08
 12.45306    160.5 1.520e+04 3.574e-08
 12.47264    158.6 1.555e+04 3.512e-08
 12.49222    156.0 1.571e+04 2.856e-08
 12.51180    152.5 1.548e+04 1.685e-08
 12.53138    148.4 1.455e+04 8.257e-09
 12.55097    144.3 1.288e+04 4.926e-09
 12.57055    141.5 1.176e+04 4.256e-09
 12.59013    140.0 1.159e+04 4.260e-09
 12.60971    139.1 1.154e+04 4.331e-09
 12.62929    138.2 1.150e+04 4.408e-09
 12.64887    137.2 1.145e+04 4.426e-09
 12.66845    136.1 1.133e+04 4.409e-09
 12.68803    135.2 1.117e+04 4.277e-09
 12.70394    134.3 1.102e+04 4.069e-09
 12.71373    135.0 1.106e+04 3.805e-09
 12.72720    134.2 1.090e+04 3.550e-09
 12.74678    133.7 1.075e+04 3.340e-09
 12.76636    133.4 1.057e+04 3.154e-09
 12.78337    133.3 1.052e+04 3.013e-09
 12.79316    133.8 1.054e+04 3.026e-09
 12.81541    133.8 1.044e+04 2.923e-09
 12.85467    134.3 1.041e+04 2.950e-09
 12.89383    134.9 1.035e+04 2.964e-09
 12.93299    135.9 1.024e+04 2.850e-09
 12.97215    137.3 9.952e+03 2.480e-09
 13.01132    138.8 9.641e+03 1.994e-09
 13.05048    140.6 9.381e+03 1.604e-09
 13.07132    142.5 9.271e+03 1.430e-09
 13.09090    143.2 9.422e+03 1.520e-09
 13.12880    145.2 9.345e+03 1.448e-09
 13.16797    147.5 9.343e+03 1.455e-09
 13.19841    149.8 9.363e+03 1.483e-09
 13.21799    150.6 9.673e+03 1.871e-09
 13.24629    152.8 9.713e+03 1.910e-09
 13.28545    155.1 9.763e+03 1.969e-09
 13.32461    157.3 9.810e+03 2.030e-09
 13.36378    159.6 9.847e+03 2.080e-09
 13.40294    161.9 9.855e+03 2.111e-09
 13.44210    164.4 9.851e+03 2.133e-09
 13.48126    167.2 9.881e+03 2.171e-09
 13.52042    170.2 1.003e+04 2.275e-09
 13.55959    173.1 1.033e+04 2.496e-09
 13.59875    174.9 1.050e+04 2.785e-09
 13.62294    176.8 1.073e+04 3.505e-09
 13.63263    177.3 1.070e+04 3.253e-09
 13.64751    178.6 1.094e+04 4.066e-09
 13.66709    179.8 1.121e+04 5.208e-09
 13.68667    180.9 1.145e+04 6.593e-09
 13.70625    181.9 1.164e+04 8.135e-09
 13.72583    183.0 1.191e+04 9.834e-09
 13.74541    184.0 1.221e+04 1.180e-08
 13.76499    184.2 1.263e+04 1.474e-08
 13.78457    184.0 1.345e+04 2.186e-08
 13.79570    183.4 1.472e+04 3.989e-08
 13.80550    184.6 1.438e+04 3.219e-08
 13.82374    184.0 1.595e+04 6.727e-08
 13.83511    183.6 1.652e+04 9.168e-08
 13.83996    183.6 1.672e+04 9.767e-08
 13.84811    183.2 1.739e+04 1.340e-07
 13.85791    182.7 1.810e+04 1.866e-07
 13.86770    181.9 1.874e+04 2.428e-07
 13.87749    179.9 1.876e+04 2.372e-07
 13.88728    178.3 1.860e+04 2.252e-07
 13.90201    176.4 1.855e+04 2.002e-07
 13.92164    173.5 1.786e+04 1.056e-07
 13.94122    169.5 1.660e+04 3.898e-08
 13.96080    163.6 1.525e+04 2.165e-08
 13.98038    158.4 1.523e+04 2.479e-08
 13.99997    154.9 1.549e+04 3.368e-08
