# Columns:
#   distance along LOS (in CHIMPs)
#   peculiar velocity  (in km/s)
#   temperature (K)
#   HI number density
# pos=(237.173,8.41271,153.731), angles=(1.37457,0.0324993)
  0.00627    151.8 1.620e+04 8.132e-08
  0.01393    150.8 1.589e+04 7.106e-08
  0.02389    150.0 1.566e+04 6.453e-08
  0.04242    149.7 1.490e+04 4.370e-08
  0.06235    149.3 1.415e+04 2.792e-08
  0.08227    148.7 1.358e+04 1.886e-08
  0.10220    148.3 1.321e+04 1.433e-08
  0.11383    148.0 1.296e+04 1.174e-08
  0.12379    147.5 1.291e+04 1.068e-08
  0.15210    147.3 1.270e+04 8.589e-09
  0.19205    147.2 1.231e+04 6.071e-09
  0.21383    147.1 1.216e+04 5.240e-09
  0.23375    147.5 1.209e+04 4.885e-09
  0.27174    148.9 1.201e+04 4.674e-09
  0.30153    149.4 1.199e+04 4.746e-09
  0.31363    150.1 1.198e+04 4.896e-09
  0.32359    150.4 1.205e+04 4.997e-09
  0.34128    151.2 1.210e+04 5.348e-09
  0.36121    152.1 1.219e+04 5.856e-09
  0.38113    152.9 1.234e+04 6.529e-09
  0.40105    153.3 1.254e+04 7.300e-09
  0.41353    153.3 1.310e+04 8.806e-09
  0.42210    154.6 1.270e+04 7.831e-09
  0.42955    154.0 1.299e+04 9.412e-09
  0.44090    154.1 1.369e+04 1.134e-08
  0.46083    154.0 1.460e+04 1.636e-08
  0.48075    153.9 1.530e+04 2.567e-08
  0.50067    153.9 1.571e+04 3.935e-08
  0.51342    154.3 1.604e+04 5.478e-08
  0.52339    155.9 1.516e+04 2.568e-08
  0.54052    156.3 1.548e+04 3.754e-08
  0.56045    156.8 1.585e+04 5.308e-08
  0.58037    157.3 1.643e+04 7.203e-08
  0.60029    157.7 1.711e+04 8.978e-08
  0.61332    157.9 1.743e+04 1.029e-07
  0.62329    159.1 1.673e+04 8.452e-08
  0.64014    158.9 1.727e+04 9.607e-08
  0.66007    158.5 1.738e+04 9.286e-08
  0.67999    157.8 1.723e+04 8.309e-08
  0.69991    157.2 1.691e+04 6.932e-08
  0.71322    156.6 1.639e+04 5.545e-08
  0.72318    157.8 1.622e+04 5.789e-08
  0.73976    157.4 1.571e+04 4.805e-08
  0.75968    157.3 1.511e+04 3.955e-08
  0.77961    157.4 1.457e+04 3.346e-08
  0.79953    157.8 1.414e+04 2.954e-08
  0.81312    158.3 1.383e+04 2.676e-08
  0.82308    159.3 1.393e+04 2.806e-08
  0.83938    159.9 1.363e+04 2.529e-08
  0.85930    160.7 1.338e+04 2.346e-08
  0.87923    161.7 1.313e+04 2.283e-08
  0.89915    162.9 1.312e+04 2.292e-08
  0.91302    164.1 1.315e+04 2.366e-08
  0.92298    164.3 1.290e+04 2.117e-08
  0.93900    165.2 1.300e+04 2.264e-08
  0.95892    166.0 1.334e+04 2.616e-08
  0.97885    166.6 1.381e+04 3.126e-08
  0.99877    166.8 1.422e+04 3.570e-08
  1.01292    166.8 1.434e+04 3.610e-08
  1.02288    166.8 1.333e+04 2.177e-08
  1.03483    166.6 1.325e+04 2.008e-08
  1.04479    167.3 1.393e+04 2.909e-08
  1.05854    167.1 1.366e+04 2.458e-08
  1.07847    167.2 1.315e+04 1.819e-08
  1.09839    167.4 1.255e+04 1.220e-08
  1.11282    167.5 1.199e+04 7.789e-09
  1.12278    167.5 1.139e+04 6.630e-09
  1.13824    167.8 1.109e+04 4.816e-09
  1.15816    168.0 1.092e+04 3.647e-09
  1.17809    168.4 1.083e+04 3.309e-09
  1.19801    169.1 1.082e+04 3.340e-09
  1.21272    170.1 1.084e+04 3.443e-09
  1.22268    170.9 1.057e+04 2.882e-09
  1.23786    171.9 1.057e+04 2.934e-09
  1.25778    172.9 1.061e+04 3.078e-09
  1.27771    173.9 1.064e+04 3.276e-09
  1.29763    174.9 1.065e+04 3.445e-09
  1.31262    175.9 1.065e+04 3.578e-09
  1.32258    176.7 1.063e+04 3.492e-09
  1.33748    177.7 1.066e+04 3.638e-09
  1.35740    178.6 1.067e+04 3.725e-09
  1.37733    179.6 1.068e+04 3.780e-09
  1.39725    180.6 1.071e+04 3.849e-09
  1.41252    181.4 1.074e+04 3.943e-09
  1.42248    181.9 1.091e+04 4.235e-09
  1.43710    182.7 1.096e+04 4.425e-09
  1.45702    183.5 1.102e+04 4.630e-09
  1.47695    184.1 1.107e+04 4.787e-09
  1.49687    184.6 1.109e+04 4.834e-09
  1.51241    185.0 1.109e+04 4.811e-09
  1.52238    185.1 1.165e+04 6.783e-09
  1.53672    185.4 1.166e+04 6.568e-09
  1.55664    185.6 1.162e+04 6.012e-09
  1.57656    185.8 1.148e+04 5.169e-09
  1.59649    185.9 1.127e+04 4.210e-09
  1.61231    186.1 1.102e+04 3.376e-09
  1.62227    185.9 1.200e+04 6.027e-09
  1.63634    185.9 1.163e+04 4.429e-09
  1.65007    185.9 1.129e+04 3.511e-09
  1.66003    185.0 1.089e+04 2.926e-09
  1.67618    185.4 1.076e+04 2.885e-09
  1.69611    185.9 1.074e+04 2.911e-09
  1.71221    186.5 1.071e+04 3.000e-09
  1.72217    186.1 1.157e+04 6.211e-09
  1.73596    186.7 1.156e+04 6.493e-09
  1.75588    187.3 1.161e+04 6.918e-09
  1.77580    187.5 1.167e+04 7.252e-09
  1.79573    187.5 1.170e+04 7.415e-09
  1.81211    187.4 1.171e+04 7.541e-09
  1.82207    187.2 1.298e+04 1.662e-08
  1.83558    186.8 1.295e+04 1.555e-08
  1.85550    186.0 1.271e+04 1.265e-08
  1.87542    185.3 1.230e+04 9.849e-09
  1.90541    183.9 1.208e+04 7.342e-09
  1.94535    182.3 1.138e+04 4.306e-09
  1.98520    181.6 1.102e+04 3.489e-09
  2.01210    181.2 1.097e+04 3.438e-09
  2.03203    180.9 1.107e+04 3.490e-09
  2.06490    181.0 1.099e+04 3.636e-09
  2.10474    180.8 1.092e+04 3.926e-09
  2.14459    180.4 1.094e+04 4.038e-09
  2.18444    179.7 1.091e+04 3.930e-09
  2.21190    179.2 1.075e+04 3.365e-09
  2.23183    180.2 1.105e+04 4.433e-09
  2.26413    180.1 1.080e+04 3.160e-09
  2.30398    180.2 1.058e+04 1.883e-09
  2.34383    180.3 1.036e+04 1.108e-09
  2.38368    180.7 1.016e+04 9.807e-10
  2.41170    181.7 1.014e+04 9.900e-10
  2.43162    182.8 1.017e+04 1.033e-09
  2.46337    184.1 1.010e+04 1.094e-09
  2.50322    185.5 1.003e+04 1.304e-09
  2.54307    186.8 1.000e+04 1.634e-09
  2.58292    188.0 1.002e+04 1.969e-09
  2.61150    189.0 9.963e+03 2.123e-09
  2.63142    190.1 1.009e+04 2.316e-09
  2.66261    190.6 1.006e+04 2.281e-09
  2.70246    191.1 9.963e+03 2.117e-09
  2.74231    191.6 9.793e+03 1.896e-09
  2.78216    192.0 9.608e+03 1.794e-09
  2.81130    192.6 9.578e+03 1.804e-09
  2.83122    192.8 9.568e+03 1.863e-09
  2.86082    193.0 9.545e+03 1.917e-09
  2.88075    192.8 9.578e+03 2.020e-09
  2.90170    192.7 9.524e+03 2.218e-09
  2.94155    192.5 9.505e+03 2.511e-09
  2.98140    192.0 9.531e+03 2.747e-09
  3.01109    191.2 9.536e+03 2.745e-09
  3.03102    190.2 9.373e+03 2.260e-09
  3.06109    189.2 9.255e+03 1.791e-09
  3.10094    188.1 9.062e+03 1.227e-09
  3.14079    187.2 8.710e+03 8.568e-10
  3.18063    186.6 8.519e+03 8.229e-10
  3.21089    186.2 8.491e+03 8.881e-10
  3.23081    186.2 8.437e+03 8.423e-10
  3.26033    185.9 8.497e+03 1.184e-09
  3.30018    185.4 8.805e+03 1.898e-09
  3.32065    184.7 8.974e+03 2.432e-09
  3.33052    184.8 8.987e+03 2.403e-09
  3.34979    184.5 9.153e+03 2.975e-09
  3.36972    184.0 9.499e+03 4.209e-09
  3.38964    183.5 9.893e+03 5.953e-09
  3.40956    182.9 1.025e+04 7.803e-09
  3.42046    182.2 1.054e+04 9.376e-09
  3.43042    182.6 1.058e+04 9.153e-09
  3.44941    181.7 1.078e+04 9.923e-09
  3.46934    180.8 1.085e+04 9.983e-09
  3.48583    179.8 1.085e+04 9.936e-09
  3.49579    179.5 1.137e+04 1.277e-08
  3.50918    178.5 1.129e+04 1.244e-08
  3.52035    177.9 1.104e+04 1.122e-08
  3.53032    178.2 1.095e+04 1.013e-08
  3.54903    178.0 1.061e+04 8.761e-09
  3.56896    177.9 1.021e+04 6.988e-09
  3.58888    177.9 9.843e+03 5.533e-09
  3.61039    178.3 9.488e+03 4.138e-09
  3.63041    179.1 9.493e+03 3.756e-09
  3.65881    179.6 9.296e+03 3.242e-09
  3.69866    180.3 9.149e+03 2.982e-09
  3.73850    181.2 9.106e+03 2.827e-09
  3.77835    182.0 9.102e+03 2.757e-09
  3.81028    182.5 9.123e+03 2.742e-09
  3.83011    182.9 9.174e+03 3.115e-09
  3.84789    183.6 9.189e+03 3.197e-09
  3.86781    184.5 9.322e+03 3.548e-09
  3.88774    185.0 9.572e+03 4.158e-09
  3.90766    185.0 9.837e+03 5.024e-09
  3.91995    185.0 1.013e+04 6.227e-09
  3.92991    185.2 1.025e+04 6.941e-09
  3.94751    185.1 1.056e+04 8.501e-09
  3.96743    184.9 1.095e+04 1.051e-08
  3.98736    184.7 1.135e+04 1.284e-08
  4.00728    184.3 1.174e+04 1.528e-08
  4.01985    183.8 1.203e+04 1.733e-08
  4.02981    183.7 1.199e+04 1.643e-08
  4.04713    183.0 1.220e+04 1.772e-08
  4.06705    182.3 1.240e+04 1.879e-08
  4.08698    181.3 1.272e+04 2.088e-08
  4.10107    180.0 1.327e+04 2.579e-08
  4.11103    179.7 1.337e+04 2.745e-08
  4.11975    178.0 1.416e+04 3.715e-08
  4.12971    177.1 1.416e+04 3.659e-08
  4.14675    175.2 1.486e+04 4.754e-08
  4.16667    173.0 1.513e+04 4.994e-08
  4.18660    170.9 1.508e+04 4.823e-08
  4.20652    169.1 1.475e+04 4.039e-08
  4.21965    167.7 1.416e+04 2.985e-08
  4.22961    167.0 1.360e+04 2.197e-08
  4.24637    165.8 1.302e+04 1.621e-08
  4.26629    164.9 1.277e+04 1.350e-08
  4.28622    164.4 1.285e+04 1.284e-08
  4.30614    163.6 1.284e+04 1.238e-08
  4.33612    161.9 1.269e+04 1.133e-08
  4.37607    161.0 1.259e+04 1.044e-08
  4.40968    160.5 1.249e+04 8.783e-09
  4.42960    159.3 1.264e+04 1.142e-08
  4.45576    159.0 1.260e+04 1.027e-08
  4.49561    159.0 1.237e+04 8.197e-09
  4.53546    159.3 1.208e+04 6.029e-09
  4.57531    159.9 1.191e+04 4.626e-09
  4.60948    160.7 1.186e+04 3.864e-09
  4.62940    158.9 1.155e+04 3.363e-09
  4.65500    159.7 1.153e+04 2.970e-09
  4.69485    160.4 1.160e+04 2.750e-09
  4.73470    161.0 1.160e+04 2.793e-09
  4.77455    161.6 1.159e+04 2.982e-09
  4.80927    162.2 1.152e+04 3.223e-09
  4.82920    161.3 1.155e+04 2.457e-09
  4.85424    162.2 1.143e+04 2.541e-09
  4.89409    163.2 1.126e+04 2.657e-09
  4.93394    164.3 1.108e+04 2.788e-09
  4.97379    165.8 1.096e+04 2.897e-09
  5.00907    167.1 1.084e+04 3.020e-09
  5.02899    166.8 1.094e+04 2.785e-09
  5.04342    167.4 1.083e+04 3.104e-09
  5.06325    167.9 1.078e+04 3.345e-09
  5.09323    168.8 1.083e+04 4.155e-09
  5.13318    168.8 1.098e+04 5.793e-09
  5.17302    168.5 1.117e+04 7.566e-09
  5.20887    167.4 1.151e+04 1.029e-08
  5.22879    166.8 1.085e+04 6.640e-09
  5.25272    164.9 1.075e+04 6.454e-09
  5.29257    162.7 1.046e+04 6.092e-09
  5.32179    161.1 9.954e+03 5.297e-09
  5.34171    158.7 9.720e+03 5.087e-09
  5.37226    157.9 9.177e+03 4.271e-09
  5.40867    157.9 8.875e+03 4.032e-09
  5.42859    160.0 8.988e+03 4.046e-09
  5.45196    160.0 9.025e+03 4.236e-09
  5.49181    160.0 9.318e+03 5.274e-09
  5.53166    160.1 9.997e+03 7.641e-09
  5.57150    160.1 1.057e+04 1.008e-08
  5.60846    159.9 1.069e+04 1.039e-08
  5.62839    161.0 1.126e+04 1.304e-08
  5.65120    161.1 1.114e+04 1.198e-08
  5.69105    161.5 1.064e+04 9.234e-09
  5.73089    162.3 9.898e+03 6.283e-09
  5.77074    163.4 9.137e+03 4.356e-09
  5.80826    164.9 8.889e+03 3.390e-09
  5.82819    166.0 9.316e+03 4.112e-09
  5.85044    167.8 9.314e+03 3.605e-09
  5.89029    169.8 9.346e+03 3.559e-09
  5.93013    172.0 9.367e+03 3.605e-09
  5.96998    174.1 9.412e+03 3.817e-09
  6.00806    176.7 9.575e+03 4.103e-09
  6.02798    177.4 9.693e+03 4.151e-09
  6.04968    180.0 1.005e+04 4.809e-09
  6.07946    180.8 1.012e+04 4.875e-09
  6.09929    181.4 1.011e+04 4.837e-09
  6.11773    182.5 1.008e+04 4.574e-09
  6.12769    183.2 1.029e+04 5.751e-09
  6.13914    184.2 1.027e+04 5.612e-09
  6.15906    185.2 1.025e+04 5.290e-09
  6.17899    186.2 1.022e+04 4.897e-09
  6.19891    187.3 1.019e+04 4.463e-09
  6.21762    188.2 1.016e+04 4.002e-09
  6.22759    189.3 1.047e+04 5.615e-09
  6.23876    190.2 1.043e+04 5.025e-09
  6.25868    191.1 1.042e+04 4.410e-09
  6.27861    192.0 1.047e+04 3.851e-09
  6.29853    192.8 1.054e+04 3.481e-09
  6.31752    193.6 1.064e+04 3.338e-09
  6.32749    194.4 1.084e+04 4.198e-09
  6.33838    195.1 1.085e+04 3.934e-09
  6.35830    195.9 1.084e+04 3.963e-09
  6.37823    196.8 1.081e+04 4.124e-09
  6.39815    197.7 1.079e+04 4.490e-09
  6.41742    198.7 1.081e+04 5.073e-09
  6.42738    199.1 1.078e+04 4.968e-09
  6.43800    200.0 1.080e+04 5.514e-09
  6.45792    201.0 1.086e+04 6.286e-09
  6.47785    202.0 1.095e+04 7.247e-09
  6.49777    203.0 1.108e+04 8.361e-09
  6.51732    204.1 1.124e+04 9.618e-09
  6.52728    204.4 1.106e+04 8.581e-09
  6.53762    205.3 1.125e+04 9.921e-09
  6.55207    206.3 1.145e+04 1.139e-08
  6.56203    206.1 1.118e+04 8.687e-09
  6.57746    207.1 1.131e+04 9.426e-09
  6.59739    208.0 1.138e+04 9.914e-09
  6.61722    209.0 1.138e+04 9.957e-09
  6.63714    210.3 1.115e+04 9.095e-09
  6.65716    211.3 1.109e+04 9.023e-09
  6.67708    212.4 1.100e+04 8.880e-09
  6.69701    213.6 1.094e+04 8.833e-09
  6.71693    214.7 1.094e+04 8.866e-09
  6.72708    215.8 1.095e+04 9.157e-09
  6.73704    216.4 1.075e+04 8.339e-09
  6.75678    217.5 1.087e+04 9.138e-09
  6.77670    218.5 1.106e+04 1.038e-08
  6.79663    219.6 1.127e+04 1.195e-08
  6.81655    220.7 1.148e+04 1.366e-08
  6.82698    221.7 1.167e+04 1.529e-08
  6.83694    222.4 1.169e+04 1.481e-08
  6.85640    223.5 1.195e+04 1.679e-08
  6.87632    224.3 1.232e+04 1.927e-08
  6.89625    225.1 1.288e+04 2.306e-08
  6.91617    225.9 1.352e+04 2.773e-08
  6.92683    226.3 1.376e+04 3.008e-08
  6.93679    227.7 1.399e+04 3.123e-08
  6.95099    227.6 1.434e+04 3.488e-08
  6.96090    227.5 1.506e+04 4.071e-08
  6.97086    227.1 1.656e+04 5.197e-08
  6.97673    226.3 1.860e+04 7.640e-08
  6.98171    227.8 1.747e+04 6.102e-08
  6.99079    226.8 1.927e+04 9.367e-08
  7.00075    225.8 1.993e+04 2.025e-07
  7.01071    225.1 1.930e+04 5.759e-07
  7.02067    224.6 1.838e+04 1.739e-06
  7.02668    223.7 1.751e+04 4.884e-06
  7.03166    224.9 1.791e+04 2.645e-06
  7.04060    224.0 1.718e+04 6.481e-06
  7.05056    222.8 1.674e+04 1.102e-05
  7.06052    221.0 1.671e+04 1.216e-05
  7.07048    218.8 1.693e+04 1.000e-05
  7.07663    216.4 1.793e+04 4.531e-06
  7.08161    219.0 1.756e+04 6.025e-06
  7.09041    216.5 1.905e+04 2.205e-06
  7.10037    212.8 2.197e+04 4.631e-07
  7.11033    206.3 2.556e+04 7.795e-08
  7.12029    200.1 2.044e+04 4.360e-08
  7.12663    195.7 1.890e+04 4.139e-08
  7.13161    199.8 2.137e+04 4.084e-08
  7.14022    196.6 2.030e+04 3.121e-08
  7.15521    192.3 1.807e+04 2.425e-08
  7.16731    185.2 1.298e+04 2.450e-08
  7.17728    184.0 1.295e+04 2.190e-08
  7.19511    181.6 1.282e+04 2.112e-08
  7.21503    179.7 1.269e+04 1.995e-08
  7.22658    177.9 1.240e+04 1.763e-08
  7.23654    176.8 1.196e+04 1.481e-08
  7.25488    175.1 1.161e+04 1.310e-08
  7.27480    173.6 1.126e+04 1.167e-08
  7.29473    172.7 1.111e+04 1.130e-08
  7.31465    172.1 1.111e+04 1.134e-08
  7.32647    171.7 1.117e+04 1.159e-08
  7.33644    170.8 1.112e+04 1.144e-08
  7.35450    170.6 1.122e+04 1.197e-08
  7.37442    170.3 1.137e+04 1.282e-08
  7.39434    170.2 1.152e+04 1.390e-08
  7.41427    170.2 1.168e+04 1.505e-08
  7.42637    170.3 1.172e+04 1.570e-08
  7.43634    170.0 1.172e+04 1.576e-08
  7.45412    170.3 1.168e+04 1.558e-08
  7.47404    170.6 1.153e+04 1.465e-08
  7.49396    170.9 1.131e+04 1.322e-08
  7.51389    171.0 1.105e+04 1.164e-08
  7.52627    171.1 1.079e+04 1.022e-08
  7.53623    171.0 1.102e+04 1.140e-08
  7.55374    171.0 1.085e+04 1.045e-08
  7.57366    171.0 1.085e+04 1.026e-08
  7.59358    171.1 1.088e+04 1.029e-08
  7.61351    171.1 1.100e+04 1.044e-08
  7.62617    171.0 1.111e+04 1.061e-08
  7.63613    170.8 1.150e+04 1.277e-08
  7.65336    170.8 1.152e+04 1.259e-08
  7.67328    170.8 1.147e+04 1.204e-08
  7.69320    170.8 1.133e+04 1.133e-08
  7.71313    170.8 1.112e+04 1.030e-08
  7.72607    170.8 1.094e+04 9.561e-09
  7.73603    170.6 1.103e+04 9.987e-09
  7.75298    170.7 1.080e+04 9.088e-09
  7.77259    171.0 1.062e+04 8.464e-09
  7.78255    171.1 1.039e+04 7.364e-09
  7.79282    171.5 1.026e+04 7.038e-09
  7.81275    172.0 1.012e+04 6.708e-09
  7.82597    172.6 9.986e+03 6.345e-09
  7.83593    172.8 9.887e+03 6.072e-09
  7.85259    173.6 9.810e+03 5.893e-09
  7.87252    174.6 9.805e+03 5.883e-09
  7.89244    175.7 9.826e+03 5.965e-09
  7.91237    176.7 9.896e+03 6.190e-09
  7.92587    177.8 9.989e+03 6.536e-09
  7.93583    178.2 1.008e+04 6.641e-09
  7.95221    179.3 1.027e+04 7.334e-09
  7.97214    180.3 1.054e+04 8.357e-09
  7.99206    181.3 1.090e+04 9.917e-09
  8.01199    182.2 1.141e+04 1.239e-08
  8.02577    183.0 1.209e+04 1.637e-08
  8.03573    183.2 1.218e+04 1.683e-08
  8.05183    184.0 1.292e+04 2.211e-08
  8.07176    184.6 1.382e+04 2.997e-08
  8.09168    185.2 1.465e+04 4.030e-08
  8.11161    185.6 1.523e+04 5.097e-08
  8.12567    186.2 1.566e+04 6.028e-08
  8.13563    186.9 1.539e+04 5.054e-08
  8.15145    187.8 1.592e+04 6.107e-08
  8.17138    188.5 1.656e+04 7.404e-08
  8.18627    188.7 1.699e+04 8.247e-08
  8.19618    189.0 1.743e+04 9.648e-08
  8.20615    189.3 1.795e+04 1.162e-07
  8.21611    189.6 1.821e+04 1.405e-07
  8.22547    189.7 1.867e+04 1.630e-07
  8.23045    189.6 1.918e+04 1.857e-07
  8.23603    189.6 1.958e+04 2.626e-07
  8.24599    189.4 1.981e+04 4.286e-07
  8.25596    188.8 1.962e+04 8.270e-07
  8.26592    186.9 1.923e+04 1.561e-06
  8.27542    183.3 1.909e+04 2.116e-06
  8.28040    184.2 1.834e+04 3.842e-06
  8.28584    179.3 1.844e+04 3.643e-06
  8.29580    175.3 1.883e+04 2.484e-06
  8.30577    172.9 1.962e+04 1.146e-06
  8.31573    171.2 2.048e+04 4.787e-07
  8.32537    169.9 2.080e+04 2.577e-07
  8.33035    169.3 2.103e+04 1.827e-07
  8.33565    167.9 2.055e+04 1.390e-07
  8.35064    167.4 1.974e+04 1.104e-07
  8.37062    167.8 1.881e+04 1.070e-07
  8.38783    168.7 1.835e+04 1.060e-07
  8.39780    169.0 1.849e+04 1.179e-07
  8.41046    170.0 1.846e+04 1.202e-07
  8.42536    170.8 1.867e+04 1.230e-07
  8.43532    170.0 1.838e+04 8.596e-08
  8.45031    170.4 1.864e+04 8.822e-08
  8.47024    171.0 1.889e+04 9.306e-08
  8.49016    171.4 1.901e+04 9.620e-08
  8.51008    170.9 1.943e+04 1.103e-07
  8.52498    169.6 2.004e+04 8.989e-08
  8.53014    168.0 2.062e+04 9.590e-08
  8.53517    167.5 1.917e+04 1.961e-08
  8.54993    163.6 1.971e+04 1.665e-08
  8.56483    157.9 1.972e+04 2.862e-08
  8.57474    154.0 1.961e+04 4.723e-08
  8.58009    150.9 2.196e+04 6.500e-08
  8.58508    151.6 1.799e+04 3.004e-08
  8.59466    148.7 1.979e+04 8.793e-08
  8.60462    144.9 1.962e+04 4.150e-07
  8.61459    141.6 1.928e+04 1.069e-06
  8.62455    138.5 1.939e+04 1.280e-06
  8.63004    135.9 1.959e+04 1.086e-06
  8.63502    137.9 1.929e+04 8.084e-07
  8.64447    136.2 1.951e+04 6.061e-07
  8.65443    134.5 2.007e+04 3.414e-07
  8.66440    132.3 2.074e+04 1.866e-07
  8.67436    129.2 2.106e+04 1.179e-07
  8.67999    126.1 2.064e+04 9.478e-08
  8.68497    128.9 2.080e+04 8.709e-08
  8.69428    125.3 2.054e+04 7.288e-08
  8.70034    122.7 2.025e+04 7.598e-08
  8.70532    124.2 1.995e+04 1.066e-07
  8.71421    121.2 1.958e+04 1.408e-07
  8.72417    118.5 1.926e+04 2.995e-07
  8.72994    115.9 1.900e+04 7.375e-07
  8.73492    117.9 1.952e+04 2.606e-07
  8.74409    115.3 1.929e+04 5.375e-07
  8.75405    112.8 1.926e+04 8.094e-07
  8.76402    110.3 1.949e+04 8.432e-07
  8.77398    108.1 1.984e+04 6.595e-07
  8.77989    105.9 2.012e+04 4.271e-07
  8.78487    108.5 2.012e+04 4.093e-07
  8.79390    106.6 2.007e+04 2.933e-07
  8.80386    105.4 1.977e+04 1.885e-07
  8.81383    104.3 1.924e+04 1.380e-07
  8.82491    100.7 1.742e+04 7.345e-08
  8.83492    105.4 1.867e+04 1.106e-07
  8.84879    103.2 1.680e+04 6.147e-08
  8.86871    101.7 1.459e+04 3.337e-08
  8.88864    101.2 1.276e+04 2.042e-08
  8.90856    101.6 1.157e+04 1.388e-08
  8.92486    102.6 1.102e+04 1.028e-08
  8.93482    104.5 1.151e+04 1.302e-08
  8.94841    105.4 1.103e+04 9.830e-09
  8.96833    106.6 1.076e+04 7.836e-09
  8.98826    107.7 1.054e+04 6.395e-09
  9.00307    108.8 1.033e+04 5.438e-09
  9.01304    108.5 1.034e+04 5.383e-09
  9.02476    109.7 1.019e+04 5.056e-09
  9.03472    110.9 1.041e+04 5.647e-09
  9.04803    111.9 1.030e+04 5.576e-09
  9.06795    112.9 1.032e+04 5.699e-09
  9.08788    113.8 1.042e+04 6.269e-09
  9.10780    114.3 1.069e+04 7.620e-09
  9.12465    114.5 1.108e+04 1.001e-08
  9.13462    115.5 1.090e+04 9.263e-09
  9.14765    115.5 1.134e+04 1.217e-08
  9.16757    115.4 1.192e+04 1.633e-08
  9.18750    115.2 1.243e+04 2.074e-08
  9.20742    114.7 1.274e+04 2.324e-08
  9.22455    113.6 1.287e+04 2.375e-08
  9.23452    114.4 1.293e+04 2.463e-08
  9.24727    112.8 1.312e+04 2.600e-08
  9.26719    110.6 1.335e+04 2.805e-08
  9.28712    108.3 1.364e+04 3.213e-08
  9.30704    106.3 1.397e+04 3.697e-08
  9.32445    104.7 1.425e+04 3.961e-08
  9.33441    105.7 1.411e+04 3.786e-08
  9.34689    104.2 1.409e+04 3.705e-08
