# Columns:
#   distance along LOS (in CHIMPs)
#   peculiar velocity  (in km/s)
#   temperature (K)
#   HI number density
# pos=(205.257,103.107,225.281), angles=(1.65138,0.215864)
  0.01968      7.3 1.048e+04 1.305e-09
  0.04979      8.7 1.048e+04 1.536e-09
  0.06985      9.0 1.051e+04 1.107e-09
  0.09216      9.7 1.060e+04 1.528e-09
  0.11212      8.6 1.116e+04 1.920e-09
  0.12944      7.1 1.198e+04 3.572e-09
  0.14950      5.6 1.230e+04 6.958e-09
  0.16957      6.5 1.143e+04 1.467e-08
  0.18786      8.9 1.103e+04 1.841e-08
  0.19789      9.9 1.142e+04 1.988e-08
  0.20969     10.7 1.207e+04 1.157e-08
  0.22975      9.2 1.185e+04 7.423e-09
  0.24981      7.7 1.111e+04 5.400e-09
  0.26987      7.3 1.059e+04 4.371e-09
  0.28375      7.7 1.024e+04 3.841e-09
  0.29378      6.5 1.033e+04 5.509e-09
  0.30130      7.1 1.022e+04 5.323e-09
  0.31133      7.1 1.022e+04 5.396e-09
  0.34018      8.4 1.028e+04 4.539e-09
  0.38039     10.3 1.018e+04 2.949e-09
  0.42052     11.9 9.950e+03 2.368e-09
  0.45567     14.0 9.817e+03 2.464e-09
  0.47573     13.1 1.028e+04 4.373e-09
  0.50076     15.5 1.032e+04 4.540e-09
  0.53075     17.8 1.024e+04 4.554e-09
  0.54297     18.5 1.049e+04 5.144e-09
  0.55300     18.9 1.059e+04 5.232e-09
  0.56140     19.8 1.072e+04 6.134e-09
  0.57143     18.9 1.082e+04 6.628e-09
  0.59083     19.4 1.114e+04 8.404e-09
  0.61089     19.9 1.150e+04 1.102e-08
  0.63095     19.9 1.197e+04 1.508e-08
  0.64726     19.6 1.230e+04 1.928e-08
  0.65729     18.6 1.234e+04 2.135e-08
  0.67108     18.8 1.222e+04 2.184e-08
  0.69114     19.2 1.200e+04 1.801e-08
  0.71120     18.8 1.169e+04 1.170e-08
  0.73126     17.1 1.121e+04 7.361e-09
  0.74315     14.4 1.052e+04 5.359e-09
  0.75318     13.0 1.021e+04 4.679e-09
  0.77138     11.5 9.908e+03 4.441e-09
  0.78465     11.0 9.723e+03 4.275e-09
  0.79468     12.2 9.740e+03 4.160e-09
  0.81150     12.0 9.731e+03 3.810e-09
  0.82901     11.4 9.682e+03 3.435e-09
  0.83904     11.3 9.646e+03 3.329e-09
  0.86175     10.3 9.576e+03 3.262e-09
  0.89184     10.7 9.608e+03 3.502e-09
  0.91180     10.6 9.606e+03 3.589e-09
  0.92491     10.7 9.530e+03 3.909e-09
  0.93494     10.6 9.558e+03 4.127e-09
  0.95192     10.9 9.491e+03 4.187e-09
  0.98211     11.6 9.327e+03 3.424e-09
  1.01096     12.9 9.196e+03 2.834e-09
  1.02518     12.4 9.270e+03 2.881e-09
  1.03645     12.9 9.415e+03 3.351e-09
  1.06235     13.5 9.265e+03 2.804e-09
  1.10257     14.4 9.094e+03 2.327e-09
  1.14269     15.4 9.056e+03 1.974e-09
  1.18269     16.3 9.102e+03 1.992e-09
  1.22281     16.3 8.984e+03 1.966e-09
  1.26305     17.4 9.171e+03 2.164e-09
  1.30317     18.6 9.308e+03 2.281e-09
  1.34329     20.1 9.362e+03 2.332e-09
  1.37447     22.0 9.294e+03 2.254e-09
  1.39453     21.3 9.412e+03 2.231e-09
  1.42354     23.4 9.398e+03 1.964e-09
  1.46366     25.6 9.377e+03 1.824e-09
  1.49365     27.1 9.346e+03 1.823e-09
  1.50966     27.8 9.406e+03 1.873e-09
  1.51970     27.7 9.478e+03 1.915e-09
  1.53367     27.8 9.845e+03 2.082e-09
  1.55373     26.4 1.092e+04 2.927e-09
  1.56606     24.1 1.230e+04 7.194e-09
  1.57609     21.1 1.397e+04 2.381e-08
  1.59385     21.5 1.489e+04 5.597e-08
  1.61391     22.8 1.558e+04 8.516e-08
  1.63398     23.7 1.574e+04 9.200e-08
  1.65192     24.0 1.571e+04 7.308e-08
  1.66196     22.0 1.557e+04 6.261e-08
  1.67410     21.5 1.488e+04 3.972e-08
  1.69416     21.5 1.385e+04 2.293e-08
  1.71422     21.3 1.301e+04 1.437e-08
  1.73428     22.9 1.244e+04 9.361e-09
  1.74782     23.2 1.252e+04 9.349e-09
  1.75485     21.4 1.228e+04 6.715e-09
  1.76137     20.6 1.201e+04 5.117e-09
  1.78453     22.4 1.149e+04 3.754e-09
  1.82474     24.6 1.117e+04 3.378e-09
  1.86487     27.1 1.117e+04 3.484e-09
  1.90499     29.6 1.120e+04 3.772e-09
  1.92977     31.9 1.132e+04 3.932e-09
  1.94983     30.8 1.137e+04 3.583e-09
  1.98318     33.1 1.140e+04 3.278e-09
  2.00324     32.7 1.141e+04 2.367e-09
  2.02535     34.7 1.138e+04 2.195e-09
  2.06547     36.6 1.135e+04 2.118e-09
  2.10149     38.5 1.132e+04 2.122e-09
  2.12155     37.6 1.136e+04 2.244e-09
  2.14571     39.7 1.125e+04 2.127e-09
  2.18583     41.9 1.108e+04 1.852e-09
  2.22595     44.0 1.104e+04 1.562e-09
  2.26607     45.9 1.102e+04 1.395e-09
  2.29328     47.8 1.100e+04 1.374e-09
  2.31334     46.7 1.107e+04 1.440e-09
  2.34632     48.5 1.115e+04 1.608e-09
  2.38644     50.2 1.134e+04 1.992e-09
  2.42656     51.4 1.159e+04 2.744e-09
  2.46500     52.2 1.192e+04 4.222e-09
  2.48491     50.5 1.201e+04 4.705e-09
  2.50664     50.5 1.199e+04 6.218e-09
  2.54692     50.7 1.188e+04 5.997e-09
  2.58704     50.9 1.159e+04 5.116e-09
  2.62716     51.4 1.125e+04 3.684e-09
  2.65679     52.1 1.094e+04 2.478e-09
  2.67685     51.4 1.075e+04 1.856e-09
  2.70740     52.4 1.059e+04 1.468e-09
  2.74752     53.6 1.050e+04 1.190e-09
  2.78764     54.9 1.045e+04 9.837e-10
  2.82776     56.2 1.030e+04 9.017e-10
  2.84857     57.7 1.025e+04 9.077e-10
  2.86863     56.6 1.026e+04 9.281e-10
  2.90801     58.0 1.016e+04 1.001e-09
  2.94813     59.4 1.007e+04 1.130e-09
  2.96993     61.0 9.956e+03 1.278e-09
  2.98999     61.1 1.002e+04 1.539e-09
  3.02030     62.8 9.935e+03 1.717e-09
  3.04036     61.5 9.972e+03 1.627e-09
  3.06849     63.0 9.891e+03 1.574e-09
  3.10861     64.6 9.766e+03 1.452e-09
  3.14873     66.3 9.615e+03 1.285e-09
  3.18885     68.2 9.459e+03 1.125e-09
  3.21208     70.1 9.326e+03 1.012e-09
  3.23214     69.3 9.338e+03 9.399e-10
  3.26909     71.4 9.287e+03 9.204e-10
  3.30921     73.6 9.262e+03 9.769e-10
  3.34934     75.8 9.190e+03 1.130e-09
  3.38381     78.1 9.198e+03 1.396e-09
  3.40387     77.4 9.265e+03 1.458e-09
  3.42958     79.5 9.362e+03 1.868e-09
  3.45327     81.5 9.493e+03 2.358e-09
  3.47333     81.4 9.298e+03 1.917e-09
  3.50982     83.5 9.328e+03 2.095e-09
  3.54994     85.4 9.317e+03 2.134e-09
  3.57559     87.2 9.309e+03 2.116e-09
  3.59565     86.7 9.264e+03 1.829e-09
  3.63018     88.6 9.236e+03 1.819e-09
  3.67030     90.6 9.179e+03 1.777e-09
  3.71042     92.8 9.168e+03 1.658e-09
  3.74732     95.1 9.129e+03 1.503e-09
  3.76738     95.1 9.221e+03 1.595e-09
  3.79066     97.6 9.192e+03 1.437e-09
  3.83079    100.1 9.179e+03 1.269e-09
  3.87091    102.7 9.188e+03 1.115e-09
  3.91103    105.3 9.195e+03 9.885e-10
  3.93662    108.0 9.144e+03 9.054e-10
  3.94463    108.2 9.121e+03 1.014e-09
  3.95916    108.0 9.182e+03 1.068e-09
  3.99127    110.7 9.070e+03 1.037e-09
  4.03139    113.4 9.046e+03 1.050e-09
  4.07151    116.2 9.021e+03 1.105e-09
  4.11083    118.9 9.020e+03 1.286e-09
  4.13089    118.7 9.175e+03 1.683e-09
  4.15175    121.7 9.526e+03 2.292e-09
  4.19187    124.6 9.871e+03 3.067e-09
  4.21665    125.6 9.967e+03 3.417e-09
  4.22658    125.3 1.004e+04 3.779e-09
  4.24183    126.1 1.019e+04 4.642e-09
  4.26189    127.2 1.036e+04 5.702e-09
  4.28195    128.3 1.054e+04 6.737e-09
  4.30201    129.3 1.073e+04 7.669e-09
  4.31245    130.3 1.091e+04 8.483e-09
  4.32248    129.8 1.113e+04 9.058e-09
  4.34213    130.6 1.128e+04 9.611e-09
  4.36219    131.3 1.139e+04 9.873e-09
  4.38225    132.0 1.142e+04 9.865e-09
  4.39831    132.6 1.141e+04 9.810e-09
  4.40834    132.0 1.148e+04 9.665e-09
  4.41977    132.5 1.148e+04 9.162e-09
  4.42980    131.4 1.146e+04 9.079e-09
  4.44243    131.9 1.137e+04 8.375e-09
  4.46249    132.5 1.126e+04 7.623e-09
  4.48255    133.1 1.113e+04 6.955e-09
  4.49420    133.8 1.099e+04 6.388e-09
  4.50423    133.9 1.099e+04 6.113e-09
  4.52267    134.5 1.100e+04 6.030e-09
  4.54273    135.6 1.099e+04 5.807e-09
  4.56280    136.3 1.101e+04 5.798e-09
  4.58006    137.0 1.106e+04 5.836e-09
  4.59009    136.6 1.113e+04 5.446e-09
  4.60292    137.1 1.121e+04 5.519e-09
  4.62298    137.5 1.132e+04 5.753e-09
  4.64304    137.7 1.144e+04 6.074e-09
  4.66144    137.9 1.153e+04 6.268e-09
  4.67147    136.7 1.131e+04 5.415e-09
  4.67596    137.0 1.130e+04 5.280e-09
  4.68599    136.5 1.132e+04 5.041e-09
  4.70322    136.8 1.136e+04 4.705e-09
  4.72328    136.9 1.140e+04 4.343e-09
  4.74334    137.1 1.140e+04 3.884e-09
  4.76182    137.2 1.139e+04 3.439e-09
  4.77185    136.9 1.142e+04 3.402e-09
  4.79359    138.0 1.137e+04 2.960e-09
  4.83381    139.0 1.123e+04 2.252e-09
  4.85791    140.4 1.122e+04 2.007e-09
  4.87797    140.2 1.127e+04 1.807e-09
  4.90331    141.9 1.129e+04 1.819e-09
  4.92337    141.1 1.124e+04 1.412e-09
  4.95417    142.9 1.133e+04 1.452e-09
  4.99429    144.8 1.157e+04 1.602e-09
  5.02963    146.6 1.187e+04 1.846e-09
  5.04969    146.7 1.195e+04 1.792e-09
  5.06440    147.4 1.209e+04 1.958e-09
  5.08437    147.8 1.224e+04 2.186e-09
  5.10443    148.0 1.238e+04 2.685e-09
  5.12449    148.1 1.252e+04 3.602e-09
  5.13536    148.2 1.272e+04 5.025e-09
  5.14539    147.2 1.290e+04 6.249e-09
  5.15482    147.3 1.313e+04 8.292e-09
  5.16485    147.0 1.290e+04 6.309e-09
  5.18467    147.1 1.303e+04 7.579e-09
  5.20473    147.0 1.307e+04 8.084e-09
  5.22122    146.8 1.307e+04 7.971e-09
  5.23125    145.7 1.308e+04 7.535e-09
  5.24485    145.6 1.297e+04 6.856e-09
  5.26491    145.4 1.283e+04 6.163e-09
  5.28497    145.3 1.265e+04 5.672e-09
  5.30503    145.3 1.244e+04 5.554e-09
  5.31711    145.5 1.231e+04 5.601e-09
  5.32714    145.1 1.227e+04 5.414e-09
  5.34515    145.4 1.225e+04 5.442e-09
  5.36521    145.7 1.223e+04 5.437e-09
  5.38527    145.9 1.218e+04 5.378e-09
  5.39649    146.1 1.207e+04 5.167e-09
  5.40426    146.1 1.186e+04 4.327e-09
  5.41320    146.3 1.175e+04 4.029e-09
  5.43562    147.3 1.156e+04 3.549e-09
  5.47574    148.6 1.145e+04 3.019e-09
  5.51586    150.1 1.131e+04 2.751e-09
  5.55598    152.0 1.130e+04 2.756e-09
  5.58493    153.8 1.134e+04 2.870e-09
  5.60499    154.5 1.128e+04 2.726e-09
  5.62609    155.3 1.132e+04 2.924e-09
  5.63817    156.3 1.134e+04 3.227e-09
  5.64820    156.4 1.131e+04 3.241e-09
  5.66612    157.6 1.140e+04 3.720e-09
  5.68062    158.6 1.153e+04 4.276e-09
  5.69065    158.7 1.156e+04 4.618e-09
  5.70624    159.5 1.168e+04 5.287e-09
  5.72630    160.1 1.175e+04 5.897e-09
  5.74636    160.7 1.178e+04 6.466e-09
  5.76642    161.2 1.176e+04 7.004e-09
  5.78648    161.6 1.167e+04 8.477e-09
  5.80654    162.0 1.163e+04 8.894e-09
  5.82660    162.4 1.161e+04 9.484e-09
  5.84666    162.6 1.168e+04 1.033e-08
  5.86238    162.6 1.176e+04 1.157e-08
  5.87241    162.5 1.157e+04 1.105e-08
  5.87984    162.5 1.164e+04 1.173e-08
  5.88987    163.1 1.153e+04 1.066e-08
  5.90684    163.1 1.165e+04 1.164e-08
  5.92690    163.1 1.179e+04 1.242e-08
  5.94696    163.0 1.190e+04 1.273e-08
  5.95827    162.8 1.192e+04 1.273e-08
  5.96830    163.3 1.154e+04 1.025e-08
  5.98708    163.3 1.154e+04 1.033e-08
  6.00714    163.3 1.153e+04 1.036e-08
  6.02721    163.4 1.149e+04 1.029e-08
  6.04413    163.5 1.142e+04 1.003e-08
  6.05416    164.2 1.120e+04 8.968e-09
  6.06733    164.3 1.117e+04 8.866e-09
  6.08739    164.4 1.110e+04 8.499e-09
  6.10745    164.3 1.097e+04 7.866e-09
  6.12151    164.2 1.079e+04 7.102e-09
  6.13154    165.3 1.083e+04 7.634e-09
  6.14003    165.1 1.062e+04 6.775e-09
  6.15006    165.7 1.061e+04 6.924e-09
  6.16763    165.5 1.040e+04 6.234e-09
  6.18769    165.3 1.019e+04 5.718e-09
  6.20775    165.0 1.004e+04 5.419e-09
  6.22589    164.8 9.923e+03 5.301e-09
  6.23592    165.3 9.921e+03 5.396e-09
  6.24787    165.0 9.833e+03 5.404e-09
  6.26793    164.7 9.832e+03 5.411e-09
  6.28799    164.3 9.850e+03 5.470e-09
  6.30805    163.4 9.954e+03 5.749e-09
  6.32178    162.2 1.026e+04 6.670e-09
  6.33181    162.2 1.028e+04 6.818e-09
  6.34817    160.9 1.074e+04 8.631e-09
  6.36318    159.8 1.120e+04 1.117e-08
  6.37321    160.8 1.096e+04 1.030e-08
  6.38829    159.8 1.121e+04 1.166e-08
  6.40764    158.7 1.133e+04 1.198e-08
  6.41767    158.9 1.132e+04 1.223e-08
  6.42841    157.6 1.133e+04 1.223e-08
  6.44847    156.3 1.129e+04 1.195e-08
  6.47866    154.6 1.097e+04 1.025e-08
  6.50373    152.2 1.071e+04 9.297e-09
  6.52379    153.4 1.097e+04 1.042e-08
  6.54887    150.3 1.127e+04 1.136e-08
  6.56884    147.8 1.153e+04 1.238e-08
  6.58890    146.0 1.156e+04 1.238e-08
  6.59943    144.0 1.159e+04 1.233e-08
  6.60536    143.6 1.195e+04 1.501e-08
  6.61489    144.5 1.172e+04 1.297e-08
  6.62902    142.4 1.171e+04 1.285e-08
  6.64908    140.5 1.163e+04 1.224e-08
  6.66914    138.8 1.145e+04 1.131e-08
  6.68529    137.3 1.122e+04 1.058e-08
  6.69532    137.3 1.143e+04 1.166e-08
  6.70926    136.0 1.139e+04 1.164e-08
  6.72932    134.8 1.143e+04 1.190e-08
  6.74938    133.5 1.164e+04 1.314e-08
  6.76944    132.0 1.203e+04 1.575e-08
  6.78118    130.6 1.239e+04 1.872e-08
  6.79121    130.1 1.242e+04 1.894e-08
  6.80956    128.5 1.249e+04 1.942e-08
  6.82962    127.2 1.239e+04 1.873e-08
  6.84653    126.1 1.205e+04 1.604e-08
  6.85656    125.4 1.176e+04 1.435e-08
  6.86705    124.2 1.131e+04 1.155e-08
  6.87708    123.8 1.111e+04 1.043e-08
  6.88980    122.7 1.062e+04 8.223e-09
  6.90986    121.8 1.020e+04 7.070e-09
  6.92992    121.5 1.012e+04 6.943e-09
  6.94998    121.4 1.012e+04 6.949e-09
  6.96294    121.5 1.014e+04 7.034e-09
  6.97297    121.5 9.892e+03 5.892e-09
  6.99010    121.8 9.948e+03 6.004e-09
  7.01017    122.2 1.010e+04 6.350e-09
  7.03023    122.5 1.034e+04 6.996e-09
  7.04880    122.9 1.061e+04 7.931e-09
  7.05883    123.3 1.029e+04 6.422e-09
  7.07035    123.4 1.059e+04 7.487e-09
  7.08820    123.3 1.136e+04 1.014e-08
  7.09823    122.4 1.242e+04 1.336e-08
  7.11047    119.6 1.624e+04 3.790e-08
  7.13053    115.8 1.946e+04 9.315e-08
  7.14464    114.5 2.044e+04 1.419e-07
  7.14961    118.7 2.012e+04 1.114e-07
  7.15551    114.2 2.130e+04 3.020e-07
  7.16554    107.6 2.190e+04 6.867e-07
  7.17557     98.0 2.256e+04 1.115e-06
  7.18560     85.3 2.470e+04 9.980e-07
  7.19254     71.6 2.664e+04 6.098e-07
  7.19756     72.0 2.348e+04 1.730e-06
  7.20566     59.6 2.757e+04 4.000e-07
  7.21396     49.3 2.335e+04 1.544e-07
  7.21897     45.0 1.846e+04 1.047e-07
  7.22572     44.6 1.838e+04 9.165e-08
  7.23547     42.5 1.741e+04 7.457e-08
  7.24049     40.6 1.713e+04 7.872e-08
  7.25084     37.6 1.701e+04 6.478e-08
  7.27095     35.5 1.540e+04 3.854e-08
  7.29101     34.3 1.386e+04 2.182e-08
  7.31107     33.2 1.286e+04 1.370e-08
  7.32645     32.4 1.231e+04 1.053e-08
  7.33522     32.7 1.285e+04 1.419e-08
  7.33991     32.0 1.250e+04 1.003e-08
  7.36132     30.9 1.200e+04 6.881e-09
  7.40154     30.2 1.162e+04 5.275e-09
  7.42254     30.0 1.117e+04 3.665e-09
  7.44260     29.1 1.167e+04 5.270e-09
  7.48178     29.2 1.102e+04 3.270e-09
  7.52190     29.6 1.025e+04 2.381e-09
  7.56202     30.6 9.866e+03 2.282e-09
  7.59426     31.8 9.823e+03 2.343e-09
  7.61432     31.9 9.918e+03 2.544e-09
  7.64226     33.0 9.940e+03 2.899e-09
  7.68238     33.5 1.005e+04 3.650e-09
  7.72251     33.6 1.014e+04 4.477e-09
  7.76263     33.7 1.008e+04 4.547e-09
  7.78605     34.0 9.848e+03 4.069e-09
  7.80611     34.7 1.006e+04 5.145e-09
  7.82345     35.6 9.481e+03 2.943e-09
  7.84351     36.4 9.875e+03 4.442e-09
  7.88299     37.4 9.346e+03 2.630e-09
  7.92311     38.3 8.875e+03 1.248e-09
  7.95777     39.0 8.514e+03 7.014e-10
  7.97783     39.5 8.526e+03 6.723e-10
  8.00335     40.8 8.435e+03 6.591e-10
  8.04347     42.7 8.391e+03 6.978e-10
  8.08359     44.7 8.405e+03 8.175e-10
  8.12371     46.6 8.502e+03 9.499e-10
  8.14956     48.4 8.620e+03 1.034e-09
  8.16962     49.3 8.622e+03 1.025e-09
  8.20395     50.8 8.729e+03 1.113e-09
  8.24408     52.1 8.937e+03 1.449e-09
  8.28420     53.3 9.300e+03 2.281e-09
  8.30679     54.5 9.820e+03 3.723e-09
  8.32382     55.3 9.795e+03 3.485e-09
  8.34134     56.3 9.934e+03 4.144e-09
  8.36444     57.3 1.052e+04 5.835e-09
  8.40456     57.5 1.070e+04 5.885e-09
  8.44468     57.9 1.064e+04 5.091e-09
  8.48480     58.5 1.047e+04 3.073e-09
  8.51306     58.8 1.025e+04 1.389e-09
  8.53313     60.0 1.064e+04 2.877e-09
  8.56504     59.9 1.049e+04 1.553e-09
  8.60516     59.4 1.023e+04 1.233e-09
  8.64528     58.8 1.013e+04 1.409e-09
  8.68479     58.7 1.013e+04 2.009e-09
  8.70485     59.2 1.032e+04 2.319e-09
  8.72553     59.1 1.032e+04 2.390e-09
  8.76565     59.1 1.031e+04 2.276e-09
  8.79014     59.0 1.037e+04 2.173e-09
  8.81020     59.8 1.049e+04 2.285e-09
  8.84589     59.5 1.059e+04 2.388e-09
  8.87657     59.2 1.074e+04 2.646e-09
  8.89664     59.5 1.076e+04 2.618e-09
  8.92613     58.9 1.081e+04 2.688e-09
  8.96625     58.3 1.075e+04 2.547e-09
  9.00637     58.0 1.060e+04 2.018e-09
  9.04649     57.7 1.047e+04 1.459e-09
  9.06836     57.4 1.041e+04 1.169e-09
  9.08842     58.3 1.042e+04 1.375e-09
  9.12673     58.2 1.042e+04 1.299e-09
  9.16685     58.2 1.043e+04 1.286e-09
  9.20698     58.0 1.043e+04 1.357e-09
  9.24008     57.7 1.050e+04 1.487e-09
  9.26014     58.1 1.058e+04 1.551e-09
  9.27349     57.4 1.065e+04 1.754e-09
  9.29355     57.2 1.072e+04 1.552e-09
  9.32734     57.1 1.077e+04 1.720e-09
  9.36746     57.0 1.078e+04 1.733e-09
  9.40758     57.3 1.080e+04 1.605e-09
  9.43187     57.9 1.085e+04 1.341e-09
  9.45193     57.7 1.088e+04 1.413e-09
  9.48782     58.5 1.089e+04 1.252e-09
  9.52794     59.6 1.087e+04 1.252e-09
  9.56806     60.8 1.087e+04 1.288e-09
  9.60359     62.2 1.090e+04 1.379e-09
  9.62365     62.2 1.076e+04 1.347e-09
  9.64830     63.6 1.077e+04 1.347e-09
  9.68843     64.9 1.080e+04 1.318e-09
  9.72855     66.2 1.083e+04 1.299e-09
  9.75683     67.4 1.085e+04 1.321e-09
  9.77689     67.9 1.089e+04 1.246e-09
  9.79538     69.0 1.094e+04 1.340e-09
  9.81544     69.0 1.085e+04 1.192e-09
  9.84891     70.2 1.090e+04 1.511e-09
  9.88903     71.4 1.094e+04 2.159e-09
  9.92915     72.7 1.109e+04 3.171e-09
  9.96710     73.8 1.129e+04 3.633e-09
  9.98716     74.2 1.099e+04 2.274e-09
 10.00939     75.1 1.107e+04 2.271e-09
 10.04951     75.8 1.114e+04 2.149e-09
 10.08963     76.6 1.123e+04 1.781e-09
 10.12975     77.2 1.134e+04 1.311e-09
 10.15889     77.7 1.146e+04 8.954e-10
 10.17895     78.8 1.135e+04 1.095e-09
 10.21000     79.3 1.146e+04 9.109e-10
 10.24018     79.9 1.148e+04 8.583e-10
 10.26024     79.9 1.151e+04 8.671e-10
 10.29024     80.6 1.150e+04 9.008e-10
 10.33036     81.4 1.153e+04 1.075e-09
 10.35067     81.7 1.163e+04 1.480e-09
 10.37073     82.2 1.165e+04 1.461e-09
 10.41060     82.2 1.174e+04 1.956e-09
 10.45072     82.0 1.186e+04 2.915e-09
 10.49084     81.6 1.207e+04 4.502e-09
 10.52240     80.9 1.250e+04 5.827e-09
 10.54246     81.5 1.225e+04 4.426e-09
 10.57108     80.7 1.258e+04 4.735e-09
 10.61120     79.9 1.263e+04 4.504e-09
 10.65133     79.7 1.272e+04 3.652e-09
 10.69145     79.8 1.293e+04 2.810e-09
 10.71418     80.1 1.303e+04 2.694e-09
 10.72620     81.2 1.298e+04 2.642e-09
 10.74358     81.7 1.283e+04 2.242e-09
 10.77169     82.1 1.300e+04 2.414e-09
 10.81181     82.4 1.326e+04 3.352e-09
 10.85193     82.6 1.342e+04 5.153e-09
 10.88591     82.2 1.384e+04 9.271e-09
 10.90597     83.9 1.383e+04 7.955e-09
 10.92204     82.5 1.419e+04 1.080e-08
 10.94201     81.4 1.445e+04 1.383e-08
 10.96207     80.2 1.457e+04 1.610e-08
 10.97503     79.2 1.458e+04 1.621e-08
 10.98454     79.8 1.466e+04 1.505e-08
 10.99164     80.7 1.462e+04 1.512e-08
 11.00219     79.7 1.460e+04 1.472e-08
 11.02225     78.9 1.450e+04 1.327e-08
 11.05244     77.3 1.424e+04 1.026e-08
 11.07769     77.1 1.382e+04 6.812e-09
 11.09775     78.8 1.384e+04 8.367e-09
 11.13277     78.8 1.364e+04 6.362e-09
 11.17290     79.0 1.364e+04 5.017e-09
 11.20687     79.3 1.372e+04 3.849e-09
 11.22693     79.5 1.374e+04 3.111e-09
 11.24942     79.7 1.384e+04 2.419e-09
 11.26948     81.1 1.385e+04 3.536e-09
 11.29326     80.8 1.394e+04 2.455e-09
 11.33338     80.7 1.404e+04 1.592e-09
 11.37350     80.8 1.428e+04 9.496e-10
 11.41362     80.7 1.385e+04 6.976e-10
 11.44120     80.9 1.353e+04 6.976e-10
 11.46126     81.7 1.405e+04 7.348e-10
 11.49386     82.0 1.390e+04 7.608e-10
 11.53398     82.3 1.354e+04 9.222e-10
 11.57410     82.7 1.329e+04 1.197e-09
 11.61293     83.1 1.315e+04 1.383e-09
 11.63299     83.1 1.328e+04 1.370e-09
 11.65435     83.3 1.319e+04 1.350e-09
 11.69021     83.6 1.312e+04 1.245e-09
 11.71027     83.6 1.314e+04 1.631e-09
 11.73459     83.7 1.303e+04 1.746e-09
 11.77471     84.2 1.297e+04 1.973e-09
