# Columns:
#   distance along LOS (in CHIMPs)
#   peculiar velocity  (in km/s)
#   temperature (K)
#   HI number density
# pos=(147.501,54.0754,168.564), angles=(2.96844,2.01375)
  0.00074    -22.1 1.206e+04 2.165e-09
  0.00602    -22.0 1.197e+04 2.256e-09
  0.03039    -20.9 1.191e+04 3.083e-09
  0.07004    -19.8 1.194e+04 4.207e-09
  0.10970    -18.9 1.206e+04 5.399e-09
  0.14936    -18.2 1.216e+04 6.662e-09
  0.17241    -17.7 1.226e+04 7.959e-09
  0.19223    -19.5 1.203e+04 7.187e-09
  0.22867    -18.9 1.206e+04 8.524e-09
  0.26832    -18.2 1.216e+04 9.557e-09
  0.30798    -17.9 1.234e+04 1.023e-08
  0.34763    -18.1 1.267e+04 1.138e-08
  0.37728    -20.6 1.347e+04 1.654e-08
  0.39701    -22.3 1.416e+04 2.450e-08
  0.41665    -23.9 1.480e+04 3.502e-08
  0.42657    -25.5 1.478e+04 3.534e-08
  0.43666    -27.8 1.491e+04 3.772e-08
  0.45649    -30.3 1.437e+04 2.924e-08
  0.47632    -33.5 1.299e+04 1.564e-08
  0.49615    -36.8 1.171e+04 9.286e-09
  0.51597    -39.0 1.138e+04 7.309e-09
  0.52818    -40.4 1.146e+04 6.716e-09
  0.54811    -42.5 1.103e+04 4.474e-09
  0.58557    -46.3 1.081e+04 3.319e-09
  0.61521    -49.2 1.081e+04 3.319e-09
  0.63494    -51.7 1.094e+04 4.009e-09
  0.65477    -54.7 1.068e+04 5.055e-09
  0.67101    -56.8 1.066e+04 6.252e-09
  0.68092    -58.1 1.078e+04 6.856e-09
  0.69442    -60.2 1.084e+04 7.416e-09
  0.71425    -62.4 1.094e+04 7.805e-09
  0.73408    -64.4 1.103e+04 8.294e-09
  0.75391    -66.1 1.111e+04 9.001e-09
  0.78375    -67.4 1.123e+04 1.016e-08
  0.82350    -68.5 1.156e+04 1.296e-08
  0.86315    -69.0 1.165e+04 1.453e-08
  0.90281    -69.6 1.161e+04 1.475e-08
  0.92556    -69.9 1.126e+04 1.288e-08
  0.94539    -71.8 1.122e+04 1.258e-08
  0.97211    -71.5 1.096e+04 1.112e-08
  0.99184    -71.7 1.101e+04 1.125e-08
  1.01167    -72.0 1.089e+04 1.093e-08
  1.03149    -73.6 1.171e+04 1.387e-08
  1.04758    -76.1 1.320e+04 2.318e-08
  1.05651    -76.9 1.414e+04 3.649e-08
  1.06025    -77.2 1.336e+04 2.930e-08
  1.07115    -78.7 1.417e+04 3.981e-08
  1.09098    -80.3 1.474e+04 5.069e-08
  1.11081    -81.8 1.501e+04 5.900e-08
  1.13063    -83.2 1.502e+04 6.076e-08
  1.15046    -84.1 1.450e+04 5.553e-08
  1.16980    -84.8 1.357e+04 3.953e-08
  1.17972    -85.6 1.266e+04 2.525e-08
  1.19012    -86.6 1.184e+04 1.767e-08
  1.20994    -87.7 1.107e+04 1.266e-08
  1.22977    -88.6 1.045e+04 9.727e-09
  1.24960    -89.1 9.985e+03 8.029e-09
  1.26943    -89.2 9.667e+03 7.031e-09
  1.28925    -89.3 9.481e+03 6.462e-09
  1.30194    -89.2 9.419e+03 6.236e-09
  1.31185    -89.7 9.536e+03 6.479e-09
  1.32138    -89.8 9.548e+03 6.485e-09
  1.33129    -89.1 9.424e+03 5.880e-09
  1.34874    -89.9 9.609e+03 6.190e-09
  1.36857    -91.0 1.016e+04 7.904e-09
  1.38839    -92.0 1.087e+04 1.114e-08
  1.40822    -92.8 1.160e+04 1.528e-08
  1.42416    -93.5 1.222e+04 1.951e-08
  1.43407    -93.9 1.203e+04 1.819e-08
  1.44788    -95.1 1.263e+04 2.162e-08
  1.46770    -97.1 1.354e+04 2.599e-08
  1.48753    -99.8 1.486e+04 3.452e-08
  1.50736   -102.9 1.606e+04 4.942e-08
  1.52218   -105.8 1.704e+04 7.353e-08
  1.53205   -106.1 1.766e+04 7.416e-08
  1.54196   -113.4 3.894e+04 3.761e-08
  1.55124   -137.1 5.899e+04 3.757e-08
  1.55620   -117.6 3.546e+04 1.339e-07
  1.56179   -136.2 3.317e+04 6.338e-07
  1.56920   -156.4 1.874e+04 9.492e-06
  1.57413   -162.8 1.680e+04 2.831e-05
  1.57909   -171.6 1.573e+04 6.617e-05
  1.58405   -181.2 1.554e+04 6.955e-05
  1.58670   -189.7 1.665e+04 2.278e-05
  1.58749   -181.2 1.622e+04 3.037e-05
  1.58979   -193.0 1.842e+04 8.199e-06
  1.59396   -199.5 2.197e+04 1.740e-06
  1.59892   -206.6 2.563e+04 2.566e-07
  1.60387   -210.8 2.606e+04 9.597e-08
  1.61133   -216.3 2.082e+04 4.095e-08
  1.61731   -220.9 1.403e+04 2.212e-08
  1.62226   -220.4 1.358e+04 2.272e-08
  1.63119   -220.9 1.265e+04 2.000e-08
  1.64110   -220.9 1.249e+04 1.938e-08
  1.65101   -220.8 1.243e+04 1.903e-08
  1.66593   -220.8 1.234e+04 1.841e-08
  1.67851   -220.4 1.209e+04 1.725e-08
  1.68843   -220.0 1.253e+04 2.146e-08
  1.70564   -219.8 1.220e+04 1.991e-08
  1.72546   -219.3 1.187e+04 1.826e-08
  1.74529   -218.6 1.155e+04 1.629e-08
  1.76512   -217.8 1.121e+04 1.407e-08
  1.78495   -216.8 1.086e+04 1.192e-08
  1.80073   -215.8 1.052e+04 1.008e-08
  1.81065   -215.3 1.053e+04 1.102e-08
  1.82460   -214.3 1.025e+04 9.651e-09
  1.84363   -213.1 9.982e+03 8.547e-09
  1.85355   -212.7 9.889e+03 7.918e-09
  1.86426   -211.6 9.611e+03 6.783e-09
  1.88409   -210.2 9.356e+03 5.748e-09
  1.90391   -208.5 9.142e+03 4.781e-09
  1.92296   -206.8 8.995e+03 3.984e-09
  1.93287   -206.9 9.004e+03 4.498e-09
  1.94357   -205.2 8.879e+03 3.839e-09
  1.97341   -203.4 8.887e+03 3.484e-09
  2.01316   -201.5 8.834e+03 3.106e-09
  2.05282   -198.8 8.731e+03 2.770e-09
  2.09247   -196.0 8.673e+03 2.629e-09
  2.11487   -193.3 8.658e+03 2.603e-09
  2.13470   -193.1 8.605e+03 2.163e-09
  2.16759   -190.5 8.697e+03 2.323e-09
  2.18742   -190.6 8.926e+03 2.973e-09
  2.21144   -187.9 8.806e+03 2.842e-09
  2.25110   -185.3 8.663e+03 2.624e-09
  2.29075   -182.6 8.538e+03 2.422e-09
  2.33041   -179.9 8.440e+03 2.219e-09
  2.37006   -177.2 8.367e+03 2.008e-09
  2.40972   -174.4 8.307e+03 1.799e-09
  2.43186   -171.6 8.264e+03 1.614e-09
  2.45169   -171.0 8.142e+03 1.060e-09
  2.48903   -168.2 8.191e+03 9.705e-10
  2.52868   -165.4 8.242e+03 9.230e-10
  2.56834   -162.6 8.262e+03 9.102e-10
  2.60799   -159.9 8.268e+03 9.090e-10
  2.63712   -157.4 8.348e+03 9.083e-10
  2.65695   -157.4 8.479e+03 1.200e-09
  2.67630   -155.0 8.511e+03 1.198e-09
  2.69613   -154.6 8.541e+03 1.153e-09
  2.72696   -152.5 8.788e+03 1.239e-09
  2.76662   -150.7 8.990e+03 1.505e-09
  2.80627   -149.1 9.193e+03 1.954e-09
  2.84593   -147.9 9.410e+03 2.501e-09
  2.88558   -147.0 9.637e+03 2.992e-09
  2.92074   -146.3 9.860e+03 3.353e-09
  2.94057   -145.4 9.896e+03 3.359e-09
  2.96489   -144.7 9.979e+03 3.356e-09
  3.00455   -143.9 1.021e+04 3.160e-09
  3.04420   -143.0 1.037e+04 3.059e-09
  3.08386   -142.3 1.061e+04 3.081e-09
  3.12352   -141.6 1.078e+04 3.219e-09
  3.15316   -140.7 1.091e+04 3.163e-09
  3.16909   -140.3 1.091e+04 3.310e-09
  3.17901   -139.1 1.090e+04 2.572e-09
  3.18492   -138.4 1.094e+04 2.384e-09
  3.20484   -137.9 1.103e+04 3.019e-09
  3.24248   -136.2 1.121e+04 3.291e-09
  3.28214   -134.4 1.143e+04 3.579e-09
  3.32179   -132.3 1.163e+04 3.956e-09
  3.36145   -130.1 1.174e+04 4.351e-09
  3.40110   -127.9 1.179e+04 4.684e-09
  3.42945   -125.7 1.186e+04 5.106e-09
  3.43884   -126.4 1.205e+04 5.970e-09
  3.44013   -126.3 1.217e+04 6.032e-09
  3.45048   -125.6 1.227e+04 6.439e-09
  3.47031   -124.7 1.238e+04 7.050e-09
  3.49013   -124.0 1.249e+04 7.807e-09
  3.50996   -123.1 1.257e+04 8.793e-09
  3.52979   -122.2 1.259e+04 9.731e-09
  3.54962   -121.2 1.258e+04 1.061e-08
  3.56139   -120.1 1.256e+04 1.130e-08
  3.57131   -120.7 1.252e+04 1.257e-08
  3.58927   -119.4 1.238e+04 1.144e-08
  3.60910   -118.1 1.226e+04 1.071e-08
  3.62893   -116.9 1.215e+04 1.019e-08
  3.64876   -115.6 1.206e+04 9.897e-09
  3.66858   -114.1 1.202e+04 9.840e-09
  3.68361   -112.5 1.200e+04 1.010e-08
  3.69353   -112.6 1.167e+04 7.658e-09
  3.70126   -111.0 1.176e+04 7.883e-09
  3.71117   -110.9 1.218e+04 1.243e-08
  3.72807   -109.7 1.235e+04 1.286e-08
  3.74789   -108.6 1.275e+04 1.403e-08
  3.76772   -107.8 1.333e+04 1.855e-08
  3.78755   -107.3 1.405e+04 2.921e-08
  3.80583   -106.6 1.493e+04 4.734e-08
  3.81575   -107.4 1.564e+04 6.982e-08
  3.82720   -106.6 1.653e+04 1.050e-07
  3.84703   -106.6 1.707e+04 1.298e-07
  3.86686   -107.0 1.721e+04 1.370e-07
  3.88669   -107.6 1.722e+04 1.378e-07
  3.90652   -108.3 1.719e+04 1.380e-07
  3.92634   -109.1 1.720e+04 1.424e-07
  3.93797   -109.8 1.726e+04 1.477e-07
  3.94788   -111.6 1.686e+04 1.304e-07
  3.96239   -112.2 1.644e+04 1.081e-07
  3.97230   -112.3 1.614e+04 9.580e-08
  3.98583   -113.2 1.567e+04 7.625e-08
  4.00565   -114.3 1.520e+04 6.108e-08
  4.02548   -115.5 1.493e+04 5.226e-08
  4.04531   -116.7 1.486e+04 4.740e-08
  4.06019   -117.9 1.488e+04 4.505e-08
  4.07010   -117.8 1.400e+04 3.506e-08
  4.08497   -119.1 1.415e+04 3.642e-08
  4.10479   -120.4 1.415e+04 3.698e-08
  4.12462   -121.6 1.387e+04 3.529e-08
  4.14445   -122.3 1.348e+04 2.998e-08
  4.16428   -122.9 1.313e+04 2.476e-08
  4.18241   -123.2 1.285e+04 2.090e-08
  4.19232   -122.6 1.248e+04 1.783e-08
  4.20393   -122.8 1.218e+04 1.489e-08
  4.22351   -122.9 1.181e+04 1.223e-08
  4.23343   -122.0 1.236e+04 1.748e-08
  4.24359   -121.9 1.194e+04 1.424e-08
  4.26342   -121.9 1.147e+04 1.120e-08
  4.28324   -121.8 1.097e+04 8.667e-09
  4.30307   -121.7 1.050e+04 6.743e-09
  4.31454   -121.6 1.008e+04 5.371e-09
  4.32446   -121.8 9.683e+03 3.561e-09
  4.34273   -121.5 9.365e+03 2.910e-09
  4.36255   -121.1 9.148e+03 2.498e-09
  4.38238   -120.5 9.000e+03 2.236e-09
  4.40221   -119.9 8.881e+03 2.068e-09
  4.42204   -119.3 8.798e+03 1.976e-09
  4.43677   -118.6 8.779e+03 1.948e-09
  4.44678   -118.9 8.726e+03 1.512e-09
  4.47180   -117.8 8.721e+03 1.543e-09
  4.49465   -117.9 8.758e+03 1.723e-09
  4.50447   -116.7 8.623e+03 1.687e-09
  4.52118   -116.6 8.751e+03 1.953e-09
  4.54100   -116.6 8.869e+03 2.419e-09
  4.55899   -116.8 9.071e+03 3.163e-09
  4.56890   -116.9 9.151e+03 3.281e-09
  4.58066   -117.2 9.424e+03 4.358e-09
  4.60049   -117.6 9.760e+03 5.712e-09
  4.62031   -118.3 1.010e+04 7.123e-09
  4.64014   -119.4 1.039e+04 8.302e-09
  4.65997   -120.7 1.062e+04 9.102e-09
  4.67980   -122.3 1.080e+04 9.629e-09
  4.69112   -124.3 1.096e+04 1.010e-08
  4.70103   -124.4 1.116e+04 1.210e-08
  4.71945   -126.5 1.135e+04 1.269e-08
  4.73928   -128.9 1.152e+04 1.312e-08
  4.75568   -131.4 1.160e+04 1.323e-08
  4.76560   -130.2 1.195e+04 1.686e-08
  4.77894   -133.0 1.194e+04 1.644e-08
  4.79876   -135.8 1.181e+04 1.457e-08
  4.81334   -138.6 1.163e+04 1.248e-08
  4.82326   -137.9 1.155e+04 1.185e-08
  4.83842   -140.5 1.133e+04 1.011e-08
  4.85825   -143.0 1.122e+04 9.262e-09
  4.87807   -145.3 1.116e+04 8.897e-09
  4.89790   -147.3 1.107e+04 8.641e-09
  4.91773   -149.2 1.093e+04 8.307e-09
  4.93556   -150.7 1.074e+04 7.820e-09
  4.94548   -150.2 1.095e+04 8.626e-09
  4.95739   -151.4 1.078e+04 8.358e-09
  4.97721   -152.3 1.058e+04 7.717e-09
  4.99704   -153.0 1.037e+04 6.979e-09
  5.01681   -153.4 1.018e+04 6.292e-09
  5.03664   -153.8 1.017e+04 6.306e-09
  5.05652   -153.9 1.004e+04 5.747e-09
  5.06770   -153.9 9.966e+03 5.375e-09
  5.07761   -153.8 1.011e+04 5.757e-09
  5.09618   -153.8 1.005e+04 5.484e-09
  5.11601   -153.7 1.003e+04 5.344e-09
  5.13584   -153.6 1.003e+04 5.279e-09
  5.15566   -153.5 1.004e+04 5.249e-09
  5.17549   -153.5 1.004e+04 5.245e-09
  5.18992   -153.5 1.006e+04 5.259e-09
  5.19983   -153.4 1.010e+04 5.503e-09
  5.21515   -153.5 1.011e+04 5.419e-09
  5.23497   -153.6 1.009e+04 5.294e-09
  5.25480   -153.7 1.005e+04 5.121e-09
  5.27463   -153.8 9.993e+03 4.928e-09
  5.28785   -153.8 9.940e+03 4.736e-09
  5.29776   -154.1 1.008e+04 5.593e-09
  5.31214   -154.1 1.006e+04 5.458e-09
  5.32205   -153.8 1.008e+04 5.555e-09
  5.33411   -153.8 1.007e+04 5.541e-09
  5.35394   -153.8 1.008e+04 5.553e-09
  5.37377   -153.7 1.013e+04 5.649e-09
  5.39360   -153.5 1.017e+04 5.768e-09
  5.41342   -153.4 1.022e+04 5.872e-09
  5.43325   -153.2 1.026e+04 5.943e-09
  5.44427   -153.0 1.030e+04 5.964e-09
  5.45419   -153.1 1.037e+04 6.366e-09
  5.47291   -153.0 1.035e+04 6.014e-09
  5.49273   -153.0 1.030e+04 5.545e-09
  5.51256   -153.0 1.023e+04 4.979e-09
  5.53239   -153.0 1.015e+04 4.350e-09
  5.54898   -152.9 1.006e+04 3.701e-09
  5.55889   -153.5 1.015e+04 3.810e-09
  5.56649   -153.4 1.008e+04 3.297e-09
  5.57641   -153.7 1.006e+04 2.824e-09
  5.59187   -153.5 1.008e+04 2.584e-09
  5.61170   -153.2 1.012e+04 2.513e-09
  5.63153   -153.0 1.015e+04 2.501e-09
  5.65136   -152.9 1.034e+04 2.571e-09
  5.67118   -152.7 1.049e+04 2.807e-09
  5.68871   -152.5 1.059e+04 3.143e-09
  5.69863   -152.5 1.058e+04 3.317e-09
  5.71084   -152.2 1.066e+04 3.802e-09
  5.73067   -151.6 1.064e+04 4.161e-09
  5.75050   -150.7 1.061e+04 4.267e-09
  5.78033   -148.6 1.043e+04 3.743e-09
  5.81030   -147.2 1.034e+04 3.478e-09
  5.83013   -147.7 1.008e+04 3.281e-09
  5.85974   -146.3 9.956e+03 2.583e-09
  5.89940   -144.0 9.703e+03 1.907e-09
  5.93335   -141.6 9.594e+03 1.521e-09
  5.95318   -141.1 9.258e+03 1.273e-09
  5.97871   -138.8 9.362e+03 1.104e-09
  6.01836   -136.5 9.416e+03 1.069e-09
  6.05802   -134.4 9.591e+03 1.075e-09
  6.09768   -132.6 1.006e+04 1.396e-09
  6.13733   -130.8 1.034e+04 2.197e-09
  6.17699   -128.9 1.064e+04 3.225e-09
  6.19762   -127.0 1.097e+04 3.972e-09
  6.21745   -125.9 1.063e+04 3.239e-09
  6.25630   -124.0 1.097e+04 3.666e-09
  6.29595   -122.1 1.109e+04 3.738e-09
  6.31974   -121.0 1.109e+04 3.279e-09
  6.32956   -120.5 1.119e+04 3.390e-09
  6.34227   -119.3 1.125e+04 3.032e-09
  6.35228   -120.9 1.109e+04 2.980e-09
  6.37526   -118.6 1.111e+04 2.409e-09
  6.41492   -115.5 1.109e+04 1.810e-09
  6.44206   -112.6 1.120e+04 1.443e-09
  6.46189   -111.7 1.113e+04 1.803e-09
  6.49423   -108.9 1.130e+04 1.578e-09
  6.53389   -105.8 1.141e+04 1.500e-09
  6.57354   -102.7 1.144e+04 1.487e-09
  6.61320    -99.8 1.193e+04 1.461e-09
  6.65285    -97.1 1.250e+04 1.853e-09
  6.68650    -94.5 1.254e+04 3.181e-09
  6.70633    -93.8 1.253e+04 3.878e-09
  6.73216    -91.3 1.272e+04 6.004e-09
  6.77182    -89.0 1.298e+04 8.852e-09
  6.81147    -87.0 1.320e+04 1.229e-08
  6.84112    -85.0 1.328e+04 1.354e-08
  6.86085    -83.7 1.339e+04 1.488e-08
  6.87444    -82.8 1.361e+04 1.633e-08
  6.88435    -81.8 1.365e+04 1.531e-08
  6.90050    -81.7 1.443e+04 1.942e-08
  6.92033    -83.8 1.688e+04 4.661e-08
  6.93515    -84.7 1.810e+04 1.302e-07
  6.94502    -84.9 1.841e+04 3.184e-07
  6.95048    -84.8 1.849e+04 7.873e-07
  6.95543    -84.9 1.835e+04 1.008e-06
  6.96485    -84.8 1.798e+04 2.600e-06
  6.97476    -87.7 1.781e+04 3.684e-06
  6.98467    -91.6 1.772e+04 3.668e-06
  6.99459    -93.1 1.805e+04 2.015e-06
  7.00450    -93.4 1.869e+04 7.450e-07
  7.00986    -93.5 1.900e+04 2.749e-07
  7.01199    -95.1 1.940e+04 1.834e-07
  7.01655    -96.0 1.929e+04 3.027e-07
  7.02433    -96.8 1.905e+04 1.486e-07
  7.03424    -97.6 1.818e+04 1.075e-07
  7.04416    -97.9 1.730e+04 8.833e-08
  7.05407    -98.0 1.686e+04 7.744e-08
  7.06399    -97.7 1.672e+04 7.279e-08
  7.07270    -97.7 1.671e+04 7.209e-08
  7.07766    -97.9 1.772e+04 1.176e-07
  7.08381    -98.3 1.829e+04 1.323e-07
  7.09373    -99.0 1.868e+04 1.684e-07
  7.10364    -99.7 1.878e+04 2.290e-07
  7.11355   -100.0 1.867e+04 3.288e-07
  7.12347    -99.9 1.851e+04 4.797e-07
  7.13338    -99.7 1.840e+04 6.626e-07
  7.13877    -99.6 1.837e+04 7.996e-07
  7.14085    -99.4 1.842e+04 1.406e-06
  7.14538   -100.6 1.843e+04 1.280e-06
  7.15321   -100.8 1.849e+04 1.040e-06
  7.16312   -100.8 1.859e+04 7.807e-07
  7.17304   -100.9 1.870e+04 5.901e-07
  7.18295   -101.0 1.880e+04 4.531e-07
  7.19287   -101.3 1.890e+04 3.467e-07
  7.19988   -101.8 1.899e+04 2.614e-07
  7.20483   -102.4 1.923e+04 2.794e-07
  7.21269   -103.1 1.921e+04 2.165e-07
  7.22261   -104.3 1.892e+04 1.659e-07
  7.23252   -105.8 1.817e+04 1.267e-07
  7.24243   -107.1 1.715e+04 9.882e-08
  7.25235   -108.2 1.624e+04 8.085e-08
  7.26099   -108.9 1.567e+04 7.006e-08
  7.26594   -109.0 1.588e+04 7.215e-08
  7.27718   -109.6 1.528e+04 6.020e-08
  7.29706   -110.5 1.465e+04 4.535e-08
  7.31689   -111.9 1.448e+04 3.563e-08
  7.32715   -114.8 1.444e+04 2.922e-08
  7.33707   -116.4 1.545e+04 3.988e-08
  7.35654   -119.7 1.459e+04 3.357e-08
  7.37637   -122.4 1.328e+04 2.875e-08
  7.39620   -123.6 1.230e+04 2.582e-08
  7.40661   -123.8 1.137e+04 2.191e-08
  7.41652   -122.8 1.066e+04 1.299e-08
  7.43585   -122.9 1.009e+04 1.226e-08
  7.44937   -122.9 9.619e+03 1.088e-08
  7.45929   -122.5 9.815e+03 1.187e-08
  7.47551   -122.5 9.449e+03 9.831e-09
  7.49534   -122.6 9.235e+03 8.324e-09
  7.51516   -122.9 9.209e+03 7.707e-09
  7.53499   -123.3 9.217e+03 7.610e-09
  7.55482   -123.8 9.314e+03 7.702e-09
  7.57159   -124.5 9.573e+03 8.656e-09
  7.58151   -123.8 9.381e+03 8.167e-09
  7.59447   -124.4 9.634e+03 9.381e-09
  7.61430   -125.0 9.869e+03 1.076e-08
  7.63413   -125.6 1.005e+04 1.199e-08
  7.65396   -126.2 1.018e+04 1.291e-08
  7.66773   -126.7 1.027e+04 1.354e-08
  7.67765   -126.3 1.014e+04 1.282e-08
  7.69361   -126.8 1.017e+04 1.302e-08
  7.70373   -127.2 1.026e+04 1.339e-08
  7.71364   -126.4 9.968e+03 1.194e-08
  7.73327   -126.8 1.012e+04 1.255e-08
  7.75310   -127.2 1.030e+04 1.334e-08
  7.77292   -127.6 1.049e+04 1.421e-08
  7.79275   -128.0 1.067e+04 1.506e-08
  7.81258   -128.4 1.081e+04 1.579e-08
  7.82595   -128.6 1.092e+04 1.640e-08
  7.83586   -128.3 1.115e+04 1.816e-08
  7.85224   -128.4 1.132e+04 1.957e-08
  7.87206   -128.5 1.148e+04 2.089e-08
  7.89189   -128.3 1.159e+04 2.176e-08
  7.91172   -128.0 1.164e+04 2.199e-08
  7.92886   -127.7 1.164e+04 2.187e-08
  7.93877   -128.5 1.150e+04 2.115e-08
  7.94817   -128.0 1.149e+04 2.028e-08
  7.95808   -127.4 1.148e+04 2.007e-08
  7.97120   -127.1 1.151e+04 1.921e-08
  7.99103   -126.8 1.150e+04 1.814e-08
  8.01086   -126.6 1.145e+04 1.687e-08
  8.03068   -126.6 1.134e+04 1.540e-08
  8.05051   -126.5 1.118e+04 1.383e-08
  8.07034   -126.5 1.099e+04 1.228e-08
  8.09017   -125.5 1.082e+04 1.059e-08
  8.11000   -125.1 1.060e+04 9.131e-09
  8.12982   -124.6 1.041e+04 7.808e-09
  8.14965   -124.1 1.022e+04 6.619e-09
  8.16948   -123.3 1.005e+04 5.527e-09
  8.18931   -122.5 9.895e+03 4.518e-09
  8.19990   -121.4 9.786e+03 3.621e-09
  8.20320   -121.6 9.767e+03 3.575e-09
  8.21244   -121.2 9.786e+03 3.781e-09
  8.22896   -120.1 9.729e+03 3.031e-09
  8.24879   -118.9 9.761e+03 2.610e-09
  8.27863   -117.6 9.826e+03 2.411e-09
  8.31838   -116.1 9.885e+03 2.221e-09
  8.35804   -114.4 9.907e+03 2.163e-09
  8.39769   -112.8 1.018e+04 2.211e-09
  8.43725   -111.5 1.051e+04 2.597e-09
  8.46112   -109.6 1.073e+04 3.002e-09
  8.48105   -109.7 1.064e+04 2.819e-09
  8.51666   -108.4 1.083e+04 2.885e-09
  8.55632   -107.1 1.091e+04 2.837e-09
  8.59597   -105.6 1.103e+04 2.524e-09
  8.63563   -103.7 1.101e+04 2.212e-09
  8.67528   -101.8 1.095e+04 1.963e-09
  8.70152    -99.7 1.087e+04 1.816e-09
  8.72134    -99.3 1.073e+04 1.707e-09
  8.75459    -97.2 1.061e+04 1.649e-09
  8.79425    -95.2 1.055e+04 1.638e-09
  8.83390    -93.2 1.049e+04 1.639e-09
  8.87356    -91.1 1.039e+04 1.658e-09
  8.91321    -89.1 1.029e+04 1.664e-09
  8.94596    -87.0 1.015e+04 1.666e-09
  8.96578    -86.2 1.014e+04 1.951e-09
  8.98348    -84.1 9.982e+03 1.924e-09
  9.00330    -84.0 9.822e+03 2.760e-09
  9.03218    -81.7 9.637e+03 2.421e-09
  9.07184    -79.4 9.445e+03 2.024e-09
  9.11149    -77.3 9.269e+03 1.724e-09
  9.15115    -75.2 9.170e+03 1.597e-09
  9.19040    -73.4 9.157e+03 1.580e-09
  9.21023    -72.0 9.149e+03 1.546e-09
  9.23046    -70.4 9.194e+03 1.559e-09
  9.27011    -69.5 9.343e+03 1.789e-09
  9.30977    -69.1 9.463e+03 2.211e-09
  9.34942    -69.0 9.538e+03 2.686e-09
  9.38908    -69.7 9.623e+03 3.105e-09
  9.42874    -71.0 9.725e+03 3.428e-09
  9.45467    -72.5 9.962e+03 3.804e-09
  9.47449    -71.2 1.072e+04 6.186e-09
  9.49803    -73.3 1.060e+04 5.138e-09
  9.51545    -74.3 1.077e+04 5.161e-09
  9.52536    -75.5 1.065e+04 5.048e-09
  9.53759    -77.8 1.091e+04 5.085e-09
  9.55742    -80.8 1.179e+04 6.684e-09
  9.57669    -84.2 1.255e+04 1.131e-08
  9.58661    -83.7 1.234e+04 1.158e-08
  9.59708    -86.5 1.283e+04 1.805e-08
  9.61690    -88.9 1.311e+04 2.435e-08
  9.63673    -90.9 1.316e+04 2.652e-08
  9.65656    -92.6 1.303e+04 2.624e-08
  9.67639    -93.8 1.255e+04 2.121e-08
  9.69621    -94.9 1.201e+04 1.562e-08
  9.70883    -95.9 1.151e+04 1.186e-08
  9.71874    -95.7 1.099e+04 8.785e-09
  9.73587    -96.3 1.070e+04 7.563e-09
  9.75570    -96.5 1.056e+04 6.867e-09
  9.77553    -96.6 1.052e+04 6.432e-09
  9.78649    -96.7 1.056e+04 6.105e-09
  9.79640    -96.7 1.042e+04 5.980e-09
  9.81518    -96.9 1.050e+04 5.756e-09
  9.83105    -97.1 1.060e+04 5.515e-09
  9.84096    -96.8 1.041e+04 4.912e-09
