# Columns:
#   distance along LOS (in CHIMPs)
#   peculiar velocity  (in km/s)
#   temperature (K)
#   HI number density
# pos=(213.629,21.9007,204.674), angles=(1.50311,4.88926)
  0.00214   -184.5 9.031e+03 3.225e-09
  0.01423   -183.7 9.184e+03 3.593e-09
  0.03412   -182.9 9.367e+03 4.109e-09
  0.05400   -182.1 9.564e+03 4.761e-09
  0.07389   -181.2 9.765e+03 5.505e-09
  0.09378   -180.3 9.952e+03 6.260e-09
  0.10598   -179.3 1.012e+04 7.058e-09
  0.11592   -179.6 1.034e+04 8.295e-09
  0.13355   -178.5 1.043e+04 8.750e-09
  0.15344   -177.5 1.049e+04 8.990e-09
  0.16986   -176.5 1.052e+04 9.079e-09
  0.17980   -176.5 1.044e+04 8.718e-09
  0.19321   -175.6 1.050e+04 8.869e-09
  0.21133   -174.8 1.060e+04 9.150e-09
  0.22127   -174.9 1.087e+04 9.988e-09
  0.23298   -174.4 1.111e+04 1.077e-08
  0.25287   -174.1 1.138e+04 1.196e-08
  0.27275   -174.0 1.164e+04 1.344e-08
  0.29264   -173.9 1.186e+04 1.502e-08
  0.31253   -173.8 1.201e+04 1.639e-08
  0.32661   -173.6 1.214e+04 1.733e-08
  0.33656   -174.8 1.432e+04 3.648e-08
  0.35230   -174.5 1.428e+04 3.667e-08
  0.37219   -174.2 1.416e+04 3.612e-08
  0.39207   -173.9 1.406e+04 3.479e-08
  0.41196   -173.7 1.389e+04 3.272e-08
  0.43184   -173.5 1.356e+04 2.903e-08
  0.44190   -173.2 1.320e+04 2.498e-08
  0.44683   -173.9 1.536e+04 4.604e-08
  0.45660   -173.8 1.543e+04 4.743e-08
  0.46334   -173.7 1.522e+04 4.595e-08
  0.46832   -173.3 1.370e+04 2.872e-08
  0.47649   -173.1 1.353e+04 2.703e-08
  0.48643   -172.8 1.335e+04 2.513e-08
  0.49448   -172.6 1.328e+04 2.386e-08
  0.49945   -173.0 1.448e+04 3.379e-08
  0.51134   -172.1 1.363e+04 2.593e-08
  0.53128   -171.3 1.318e+04 2.251e-08
  0.54725   -170.3 1.260e+04 1.868e-08
  0.55719   -171.0 1.568e+04 5.637e-08
  0.57105   -169.8 1.534e+04 4.938e-08
  0.59093   -168.7 1.492e+04 4.193e-08
  0.61082   -167.8 1.449e+04 3.533e-08
  0.63071   -167.0 1.397e+04 2.866e-08
  0.65059   -166.1 1.338e+04 2.218e-08
  0.66254   -165.0 1.292e+04 1.815e-08
  0.67248   -166.0 1.562e+04 5.968e-08
  0.69037   -164.7 1.492e+04 4.358e-08
  0.71025   -163.3 1.408e+04 3.097e-08
  0.73014   -161.8 1.322e+04 2.190e-08
  0.74698   -160.3 1.238e+04 1.501e-08
  0.75693   -160.8 1.253e+04 1.721e-08
  0.76789   -159.2 1.185e+04 1.262e-08
  0.77783   -159.6 1.383e+04 3.282e-08
  0.78980   -158.1 1.335e+04 2.627e-08
  0.80968   -156.6 1.303e+04 2.256e-08
  0.82957   -155.0 1.274e+04 1.979e-08
  0.84946   -153.3 1.251e+04 1.777e-08
  0.86934   -151.5 1.234e+04 1.623e-08
  0.88318   -150.0 1.220e+04 1.505e-08
  0.89312   -150.1 1.307e+04 2.441e-08
  0.90912   -148.6 1.285e+04 2.150e-08
  0.92900   -147.1 1.266e+04 1.908e-08
  0.94889   -145.6 1.252e+04 1.722e-08
  0.96877   -144.2 1.240e+04 1.587e-08
  0.98852   -142.9 1.230e+04 1.505e-08
  0.99846   -143.5 1.227e+04 1.435e-08
  1.00855   -142.2 1.213e+04 1.355e-08
  1.02843   -140.7 1.200e+04 1.297e-08
  1.04052   -139.0 1.195e+04 1.264e-08
  1.05046   -138.9 1.191e+04 1.243e-08
  1.06821   -137.1 1.190e+04 1.231e-08
  1.08809   -135.7 1.200e+04 1.243e-08
  1.10381   -135.0 1.286e+04 1.280e-08
  1.11375   -135.4 1.181e+04 1.057e-08
  1.12787   -136.4 1.523e+04 1.081e-08
  1.14273   -141.8 2.677e+04 1.699e-08
  1.15263   -145.6 2.450e+04 1.084e-07
  1.16136   -147.8 1.950e+04 1.103e-06
  1.16633   -148.2 2.094e+04 4.216e-07
  1.17251   -151.0 1.857e+04 2.022e-06
  1.18221   -154.9 1.774e+04 4.656e-06
  1.18719   -155.8 1.773e+04 5.164e-06
  1.19240   -160.9 1.746e+04 6.727e-06
  1.20234   -164.8 1.754e+04 5.817e-06
  1.21228   -167.0 1.829e+04 2.683e-06
  1.21900   -168.6 1.928e+04 8.534e-07
  1.22397   -165.6 1.891e+04 1.387e-06
  1.23217   -167.0 1.952e+04 5.706e-07
  1.24211   -168.8 1.939e+04 2.062e-07
  1.25206   -170.6 1.790e+04 8.579e-08
  1.26200   -171.7 1.577e+04 4.913e-08
  1.27168   -171.8 1.432e+04 3.649e-08
  1.27665   -169.5 1.605e+04 5.164e-08
  1.28189   -169.7 1.460e+04 3.715e-08
  1.29183   -169.4 1.393e+04 3.038e-08
  1.30679   -169.2 1.353e+04 2.511e-08
  1.32411   -168.8 1.261e+04 1.819e-08
  1.33177   -170.1 1.274e+04 1.846e-08
  1.33439   -166.6 1.374e+04 2.301e-08
  1.34661   -166.2 1.293e+04 1.726e-08
  1.36650   -167.1 1.165e+04 1.224e-08
  1.38639   -167.8 1.116e+04 1.019e-08
  1.40627   -168.0 1.113e+04 9.807e-09
  1.42616   -168.0 1.129e+04 9.922e-09
  1.43974   -168.1 1.150e+04 1.044e-08
  1.44968   -165.9 1.167e+04 1.075e-08
  1.46593   -166.3 1.180e+04 1.109e-08
  1.48582   -166.6 1.190e+04 1.139e-08
  1.50571   -167.0 1.193e+04 1.146e-08
  1.52559   -167.4 1.188e+04 1.134e-08
  1.54508   -168.0 1.169e+04 1.057e-08
  1.55503   -165.5 1.228e+04 1.162e-08
  1.56536   -166.7 1.221e+04 1.112e-08
  1.58525   -168.8 1.222e+04 1.083e-08
  1.60514   -171.9 1.235e+04 1.083e-08
  1.61764   -176.1 1.374e+04 1.354e-08
  1.62758   -180.2 1.485e+04 1.763e-08
  1.64491   -184.6 1.593e+04 2.797e-08
  1.66037   -188.2 1.674e+04 4.245e-08
  1.67027   -188.7 1.745e+04 4.886e-08
  1.67961   -191.3 1.812e+04 6.252e-08
  1.68956   -193.9 1.867e+04 7.323e-08
  1.69950   -196.6 1.908e+04 8.134e-08
  1.70944   -199.4 1.930e+04 8.565e-08
  1.71792   -202.2 1.935e+04 8.647e-08
  1.72289   -205.2 2.039e+04 1.200e-07
  1.72933   -207.7 2.028e+04 1.111e-07
  1.73927   -210.4 1.998e+04 9.559e-08
  1.74921   -213.2 1.955e+04 8.246e-08
  1.75916   -215.9 1.886e+04 7.424e-08
  1.76431   -218.3 1.822e+04 6.880e-08
  1.76928   -220.8 1.795e+04 6.898e-08
  1.77556   -222.4 1.762e+04 6.715e-08
  1.78054   -224.4 1.733e+04 6.080e-08
  1.78899   -225.6 1.713e+04 5.775e-08
  1.79893   -226.6 1.696e+04 5.514e-08
  1.80887   -227.6 1.681e+04 5.224e-08
  1.81882   -228.7 1.664e+04 4.816e-08
  1.82824   -229.9 1.632e+04 4.300e-08
  1.83321   -231.0 1.544e+04 3.357e-08
  1.83870   -231.4 1.533e+04 3.318e-08
  1.84865   -231.6 1.527e+04 3.393e-08
  1.86361   -231.8 1.524e+04 3.420e-08
  1.88101   -232.0 1.449e+04 2.780e-08
  1.89095   -235.5 1.451e+04 1.596e-08
  1.90123   -235.8 1.341e+04 1.309e-08
  1.91117   -235.4 1.216e+04 9.883e-09
  1.92332   -234.8 1.166e+04 9.066e-09
  1.94320   -234.1 1.132e+04 8.980e-09
  1.96309   -233.7 1.123e+04 9.010e-09
  1.98298   -233.8 1.127e+04 9.138e-09
  1.99630   -234.8 1.194e+04 1.096e-08
  2.00624   -236.5 1.310e+04 1.373e-08
  2.02275   -237.1 1.444e+04 2.253e-08
  2.03762   -237.3 1.539e+04 3.427e-08
  2.04751   -237.5 1.596e+04 4.321e-08
  2.05287   -237.8 1.651e+04 5.664e-08
  2.05423   -237.5 1.626e+04 5.169e-08
  2.05882   -237.9 1.613e+04 5.122e-08
  2.06740   -238.5 1.661e+04 6.236e-08
  2.07734   -239.4 1.698e+04 7.345e-08
  2.08728   -240.6 1.716e+04 8.050e-08
  2.09723   -241.7 1.719e+04 8.222e-08
  2.10652   -242.7 1.716e+04 8.088e-08
  2.11149   -243.5 1.658e+04 5.742e-08
  2.11711   -245.0 1.630e+04 4.407e-08
  2.12705   -246.8 1.594e+04 3.184e-08
  2.13700   -248.7 1.552e+04 2.351e-08
  2.14694   -250.5 1.522e+04 1.915e-08
  2.15688   -252.2 1.518e+04 1.726e-08
  2.16416   -253.9 1.514e+04 1.628e-08
  2.16913   -254.8 1.486e+04 1.595e-08
  2.18179   -256.3 1.477e+04 1.512e-08
  2.19476   -259.5 1.391e+04 1.407e-08
  2.20471   -257.8 1.381e+04 1.283e-08
  2.21693   -259.5 1.326e+04 1.276e-08
  2.22683   -260.3 1.330e+04 1.632e-08
  2.23643   -260.5 1.308e+04 1.748e-08
  2.24637   -260.5 1.318e+04 1.844e-08
  2.25632   -260.7 1.344e+04 1.993e-08
  2.26626   -261.3 1.408e+04 2.213e-08
  2.27448   -262.4 1.535e+04 2.709e-08
  2.27945   -266.9 1.887e+04 6.813e-08
  2.28615   -268.6 1.965e+04 1.100e-07
  2.29609   -270.1 1.984e+04 1.731e-07
  2.30603   -271.2 1.964e+04 2.509e-07
  2.31597   -272.0 1.919e+04 3.228e-07
  2.32592   -272.5 1.876e+04 3.602e-07
  2.33212   -272.7 1.862e+04 3.702e-07
  2.33710   -274.2 1.849e+04 3.274e-07
  2.34143   -274.4 1.851e+04 2.900e-07
  2.34640   -273.7 1.846e+04 3.003e-07
  2.35575   -274.1 1.855e+04 2.485e-07
  2.36569   -274.8 1.881e+04 1.841e-07
  2.37563   -276.1 1.894e+04 1.226e-07
  2.38480   -277.7 1.858e+04 7.388e-08
  2.38977   -282.6 1.558e+04 3.108e-08
  2.39552   -284.0 1.331e+04 2.319e-08
  2.40546   -284.6 1.215e+04 2.035e-08
  2.41541   -284.6 1.188e+04 1.923e-08
  2.42535   -284.2 1.173e+04 1.800e-08
  2.43752   -284.1 1.143e+04 1.628e-08
  2.44751   -284.9 1.062e+04 1.263e-08
  2.46025   -284.0 1.025e+04 1.022e-08
  2.47835   -283.1 9.997e+03 8.701e-09
  2.48830   -282.2 9.905e+03 7.709e-09
  2.50002   -280.9 9.842e+03 7.222e-09
  2.51991   -279.5 9.831e+03 7.111e-09
  2.53979   -278.1 9.836e+03 7.108e-09
  2.55286   -276.6 9.993e+03 7.316e-09
  2.56280   -277.2 1.019e+04 7.248e-09
  2.57957   -275.7 1.050e+04 8.350e-09
  2.59945   -274.2 1.081e+04 9.825e-09
  2.61934   -272.7 1.114e+04 1.155e-08
  2.63923   -271.1 1.145e+04 1.338e-08
  2.65820   -269.5 1.173e+04 1.519e-08
  2.66815   -269.7 1.159e+04 1.377e-08
  2.67900   -268.2 1.171e+04 1.442e-08
  2.69888   -266.6 1.177e+04 1.474e-08
  2.71877   -265.2 1.179e+04 1.483e-08
  2.73866   -263.8 1.182e+04 1.407e-08
  2.75854   -262.5 1.172e+04 1.265e-08
  2.77189   -261.3 1.161e+04 1.095e-08
  2.77689   -260.6 1.125e+04 7.136e-09
  2.78344   -260.9 1.114e+04 5.575e-09
  2.79832   -260.0 1.116e+04 5.535e-09
  2.81820   -259.0 1.115e+04 5.541e-09
  2.83809   -258.1 1.111e+04 5.619e-09
  2.85797   -257.0 1.107e+04 5.694e-09
  2.87786   -255.9 1.100e+04 5.747e-09
  2.88878   -254.7 1.094e+04 5.731e-09
  2.89873   -254.9 1.090e+04 5.629e-09
  2.91763   -253.6 1.079e+04 5.399e-09
  2.93752   -252.3 1.070e+04 5.076e-09
  2.95741   -251.0 1.063e+04 4.736e-09
  2.97729   -249.7 1.057e+04 4.423e-09
  2.99413   -248.4 1.054e+04 4.188e-09
  3.00407   -248.3 1.054e+04 3.627e-09
  3.01707   -246.8 1.054e+04 3.613e-09
  3.03695   -245.6 1.054e+04 3.624e-09
  3.05548   -244.2 1.055e+04 3.676e-09
  3.07546   -243.1 1.058e+04 3.269e-09
  3.10675   -240.9 1.056e+04 3.415e-09
  3.14652   -238.8 1.053e+04 3.445e-09
  3.18629   -236.4 1.034e+04 3.327e-09
  3.21496   -233.5 1.019e+04 3.075e-09
  3.23485   -233.6 9.938e+03 2.002e-09
  3.26584   -231.0 9.875e+03 1.917e-09
  3.30561   -228.4 9.836e+03 1.825e-09
  3.34538   -225.8 9.803e+03 1.705e-09
  3.38516   -223.1 9.759e+03 1.567e-09
  3.42493   -220.4 9.722e+03 1.430e-09
  3.44554   -217.5 9.714e+03 1.331e-09
  3.46543   -217.8 9.745e+03 1.166e-09
  3.50448   -214.9 9.744e+03 1.163e-09
  3.54425   -212.2 9.777e+03 1.204e-09
  3.58402   -209.6 9.845e+03 1.356e-09
  3.62285   -207.1 9.918e+03 1.557e-09
  3.64274   -206.9 9.931e+03 1.262e-09
  3.65623   -204.6 1.000e+04 1.451e-09
  3.67612   -205.1 1.008e+04 1.642e-09
  3.70334   -203.0 1.014e+04 1.760e-09
  3.74311   -201.0 1.015e+04 1.786e-09
  3.78288   -199.1 1.015e+04 1.752e-09
  3.82266   -197.0 1.014e+04 1.560e-09
  3.86243   -194.7 1.014e+04 1.331e-09
  3.88681   -192.5 1.015e+04 1.147e-09
  3.90670   -192.7 1.024e+04 1.270e-09
  3.94197   -190.5 1.026e+04 1.144e-09
  3.98175   -188.4 1.022e+04 1.074e-09
  4.02152   -186.2 1.012e+04 1.040e-09
  4.06129   -184.1 9.989e+03 1.023e-09
  4.09750   -182.1 9.866e+03 1.003e-09
  4.11739   -182.4 9.905e+03 1.240e-09
  4.14084   -180.3 9.825e+03 1.158e-09
  4.18061   -178.3 9.737e+03 1.062e-09
  4.20992   -176.2 9.656e+03 9.677e-10
  4.22980   -176.1 9.705e+03 1.086e-09
  4.26015   -174.0 9.639e+03 9.488e-10
  4.29993   -171.9 9.556e+03 8.455e-10
  4.32808   -169.7 9.516e+03 7.997e-10
  4.34797   -170.5 9.711e+03 9.241e-10
  4.37947   -168.2 9.705e+03 9.185e-10
  4.41925   -166.1 9.708e+03 9.206e-10
  4.45902   -164.1 9.759e+03 9.881e-10
  4.49879   -162.4 9.859e+03 1.300e-09
  4.53856   -160.8 9.984e+03 1.886e-09
  4.55866   -159.4 1.013e+04 2.829e-09
  4.57855   -159.5 1.015e+04 2.161e-09
  4.61811   -158.2 1.021e+04 2.768e-09
  4.65788   -157.1 1.020e+04 3.400e-09
  4.69765   -156.2 1.011e+04 3.825e-09
  4.73743   -155.2 1.007e+04 3.931e-09
  4.76935   -154.1 9.899e+03 3.932e-09
  4.78914   -153.5 9.806e+03 2.605e-09
  4.81687   -152.2 9.644e+03 3.168e-09
  4.85674   -150.5 9.341e+03 2.804e-09
  4.89652   -148.7 9.141e+03 2.196e-09
  4.93629   -146.8 9.011e+03 1.649e-09
  4.97606   -144.8 8.967e+03 1.293e-09
  4.99993   -142.9 9.014e+03 1.153e-09
  5.01982   -142.7 9.051e+03 1.212e-09
  5.05561   -140.7 9.072e+03 1.187e-09
  5.09538   -139.0 9.189e+03 1.208e-09
  5.13515   -137.6 9.433e+03 1.454e-09
  5.17493   -136.3 9.634e+03 1.948e-09
  5.21062   -135.1 9.823e+03 2.618e-09
  5.23051   -134.9 9.904e+03 2.629e-09
  5.25447   -133.9 1.009e+04 3.272e-09
  5.29424   -132.8 1.028e+04 3.839e-09
  5.33402   -131.9 1.051e+04 4.117e-09
  5.36416   -131.0 1.066e+04 4.150e-09
  5.38405   -131.0 1.067e+04 4.501e-09
  5.41356   -130.1 1.074e+04 4.502e-09
  5.44120   -129.0 1.086e+04 4.363e-09
  5.46109   -129.0 1.096e+04 4.113e-09
  5.49311   -127.8 1.107e+04 3.849e-09
  5.53288   -126.7 1.123e+04 3.580e-09
  5.57265   -125.6 1.134e+04 3.361e-09
  5.61242   -124.5 1.146e+04 3.158e-09
  5.65190   -123.4 1.155e+04 2.865e-09
  5.67178   -123.4 1.173e+04 2.817e-09
  5.69197   -122.2 1.173e+04 2.558e-09
  5.73174   -120.7 1.171e+04 2.252e-09
  5.77151   -119.1 1.172e+04 1.931e-09
  5.81129   -117.2 1.177e+04 1.616e-09
  5.85106   -115.3 1.188e+04 1.312e-09
  5.88248   -113.3 1.203e+04 1.034e-09
  5.90236   -113.3 1.211e+04 1.117e-09
  5.93061   -111.1 1.223e+04 8.881e-10
  5.95123   -108.9 1.238e+04 7.339e-10
  5.97112   -109.2 1.234e+04 7.034e-10
  6.01015   -107.0 1.250e+04 6.222e-10
  6.04992   -104.8 1.264e+04 5.782e-10
  6.08970   -102.7 1.274e+04 5.626e-10
  6.11305   -100.5 1.278e+04 5.638e-10
  6.13294   -100.2 1.285e+04 5.496e-10
  6.16924    -98.1 1.302e+04 5.511e-10
  6.20901    -96.1 1.321e+04 5.790e-10
  6.24879    -94.1 1.328e+04 6.353e-10
  6.28856    -92.3 1.336e+04 6.895e-10
  6.32375    -90.5 1.346e+04 7.244e-10
  6.34363    -90.0 1.361e+04 6.607e-10
  6.36810    -88.2 1.373e+04 6.877e-10
  6.40788    -86.4 1.386e+04 7.062e-10
  6.44765    -84.6 1.402e+04 7.152e-10
  6.48742    -82.6 1.414e+04 7.158e-10
  6.51841    -80.3 1.442e+04 6.804e-10
  6.53830    -80.5 1.442e+04 6.921e-10
  6.55433    -78.1 1.467e+04 6.231e-10
  6.57421    -77.8 1.474e+04 6.496e-10
  6.60674    -75.1 1.497e+04 5.777e-10
  6.64651    -72.4 1.518e+04 5.188e-10
  6.68629    -69.6 1.539e+04 4.755e-10
  6.72606    -66.8 1.561e+04 4.448e-10
  6.76502    -64.0 1.575e+04 4.356e-10
  6.78490    -63.6 1.579e+04 4.272e-10
  6.80560    -60.9 1.585e+04 4.397e-10
  6.84538    -58.3 1.572e+04 5.131e-10
  6.88515    -55.8 1.554e+04 6.366e-10
  6.92492    -53.3 1.543e+04 7.871e-10
  6.96469    -50.8 1.539e+04 9.385e-10
  6.99560    -48.4 1.535e+04 1.070e-09
  7.01548    -48.0 1.528e+04 1.026e-09
  7.04424    -45.6 1.521e+04 1.050e-09
  7.08401    -43.3 1.519e+04 1.058e-09
  7.10548    -41.1 1.511e+04 1.103e-09
  7.12536    -41.9 1.510e+04 1.158e-09
  7.16356    -39.9 1.505e+04 1.303e-09
  7.20333    -38.0 1.498e+04 1.531e-09
  7.22618    -36.1 1.492e+04 1.765e-09
  7.24606    -36.0 1.487e+04 1.719e-09
  7.28287    -34.1 1.475e+04 1.897e-09
  7.32265    -32.2 1.460e+04 2.043e-09
  7.36242    -30.4 1.460e+04 2.044e-09
  7.40219    -28.5 1.476e+04 1.834e-09
  7.43687    -26.7 1.481e+04 1.472e-09
  7.45675    -26.3 1.493e+04 1.221e-09
  7.48174    -24.6 1.504e+04 8.730e-10
  7.52151    -23.1 1.498e+04 7.261e-10
  7.56128    -21.8 1.490e+04 7.011e-10
  7.60106    -20.8 1.494e+04 7.958e-10
  7.64083    -20.7 1.492e+04 1.169e-09
  7.66745    -20.7 1.484e+04 2.216e-09
  7.67939    -19.9 1.456e+04 2.207e-09
  7.69254    -21.4 1.458e+04 3.412e-09
  7.72037    -21.0 1.477e+04 4.602e-09
  7.76015    -20.9 1.486e+04 4.418e-09
  7.79992    -20.4 1.475e+04 3.513e-09
  7.83969    -19.5 1.465e+04 3.028e-09
  7.87814    -18.2 1.465e+04 2.958e-09
  7.89803    -17.8 1.458e+04 3.909e-09
  7.91924    -16.5 1.456e+04 3.592e-09
  7.95901    -14.9 1.482e+04 2.917e-09
  7.99878    -13.6 1.500e+04 2.336e-09
  8.03855    -12.2 1.508e+04 2.129e-09
  8.07833    -10.6 1.519e+04 1.920e-09
  8.10872     -8.8 1.517e+04 1.669e-09
  8.12860     -8.8 1.519e+04 1.172e-09
  8.15787     -7.2 1.532e+04 9.998e-10
  8.19764     -5.4 1.541e+04 9.169e-10
  8.23742     -3.1 1.535e+04 8.873e-10
  8.25972     -0.9 1.551e+04 7.253e-10
  8.27961     -1.1 1.554e+04 6.507e-10
  8.31696      1.0 1.553e+04 5.778e-10
  8.33930      3.3 1.554e+04 5.821e-10
  8.35918      3.5 1.552e+04 5.938e-10
  8.39651      5.4 1.543e+04 7.356e-10
  8.43628      7.7 1.523e+04 1.044e-09
  8.47605     10.1 1.512e+04 1.333e-09
  8.51583     12.3 1.522e+04 1.407e-09
  8.54999     14.3 1.525e+04 1.475e-09
  8.56988     14.3 1.524e+04 1.296e-09
  8.59537     16.3 1.524e+04 1.304e-09
  8.63514     18.1 1.523e+04 1.485e-09
  8.67492     20.0 1.513e+04 1.946e-09
  8.71469     22.0 1.504e+04 2.482e-09
  8.75446     23.9 1.498e+04 2.838e-09
  8.78057     25.5 1.492e+04 3.141e-09
  8.80046     25.6 1.487e+04 3.250e-09
  8.82690     27.0 1.481e+04 3.403e-09
  8.84679     27.1 1.490e+04 4.570e-09
  8.87378     28.5 1.478e+04 5.518e-09
  8.91355     29.5 1.478e+04 5.529e-09
  8.95332     30.4 1.475e+04 4.862e-09
  8.99126     31.2 1.470e+04 3.941e-09
  9.01115     31.1 1.464e+04 3.899e-09
  9.03287     32.1 1.467e+04 3.653e-09
  9.07264     33.1 1.467e+04 4.000e-09
  9.11242     34.1 1.475e+04 4.549e-09
  9.15219     34.9 1.472e+04 4.490e-09
  9.19196     35.8 1.456e+04 4.050e-09
  9.22184     36.8 1.446e+04 3.187e-09
  9.24173     36.8 1.436e+04 4.005e-09
  9.27151     37.7 1.416e+04 3.255e-09
  9.31128     38.7 1.396e+04 3.215e-09
  9.35105     39.6 1.386e+04 3.486e-09
  9.39082     40.3 1.374e+04 3.685e-09
  9.41397     40.9 1.368e+04 3.499e-09
  9.43385     40.7 1.380e+04 3.583e-09
  9.45242     41.2 1.376e+04 3.537e-09
  9.47231     41.4 1.372e+04 3.911e-09
  9.51014     42.1 1.370e+04 3.585e-09
  9.54991     42.9 1.360e+04 3.368e-09
  9.58969     44.0 1.354e+04 3.279e-09
  9.62946     45.4 1.368e+04 2.852e-09
  9.66311     47.1 1.384e+04 2.295e-09
  9.68300     47.6 1.394e+04 2.477e-09
  9.70900     49.3 1.401e+04 1.976e-09
  9.74878     50.9 1.405e+04 1.495e-09
  9.78855     52.6 1.405e+04 1.115e-09
  9.82832     54.4 1.405e+04 8.696e-10
  9.86809     56.2 1.402e+04 7.343e-10
  9.89369     58.1 1.384e+04 6.989e-10
  9.91358     58.8 1.379e+04 8.510e-10
  9.94764     60.9 1.375e+04 8.504e-10
  9.98115     63.1 1.365e+04 8.941e-10
 10.00103     63.2 1.384e+04 6.737e-10
 10.02719     65.4 1.375e+04 7.444e-10
 10.06696     67.5 1.367e+04 8.407e-10
 10.10438     69.4 1.357e+04 9.744e-10
 10.12427     70.2 1.357e+04 1.200e-09
 10.14650     72.2 1.347e+04 1.579e-09
 10.18628     73.8 1.337e+04 2.194e-09
 10.22605     75.0 1.339e+04 3.003e-09
 10.26582     75.5 1.351e+04 3.823e-09
 10.29555     75.6 1.356e+04 4.794e-09
 10.31534     75.6 1.355e+04 5.691e-09
 10.33477     75.6 1.359e+04 6.822e-09
 10.34471     75.9 1.377e+04 7.444e-09
 10.35511     75.6 1.385e+04 8.617e-09
 10.37500     75.0 1.397e+04 1.092e-08
 10.39489     74.0 1.421e+04 1.605e-08
 10.41477     72.8 1.457e+04 2.583e-08
 10.43466     71.6 1.497e+04 3.810e-08
 10.45006     69.9 1.520e+04 4.077e-08
 10.46000     69.6 1.528e+04 4.545e-08
 10.47443     67.3 1.534e+04 4.646e-08
 10.49432     64.8 1.537e+04 4.818e-08
 10.51420     62.3 1.542e+04 5.198e-08
 10.53409     60.1 1.536e+04 5.279e-08
 10.55398     58.9 1.503e+04 4.772e-08
 10.56535     58.4 1.444e+04 3.387e-08
 10.56944     58.0 1.429e+04 2.828e-08
 10.57796     57.3 1.431e+04 2.741e-08
 10.59375     56.8 1.370e+04 1.329e-08
 10.62368     54.7 1.328e+04 6.926e-09
 10.66355     53.8 1.257e+04 5.990e-09
 10.70332     53.8 1.239e+04 5.802e-09
 10.74309     54.3 1.223e+04 5.693e-09
 10.77623     55.2 1.202e+04 4.965e-09
 10.79612     54.8 1.205e+04 5.450e-09
 10.82264     56.1 1.190e+04 3.899e-09
 10.86241     57.6 1.179e+04 2.469e-09
 10.90218     59.0 1.184e+04 1.507e-09
 10.94196     60.3 1.182e+04 1.082e-09
 10.98173     62.0 1.172e+04 1.058e-09
 11.00681     63.7 1.172e+04 1.121e-09
 11.02670     63.1 1.180e+04 1.087e-09
 11.06127     64.6 1.179e+04 1.384e-09
 11.10105     65.9 1.180e+04 1.816e-09
 11.13539     67.0 1.200e+04 2.037e-09
 11.15528     67.4 1.193e+04 1.744e-09
 11.18059     68.2 1.201e+04 1.662e-09
 11.21750     68.8 1.213e+04 1.496e-09
 11.23739     68.4 1.220e+04 1.571e-09
 11.26014     69.2 1.220e+04 1.511e-09
