# Columns:
#   distance along LOS (in CHIMPs)
#   peculiar velocity  (in km/s)
#   temperature (K)
#   HI number density
# pos=(132.942,251.11,106.986), angles=(1.92731,6.21002)
  0.00502   -223.9 1.173e+04 3.627e-10
  0.03093   -222.3 1.181e+04 3.996e-10
  0.07272   -220.7 1.188e+04 4.422e-10
  0.09984   -219.2 1.194e+04 4.907e-10
  0.12074   -219.0 1.200e+04 4.207e-10
  0.15631   -217.5 1.207e+04 4.451e-10
  0.19759   -216.1 1.212e+04 4.771e-10
  0.21849   -215.8 1.220e+04 3.842e-10
  0.23548   -214.3 1.226e+04 4.051e-10
  0.25638   -214.0 1.217e+04 3.938e-10
  0.28170   -212.4 1.223e+04 4.104e-10
  0.31625   -210.8 1.229e+04 4.362e-10
  0.33715   -210.4 1.236e+04 3.488e-10
  0.36529   -208.8 1.243e+04 3.679e-10
  0.40709   -207.2 1.250e+04 4.029e-10
  0.43490   -205.7 1.253e+04 4.558e-10
  0.45580   -205.1 1.260e+04 3.643e-10
  0.49068   -203.6 1.262e+04 4.130e-10
  0.53247   -202.0 1.263e+04 4.634e-10
  0.57427   -199.7 1.267e+04 4.003e-10
  0.61606   -197.9 1.271e+04 4.138e-10
  0.65132   -196.2 1.279e+04 4.223e-10
  0.67221   -195.5 1.284e+04 3.434e-10
  0.69966   -194.0 1.309e+04 3.780e-10
  0.74145   -192.5 1.304e+04 5.325e-10
  0.76997   -191.2 1.296e+04 8.431e-10
  0.79087   -190.7 1.304e+04 8.667e-10
  0.81317   -189.8 1.308e+04 1.371e-09
  0.83407   -188.6 1.297e+04 1.246e-09
  0.86684   -187.9 1.310e+04 1.835e-09
  0.88863   -187.6 1.325e+04 2.246e-09
  0.90952   -187.4 1.328e+04 2.325e-09
  0.95043   -187.2 1.329e+04 2.373e-09
  0.98638   -186.5 1.328e+04 2.229e-09
  1.00728   -186.0 1.330e+04 2.114e-09
  1.03402   -184.6 1.341e+04 1.736e-09
  1.07581   -182.8 1.359e+04 1.443e-09
  1.10504   -181.1 1.379e+04 1.241e-09
  1.12594   -180.2 1.388e+04 1.104e-09
  1.15941   -178.4 1.409e+04 9.695e-10
  1.20120   -176.7 1.426e+04 8.688e-10
  1.22369   -175.1 1.446e+04 7.938e-10
  1.24459   -174.1 1.456e+04 7.489e-10
  1.28479   -172.5 1.469e+04 7.356e-10
  1.32145   -171.0 1.481e+04 7.369e-10
  1.34235   -170.2 1.493e+04 7.609e-10
  1.36838   -168.9 1.504e+04 7.827e-10
  1.39086   -167.6 1.507e+04 7.908e-10
  1.41175   -167.1 1.500e+04 8.654e-10
  1.44011   -165.8 1.505e+04 8.648e-10
  1.46100   -165.4 1.513e+04 9.724e-10
  1.49377   -163.8 1.521e+04 8.582e-10
  1.53556   -162.2 1.525e+04 7.418e-10
  1.55876   -160.5 1.524e+04 6.759e-10
  1.57966   -159.8 1.515e+04 7.213e-10
  1.61915   -158.0 1.516e+04 7.126e-10
  1.65652   -156.5 1.523e+04 7.278e-10
  1.67742   -156.0 1.526e+04 8.044e-10
  1.70275   -155.2 1.530e+04 1.055e-09
  1.74454   -154.7 1.522e+04 1.472e-09
  1.77517   -154.4 1.517e+04 1.887e-09
  1.79607   -154.6 1.528e+04 2.478e-09
  1.82813   -154.5 1.522e+04 2.927e-09
  1.86993   -154.5 1.514e+04 3.130e-09
  1.89383   -154.4 1.510e+04 3.190e-09
  1.91473   -154.9 1.503e+04 4.459e-09
  1.94764   -154.8 1.478e+04 4.078e-09
  1.96854   -154.6 1.483e+04 4.436e-09
  1.99158   -154.4 1.481e+04 3.767e-09
  2.01248   -155.0 1.466e+04 4.509e-09
  2.03711   -154.5 1.460e+04 3.739e-09
  2.07890   -153.9 1.457e+04 3.251e-09
  2.11024   -153.2 1.456e+04 2.889e-09
  2.13114   -153.2 1.444e+04 2.920e-09
  2.16250   -152.3 1.449e+04 2.545e-09
  2.20429   -151.4 1.458e+04 2.137e-09
  2.22889   -150.4 1.467e+04 1.752e-09
  2.24979   -150.0 1.443e+04 1.726e-09
  2.28788   -149.1 1.458e+04 1.458e-09
  2.32665   -148.2 1.474e+04 1.297e-09
  2.34755   -147.6 1.463e+04 1.301e-09
  2.37147   -146.8 1.470e+04 1.283e-09
  2.41327   -146.2 1.487e+04 1.288e-09
  2.44531   -146.0 1.510e+04 1.414e-09
  2.46620   -145.9 1.498e+04 1.636e-09
  2.49686   -146.1 1.498e+04 2.136e-09
  2.52533   -146.5 1.505e+04 2.866e-09
  2.54623   -146.1 1.504e+04 3.585e-09
  2.56396   -146.9 1.511e+04 5.120e-09
  2.58486   -147.4 1.507e+04 6.608e-09
  2.62225   -148.9 1.515e+04 7.779e-09
  2.66172   -150.1 1.516e+04 7.987e-09
  2.68262   -151.1 1.509e+04 1.017e-08
  2.70584   -151.8 1.507e+04 9.811e-09
  2.74763   -151.9 1.509e+04 8.309e-09
  2.78037   -151.3 1.502e+04 6.720e-09
  2.80127   -152.5 1.500e+04 8.006e-09
  2.83122   -151.5 1.486e+04 6.084e-09
  2.87302   -150.3 1.475e+04 4.654e-09
  2.89903   -148.9 1.465e+04 3.640e-09
  2.91993   -150.2 1.467e+04 3.714e-09
  2.95661   -148.7 1.451e+04 3.040e-09
  2.99679   -147.3 1.434e+04 2.658e-09
  3.01768   -148.6 1.463e+04 3.205e-09
  3.04020   -147.4 1.450e+04 3.432e-09
  3.08200   -146.8 1.429e+04 4.303e-09
  3.11544   -144.3 1.432e+04 3.373e-09
  3.13634   -146.1 1.463e+04 8.502e-09
  3.16559   -146.7 1.453e+04 1.420e-08
  3.20738   -147.5 1.455e+04 1.959e-08
  3.23410   -148.6 1.449e+04 2.139e-08
  3.24445   -151.2 1.454e+04 2.627e-08
  3.25943   -151.8 1.434e+04 2.367e-08
  3.28033   -152.1 1.414e+04 2.109e-08
  3.29323   -152.2 1.399e+04 1.851e-08
  3.30368   -153.0 1.391e+04 1.762e-08
  3.33176   -152.9 1.380e+04 1.473e-08
  3.35265   -154.6 1.342e+04 8.844e-09
  3.37447   -154.9 1.323e+04 5.913e-09
  3.41636   -154.3 1.282e+04 3.640e-09
  3.45051   -153.3 1.264e+04 2.548e-09
  3.47141   -154.0 1.256e+04 1.806e-09
  3.49995   -152.8 1.250e+04 1.700e-09
  3.54174   -151.7 1.248e+04 1.674e-09
  3.56916   -150.7 1.244e+04 1.670e-09
  3.59006   -151.1 1.240e+04 1.400e-09
  3.62534   -150.1 1.237e+04 1.414e-09
  3.65981   -149.1 1.236e+04 1.413e-09
  3.68049   -148.9 1.244e+04 1.461e-09
  3.68782   -149.1 1.247e+04 1.292e-09
  3.70893   -148.1 1.238e+04 1.281e-09
  3.75072   -147.1 1.228e+04 1.271e-09
  3.78557   -146.1 1.222e+04 1.265e-09
  3.80647   -146.2 1.226e+04 1.183e-09
  3.83431   -145.2 1.218e+04 1.185e-09
  3.87611   -144.2 1.208e+04 1.197e-09
  3.90423   -143.1 1.199e+04 1.211e-09
  3.92513   -143.2 1.203e+04 1.082e-09
  3.95970   -142.1 1.194e+04 1.065e-09
  4.00149   -140.8 1.187e+04 1.063e-09
  4.02288   -139.6 1.176e+04 1.113e-09
  4.04378   -139.6 1.185e+04 9.460e-10
  4.08509   -138.3 1.173e+04 1.037e-09
  4.12064   -137.0 1.167e+04 1.180e-09
  4.14154   -137.0 1.177e+04 1.004e-09
  4.16868   -135.7 1.173e+04 1.115e-09
  4.21047   -134.4 1.171e+04 1.246e-09
  4.23749   -133.2 1.172e+04 1.463e-09
  4.24542   -133.1 1.194e+04 2.261e-09
  4.26019   -133.2 1.195e+04 2.032e-09
  4.29406   -132.2 1.211e+04 2.631e-09
  4.33586   -131.5 1.233e+04 3.514e-09
  4.35795   -131.4 1.255e+04 4.376e-09
  4.37885   -131.6 1.264e+04 4.307e-09
  4.40673   -131.5 1.265e+04 4.676e-09
  4.41708   -131.6 1.271e+04 4.239e-09
  4.42970   -131.6 1.273e+04 4.060e-09
  4.45561   -131.8 1.284e+04 3.599e-09
  4.47661   -132.1 1.297e+04 2.943e-09
  4.50304   -131.7 1.291e+04 2.192e-09
  4.54484   -130.9 1.280e+04 1.656e-09
  4.57436   -129.9 1.276e+04 1.363e-09
  4.59526   -129.7 1.286e+04 1.181e-09
  4.62843   -128.4 1.288e+04 1.102e-09
  4.67022   -127.0 1.288e+04 1.084e-09
  4.69302   -125.7 1.299e+04 1.109e-09
  4.71392   -125.1 1.302e+04 9.630e-10
  4.75381   -123.8 1.297e+04 1.050e-09
  4.79078   -122.5 1.282e+04 1.198e-09
  4.81035   -121.9 1.293e+04 9.488e-10
  4.81518   -121.7 1.292e+04 1.112e-09
  4.83740   -120.4 1.279e+04 1.190e-09
  4.87920   -119.0 1.270e+04 1.218e-09
  4.90943   -117.7 1.263e+04 1.227e-09
  4.93033   -116.8 1.275e+04 9.589e-10
  4.96279   -115.3 1.265e+04 9.846e-10
  5.00458   -114.1 1.258e+04 1.129e-09
  5.02809   -113.1 1.253e+04 1.455e-09
  5.04898   -112.3 1.267e+04 1.262e-09
  5.08818   -111.5 1.265e+04 1.686e-09
  5.12584   -111.1 1.268e+04 2.063e-09
  5.14674   -110.5 1.281e+04 1.816e-09
  5.17177   -110.5 1.284e+04 1.911e-09
  5.21356   -110.5 1.283e+04 1.892e-09
  5.24450   -110.3 1.273e+04 1.638e-09
  5.26540   -109.8 1.286e+04 1.430e-09
  5.29715   -109.4 1.279e+04 1.101e-09
  5.33895   -108.7 1.272e+04 8.660e-10
  5.36315   -107.9 1.269e+04 7.603e-10
  5.37527   -107.4 1.281e+04 6.541e-10
  5.39286   -106.7 1.291e+04 6.925e-10
  5.42254   -105.9 1.293e+04 6.778e-10
  5.46091   -105.5 1.308e+04 7.665e-10
  5.48181   -105.2 1.324e+04 6.643e-10
  5.50613   -105.3 1.316e+04 1.276e-09
  5.54793   -105.2 1.320e+04 2.626e-09
  5.57917   -105.3 1.330e+04 3.791e-09
  5.58982   -105.9 1.330e+04 5.431e-09
  5.60027   -105.6 1.334e+04 5.063e-09
  5.62087   -106.1 1.327e+04 6.623e-09
  5.63870   -106.5 1.319e+04 7.056e-09
  5.64915   -106.4 1.320e+04 6.281e-09
  5.66061   -106.6 1.312e+04 6.300e-09
  5.67106   -106.7 1.333e+04 8.121e-09
  5.68357   -106.8 1.318e+04 7.792e-09
  5.69802   -106.8 1.311e+04 7.192e-09
  5.70847   -106.6 1.309e+04 6.201e-09
  5.72536   -106.3 1.300e+04 5.676e-09
  5.74626   -105.9 1.294e+04 5.152e-09
  5.75735   -105.3 1.292e+04 4.609e-09
  5.76780   -105.0 1.293e+04 4.154e-09
  5.79588   -104.7 1.287e+04 3.846e-09
  5.81687   -104.0 1.302e+04 3.271e-09
  5.84049   -102.9 1.295e+04 3.502e-09
  5.88229   -101.7 1.296e+04 4.277e-09
  5.91463   -100.8 1.303e+04 5.804e-09
  5.93553   -100.7 1.328e+04 6.733e-09
  5.94965   -100.4 1.342e+04 9.278e-09
  5.97055   -100.6 1.364e+04 1.094e-08
  6.00768   -100.8 1.364e+04 1.107e-08
  6.03329   -101.5 1.364e+04 9.667e-09
  6.04364   -101.5 1.392e+04 1.198e-08
  6.05972   -101.7 1.395e+04 1.155e-08
  6.08062   -102.4 1.394e+04 1.104e-08
  6.09242   -102.7 1.406e+04 1.132e-08
  6.10287   -102.9 1.422e+04 1.226e-08
  6.13095   -103.4 1.426e+04 1.214e-08
  6.15184   -104.0 1.457e+04 1.345e-08
  6.16421   -104.3 1.448e+04 1.162e-08
  6.18511   -104.1 1.444e+04 1.099e-08
  6.20063   -104.0 1.438e+04 9.790e-09
  6.21107   -104.2 1.449e+04 9.764e-09
  6.22691   -103.9 1.450e+04 9.095e-09
  6.23830   -103.7 1.459e+04 8.274e-09
  6.24875   -103.9 1.467e+04 1.043e-08
  6.25995   -104.2 1.479e+04 1.018e-08
  6.27040   -105.7 1.546e+04 1.091e-08
  6.28960   -107.2 1.604e+04 1.547e-08
  6.30883   -108.5 1.613e+04 2.575e-08
  6.31928   -109.9 1.650e+04 5.821e-08
  6.33139   -110.4 1.647e+04 7.255e-08
  6.35229   -110.7 1.643e+04 7.538e-08
  6.36816   -111.0 1.637e+04 6.743e-08
  6.37861   -112.1 1.646e+04 7.072e-08
  6.39409   -112.4 1.635e+04 5.517e-08
  6.41499   -113.0 1.617e+04 4.193e-08
  6.42749   -113.7 1.605e+04 3.316e-08
  6.43793   -114.9 1.587e+04 2.411e-08
  6.45678   -115.5 1.566e+04 2.068e-08
  6.47636   -115.9 1.545e+04 1.774e-08
  6.48681   -116.6 1.525e+04 1.659e-08
  6.49858   -116.5 1.515e+04 1.346e-08
  6.51669   -116.5 1.508e+04 1.022e-08
  6.52714   -117.6 1.497e+04 8.427e-09
  6.53569   -117.5 1.486e+04 7.502e-09
  6.54614   -117.7 1.484e+04 7.088e-09
  6.56127   -117.4 1.477e+04 7.026e-09
  6.58217   -117.0 1.478e+04 7.186e-09
  6.59502   -116.9 1.481e+04 7.878e-09
  6.60547   -117.2 1.474e+04 7.254e-09
  6.63451   -117.7 1.471e+04 7.364e-09
  6.67640   -117.7 1.473e+04 7.776e-09
  6.70342   -117.1 1.482e+04 8.257e-09
  6.72432   -117.1 1.461e+04 5.280e-09
  6.75999   -116.0 1.465e+04 5.660e-09
  6.80118   -115.0 1.462e+04 6.556e-09
  6.82208   -114.3 1.456e+04 5.085e-09
  6.84358   -113.2 1.467e+04 6.460e-09
  6.88538   -112.4 1.484e+04 7.188e-09
  6.91983   -112.0 1.500e+04 6.999e-09
  6.94073   -111.5 1.497e+04 7.859e-09
  6.96897   -111.3 1.508e+04 7.534e-09
  7.01077   -111.2 1.519e+04 6.115e-09
  7.03849   -110.9 1.522e+04 4.652e-09
  7.05939   -110.6 1.507e+04 6.321e-09
  7.08413   -110.1 1.505e+04 5.015e-09
  7.10503   -110.0 1.496e+04 4.570e-09
  7.13615   -109.3 1.515e+04 3.538e-09
  7.17795   -108.6 1.515e+04 3.616e-09
  7.21974   -108.0 1.514e+04 2.750e-09
  7.25490   -107.2 1.511e+04 2.127e-09
  7.27580   -107.1 1.516e+04 2.118e-09
  7.30333   -106.0 1.521e+04 1.646e-09
  7.34513   -104.7 1.520e+04 1.520e-09
  7.37356   -103.3 1.519e+04 1.506e-09
  7.39445   -102.9 1.519e+04 1.385e-09
  7.42872   -101.5 1.514e+04 1.441e-09
  7.47052   -100.3 1.514e+04 1.561e-09
  7.49221    -99.1 1.513e+04 1.640e-09
  7.51311    -98.7 1.523e+04 1.735e-09
  7.55411    -97.7 1.517e+04 1.834e-09
  7.58997    -96.9 1.509e+04 1.752e-09
  7.61086    -96.7 1.499e+04 2.289e-09
  7.63770    -95.9 1.495e+04 1.997e-09
  7.66181    -95.2 1.508e+04 1.670e-09
  7.68271    -96.1 1.512e+04 1.824e-09
  7.70862    -96.0 1.531e+04 1.883e-09
  7.72952    -96.5 1.522e+04 3.958e-09
  7.76308    -96.8 1.518e+04 6.057e-09
  7.80488    -96.9 1.506e+04 8.298e-09
  7.82728    -97.1 1.493e+04 8.686e-09
  7.84817    -98.0 1.486e+04 8.764e-09
  7.88847    -97.8 1.468e+04 6.898e-09
  7.92503    -97.3 1.464e+04 5.869e-09
  7.94593    -97.2 1.461e+04 5.268e-09
  7.97206    -96.7 1.463e+04 5.179e-09
  8.01386    -96.5 1.467e+04 5.197e-09
  8.04369    -96.4 1.474e+04 4.829e-09
  8.06459    -96.0 1.469e+04 5.009e-09
  8.09745    -95.9 1.489e+04 3.750e-09
  8.13924    -95.7 1.519e+04 2.475e-09
  8.16234    -95.3 1.549e+04 1.563e-09
  8.18324    -94.8 1.553e+04 1.525e-09
  8.21860    -94.5 1.549e+04 1.254e-09
  8.23950    -95.2 1.513e+04 1.282e-09
  8.26010    -94.7 1.521e+04 1.241e-09
  8.28100    -94.4 1.522e+04 1.286e-09
  8.30642    -94.6 1.529e+04 1.650e-09
  8.34822    -94.7 1.506e+04 2.332e-09
  8.37876    -94.9 1.495e+04 2.859e-09
  8.39965    -94.8 1.497e+04 3.224e-09
  8.43181    -95.3 1.493e+04 3.174e-09
  8.47361    -95.7 1.491e+04 3.031e-09
  8.49741    -95.9 1.489e+04 2.998e-09
  8.51831    -95.7 1.490e+04 3.021e-09
  8.55720    -95.8 1.475e+04 3.178e-09
  8.59517    -95.7 1.466e+04 3.424e-09
  8.61607    -95.4 1.474e+04 3.630e-09
  8.64079    -95.3 1.465e+04 3.907e-09
  8.68258    -95.3 1.458e+04 4.050e-09
  8.71382    -95.4 1.450e+04 3.971e-09
  8.73472    -95.2 1.465e+04 4.398e-09
  8.76617    -94.9 1.447e+04 3.560e-09
  8.79629    -94.2 1.458e+04 1.983e-09
  8.81719    -93.9 1.469e+04 1.734e-09
  8.83248    -93.0 1.482e+04 1.039e-09
  8.85338    -92.4 1.489e+04 1.161e-09
  8.89156    -91.4 1.497e+04 7.906e-10
  8.93024    -90.3 1.500e+04 7.101e-10
  8.95113    -89.7 1.516e+04 7.465e-10
  8.97515    -88.5 1.521e+04 7.275e-10
  9.01695    -87.5 1.527e+04 8.418e-10
  9.04889    -86.4 1.526e+04 1.048e-09
  9.06979    -85.7 1.527e+04 9.894e-10
  9.10054    -84.7 1.520e+04 1.207e-09
  9.14233    -84.0 1.520e+04 1.461e-09
  9.16755    -83.8 1.511e+04 1.861e-09
  9.18844    -83.3 1.501e+04 2.115e-09
  9.22592    -83.3 1.493e+04 2.864e-09
  9.26530    -83.4 1.494e+04 3.352e-09
  9.28620    -83.1 1.494e+04 3.464e-09
  9.30951    -83.4 1.491e+04 3.479e-09
  9.35131    -83.3 1.484e+04 2.843e-09
  9.37398    -82.9 1.500e+04 1.998e-09
  9.38572    -83.1 1.495e+04 2.318e-09
  9.40486    -82.7 1.493e+04 2.921e-09
  9.43490    -82.2 1.494e+04 2.630e-09
  9.47670    -81.6 1.484e+04 2.530e-09
  9.50261    -80.9 1.468e+04 2.296e-09
  9.52351    -80.5 1.470e+04 3.116e-09
  9.56029    -79.6 1.464e+04 2.324e-09
  9.60037    -78.7 1.453e+04 1.769e-09
  9.62127    -78.1 1.454e+04 2.117e-09
  9.64388    -77.2 1.455e+04 1.670e-09
  9.68567    -76.1 1.448e+04 1.465e-09
  9.71902    -75.0 1.437e+04 1.257e-09
  9.73992    -74.5 1.447e+04 1.331e-09
  9.76926    -73.1 1.435e+04 1.045e-09
  9.81106    -71.5 1.432e+04 7.460e-10
  9.83768    -69.8 1.425e+04 5.365e-10
  9.85858    -69.0 1.433e+04 5.457e-10
  9.89465    -67.3 1.423e+04 4.338e-10
  9.93076    -65.6 1.417e+04 4.001e-10
  9.95065    -65.4 1.423e+04 3.914e-10
  9.95633    -64.7 1.438e+04 3.666e-10
  9.97824    -62.7 1.437e+04 3.584e-10
 10.02004    -60.7 1.438e+04 3.647e-10
 10.05409    -58.9 1.439e+04 3.925e-10
 10.07499    -58.2 1.455e+04 3.902e-10
 10.10363    -56.5 1.457e+04 4.492e-10
 10.14542    -55.1 1.458e+04 5.435e-10
 10.17275    -53.9 1.452e+04 7.421e-10
 10.19364    -53.1 1.476e+04 7.764e-10
 10.22901    -51.8 1.471e+04 1.053e-09
 10.27050    -50.7 1.483e+04 1.284e-09
 10.29140    -49.9 1.494e+04 1.298e-09
 10.31260    -49.1 1.502e+04 1.424e-09
 10.35440    -48.7 1.506e+04 1.624e-09
 10.38916    -48.5 1.519e+04 2.014e-09
 10.41006    -47.6 1.525e+04 2.026e-09
 10.43799    -47.2 1.513e+04 2.573e-09
 10.47979    -47.1 1.481e+04 3.704e-09
 10.50781    -46.6 1.462e+04 5.865e-09
 10.51558    -45.8 1.462e+04 5.272e-09
 10.52935    -46.0 1.468e+04 1.023e-08
 10.56338    -45.8 1.460e+04 9.720e-09
 10.60517    -45.0 1.472e+04 5.337e-09
 10.62647    -44.2 1.498e+04 2.284e-09
 10.64737    -43.4 1.504e+04 2.497e-09
 10.68876    -43.0 1.518e+04 1.452e-09
 10.72423    -42.3 1.516e+04 1.219e-09
 10.74512    -41.4 1.504e+04 1.503e-09
 10.77235    -40.5 1.498e+04 1.570e-09
 10.81415    -39.6 1.491e+04 1.660e-09
 10.84288    -38.7 1.493e+04 1.611e-09
 10.86378    -37.8 1.501e+04 1.792e-09
 10.89774    -37.1 1.499e+04 1.771e-09
 10.93954    -36.2 1.483e+04 2.016e-09
 10.96154    -34.8 1.479e+04 2.091e-09
 10.98243    -34.2 1.476e+04 2.475e-09
 11.02313    -32.7 1.492e+04 2.020e-09
 11.05929    -31.9 1.510e+04 1.719e-09
 11.08019    -31.2 1.508e+04 1.707e-09
 11.08614    -30.1 1.491e+04 1.890e-09
 11.10703    -30.0 1.473e+04 2.150e-09
 11.14851    -28.3 1.448e+04 2.479e-09
 11.17795    -26.5 1.494e+04 1.743e-09
 11.19885    -25.9 1.480e+04 1.794e-09
 11.23210    -24.6 1.495e+04 1.415e-09
 11.27390    -23.1 1.511e+04 9.921e-10
 11.29660    -21.2 1.534e+04 6.055e-10
 11.31750    -20.2 1.534e+04 6.008e-10
 11.35749    -18.6 1.551e+04 4.073e-10
 11.39436    -16.9 1.547e+04 3.644e-10
 11.41526    -16.0 1.547e+04 3.691e-10
 11.44108    -13.8 1.546e+04 3.742e-10
 11.48288    -11.7 1.545e+04 4.014e-10
 11.51301     -9.5 1.536e+04 4.468e-10
 11.53391     -8.5 1.522e+04 4.681e-10
 11.56647     -6.3 1.524e+04 4.911e-10
 11.60826     -4.1 1.521e+04 4.976e-10
 11.63167     -2.0 1.521e+04 4.911e-10
 11.64543     -1.3 1.508e+04 6.461e-10
 11.66382     -1.3 1.506e+04 6.050e-10
 11.69185      0.7 1.509e+04 6.134e-10
 11.72943      2.6 1.510e+04 6.243e-10
 11.75032      3.4 1.487e+04 9.480e-10
 11.77544      5.2 1.489e+04 9.463e-10
 11.81724      6.9 1.488e+04 9.575e-10
 11.84808      8.5 1.481e+04 1.031e-09
 11.86898      9.1 1.469e+04 1.210e-09
 11.90083     10.9 1.463e+04 1.274e-09
 11.94263     12.6 1.452e+04 1.502e-09
 11.96674     14.1 1.438e+04 2.030e-09
 11.98763     14.4 1.439e+04 2.294e-09
 12.02622     15.7 1.430e+04 4.263e-09
 12.06449     16.7 1.433e+04 8.414e-09
 12.08539     16.5 1.446e+04 1.258e-08
 12.10981     16.5 1.480e+04 1.672e-08
 12.15160     15.8 1.481e+04 1.598e-08
 12.18315     15.4 1.461e+04 1.185e-08
 12.20405     14.8 1.451e+04 9.652e-09
 12.22061     14.8 1.453e+04 4.896e-09
 12.24151     14.9 1.451e+04 3.888e-09
 12.27699     14.8 1.465e+04 1.995e-09
 12.30180     15.6 1.458e+04 1.792e-09
 12.32270     16.1 1.451e+04 1.785e-09
 12.36058     17.3 1.442e+04 1.788e-09
 12.39956     18.3 1.441e+04 1.805e-09
 12.42046     18.8 1.443e+04 1.858e-09
 12.44417     19.7 1.445e+04 1.893e-09
 12.48597     20.5 1.448e+04 2.048e-09
 12.51822     21.2 1.450e+04 2.335e-09
 12.53911     21.4 1.446e+04 2.490e-09
 12.56956     22.0 1.449e+04 2.738e-09
 12.61135     22.7 1.442e+04 3.123e-09
 12.63687     23.5 1.425e+04 3.690e-09
 12.65777     23.5 1.427e+04 3.663e-09
 12.69494     24.1 1.422e+04 4.608e-09
 12.73463     24.5 1.443e+04 5.983e-09
 12.75553     24.4 1.447e+04 6.805e-09
 12.77740     24.4 1.458e+04 7.706e-09
 12.79830     24.4 1.449e+04 5.192e-09
 12.82033     24.1 1.452e+04 6.396e-09
 12.85328     23.8 1.453e+04 6.349e-09
 12.87418     23.7 1.455e+04 6.564e-09
 12.90392     23.6 1.443e+04 5.377e-09
 12.94572     23.7 1.436e+04 3.612e-09
 12.97194     24.0 1.439e+04 2.483e-09
 12.99284     24.1 1.439e+04 2.409e-09
 13.02931     25.0 1.450e+04 2.280e-09
 13.06969     26.1 1.461e+04 2.274e-09
 13.09059     26.2 1.452e+04 2.250e-09
 13.11290     27.4 1.472e+04 2.087e-09
 13.15469     28.6 1.480e+04 2.012e-09
 13.18835     29.7 1.485e+04 2.061e-09
 13.20925     29.5 1.487e+04 1.965e-09
 13.23828     29.8 1.480e+04 2.792e-09
 13.28008     29.6 1.441e+04 4.724e-09
 13.30700     29.2 1.421e+04 7.022e-09
 13.32790     28.6 1.425e+04 7.449e-09
 13.35509     27.6 1.425e+04 7.348e-09
 13.37598     28.0 1.425e+04 7.031e-09
 13.40476     27.2 1.433e+04 5.575e-09
 13.42566     26.6 1.444e+04 4.727e-09
 13.44726     26.1 1.462e+04 3.865e-09
 13.48906     25.8 1.459e+04 4.216e-09
 13.52342     25.7 1.450e+04 5.292e-09
 13.54431     25.9 1.447e+04 8.479e-09
 13.57265     25.9 1.454e+04 1.191e-08
 13.61444     25.6 1.466e+04 1.241e-08
 13.64207     25.2 1.463e+04 1.032e-08
 13.66297     24.9 1.474e+04 1.201e-08
 13.69803     24.1 1.484e+04 6.843e-09
 13.73983     23.4 1.466e+04 5.816e-09
 13.78162     22.6 1.447e+04 6.634e-09
 13.82342     22.1 1.438e+04 8.926e-09
 13.85848     21.4 1.464e+04 1.063e-08
